Vload_(V)	ILoad_(A)	RsLoad (ohm)	SunsVoc_Voltage_(V)	SunsVoc_Current_(A)	Model_Voltage_(V)	Model_Current_(A)	Carrier_Density_(cm-3)	Lifetime_(s)	Inverse_Lifetime_(s-1)	Efficiency_(%)	Intensity_(suns)	Dark_IV_Voltage_(V)	Dark_IV_Current_(A)
4.289823	3.850424	0	63.983881	-0.520167	64.609435	-0.520167	1.814995E+15	0.000187	5338.473364	15.494052	1.116952	0	0
4.823749	3.848245	6.662065	63.984453	-0.38826	64.451359	-0.38826	1.815334E+15	0.000193	5176.220497	15.488971	1.116707	0	0
9.341764	3.833485	9.385533	63.85496	-0.148899	64.035456	-0.148899	1.739935E+15	0.000196	5095.919806	15.494051	1.114671	0	0
13.677143	3.828412	8.637349	63.676464	0.125009	63.523266	0.125009	1.640402E+15	0.000198	5035.42878	15.474525	1.111974	0	0
17.999621	3.816813	8.068625	63.483756	0.384689	63.006804	0.384689	1.538469E+15	0.0002	4995.307766	15.509672	1.109792	0	0
22.311727	3.805523	7.292737	63.295254	0.620482	62.517248	0.620482	1.444092E+15	0.000201	4960.141254	15.48676	1.108728	0	0
26.645511	3.803984	6.193282	63.108631	0.837636	62.046702	0.837636	1.355635E+15	0.000203	4928.946467	15.52571	1.107214	0	0
30.961212	3.798756	5.18133	62.919639	1.035183	61.592701	1.035183	1.270897E+15	0.000203	4913.210516	15.475011	1.105726	0	0
35.285127	3.794547	4.132788	62.743633	1.215937	61.169064	1.215937	1.196182E+15	0.000205	4885.227549	15.509974	1.102824	0	0
39.586842	3.789968	3.085471	62.562196	1.385634	60.749161	1.385634	1.123225E+15	0.000205	4867.693944	15.486998	1.099598	0	0
43.895812	3.764036	2.319624	62.382434	1.545521	60.33951	1.545521	1.054841E+15	0.000206	4847.271019	15.512906	1.095056	0	0
45.322115	3.74619	2.128341	62.197893	1.699437	59.928168	1.699437	9.885019E+14	0.000207	4827.379578	15.501442	1.091175	0	0
46.747226	3.716415	1.992396	62.009147	1.844141	59.520243	1.844141	9.245188E+14	0.000208	4814.438645	15.511677	1.087215	0	0
48.170476	3.673717	1.873533	61.826158	1.974517	59.134394	1.974517	8.660511E+14	0.000208	4805.652851	15.524814	1.083995	0	0
49.594726	3.606648	1.786375	61.644925	2.094684	58.761079	2.094684	8.114422E+14	0.000208	4800.657972	15.509554	1.080306	0	0
51.019526	3.51015	1.710979	61.46406	2.205762	58.397585	2.205762	7.600633E+14	0.000208	4801.061665	15.537019	1.075817	0	0
52.446263	3.37183	1.647916	61.29128	2.307182	58.054131	2.307182	7.13756E+14	0.000208	4797.388885	15.500497	1.070879	0	0
53.865359	3.181197	1.597361	61.113151	2.401507	57.711808	2.401507	6.687192E+14	0.000208	4807.617052	15.548863	1.065239	0	0
55.257165	2.933623	1.554147	60.938983	2.488728	57.381832	2.488728	6.272126E+14	0.000208	4817.297641	15.521335	1.06038	0	0
56.643315	2.624068	1.518559	60.769797	2.569939	57.064199	2.569939	5.891723E+14	0.000207	4822.556103	15.55787	1.054952	0	0
58.008968	2.250364	1.485425	60.600284	2.646962	56.75022	2.646962	5.53203E+14	0.000207	4827.243077	15.5334	1.050391	0	0
59.351121	1.819347	1.460474	60.424483	2.719056	56.433967	2.719056	5.180555E+14	0.000206	4846.014837	15.557253	1.045234	0	0
60.673038	1.33765	1.453141	60.257624	2.786063	56.134157	2.786063	4.866264E+14	0.000206	4853.501231	15.552639	1.040236	0	0
61.940598	0.823729	1.472541	60.091501	2.848883	55.839822	2.848883	4.571102E+14	0.000206	4861.989375	15.555582	1.034405	0	0
63.037845	0.345695	1.465594	59.922111	2.907147	55.546814	2.907147	4.287452E+14	0.000205	4882.135926	15.573175	1.028514	0	0
50.345401	3.557772	1.753529	59.758846	2.961833	55.265243	2.961833	4.029774E+14	0.000204	4893.213783	15.557321	1.022492	0	0
63.774426	0	0	59.594357	3.012721	54.986652	3.012721	3.784968E+14	0.000204	4911.382603	15.592784	1.016502	0	0
0	0	0	59.433134	3.060143	54.716168	3.060143	3.558714E+14	0.000203	4927.954621	15.566415	1.010975	0	0
0	0	0	59.26701	3.105203	54.442182	3.105203	3.339027E+14	0.000202	4952.742511	15.608175	1.00521	0	0
0	0	0	59.107503	3.146393	54.181309	3.146393	3.140265E+14	0.000201	4975.174228	15.574239	0.999478	0	0
0	0	0	58.952324	3.185022	53.928852	3.185022	2.957753E+14	0.0002	4992.370497	15.619281	0.99327	0	0
0	0	0	58.793878	3.220892	53.675834	3.220892	2.781878E+14	0.000199	5021.86816	15.584549	0.987519	0	0
0	0	0	58.640945	3.254623	53.432245	3.254623	2.621651E+14	0.000198	5043.288315	15.63089	0.980921	0	0
0	0	0	58.485398	3.286507	53.18761	3.286507	2.467789E+14	0.000197	5071.025696	15.601612	0.975434	0	0
0	0	0	58.335079	3.316336	52.952091	3.316336	2.327374E+14	0.000196	5092.561742	15.625519	0.969417	0	0
0	0	0	58.1799	3.344192	52.713059	3.344192	2.190509E+14	0.000195	5128.548107	15.619819	0.964029	0	0
0	0	0	58.032643	3.370123	52.486463	3.370123	2.06784E+14	0.000194	5154.511115	15.627487	0.958132	0	0
0	0	0	57.880772	3.394597	52.255931	3.394597	1.948296E+14	0.000193	5192.020667	15.639401	0.952493	0	0
0	0	0	57.733433	3.417962	52.032383	3.417962	1.838736E+14	0.000192	5219.400565	15.627525	0.946464	0	0
0	0	0	57.580745	3.439958	51.803901	3.439958	1.731514E+14	0.00019	5260.706261	15.66174	0.940639	0	0
0	0	0	57.434101	3.46074	51.584572	3.46074	1.634273E+14	0.000189	5291.531867	15.634488	0.935198	0	0
0	0	0	57.282148	3.480236	51.360292	3.480236	1.539125E+14	0.000187	5337.5506	15.672278	0.929433	0	0
0	0	0	57.136525	3.498757	51.145221	3.498757	1.45302E+14	0.000186	5370.990579	15.63671	0.924329	0	0
0	0	0	56.984817	3.516179	50.923964	3.516179	1.368323E+14	0.000184	5420.894786	15.684086	0.91871	0	0
0	0	0	56.83609	3.532547	50.707907	3.532547	1.289983E+14	0.000183	5468.519447	15.649563	0.913606	0	0
0	0	0	56.689895	3.547977	50.496326	3.547977	1.217262E+14	0.000181	5513.916398	15.688682	0.908013	0	0
0	0	0	56.545007	3.562652	50.287388	3.562652	1.14916E+14	0.00018	5557.283503	15.657423	0.903002	0	0
0	0	0	56.39579	3.576675	50.073804	3.576675	1.082933E+14	0.000178	5609.778904	15.690334	0.897224	0	0
0	0	0	56.251678	3.589896	49.867806	3.589896	1.022535E+14	0.000177	5654.208915	15.675255	0.892312	0	0
0	0	0	56.104176	3.602766	49.657851	3.602766	9.641468E+13	0.000175	5700.386536	15.6888	0.886851	0	0
0	0	0	55.960431	3.614555	49.45433	3.614555	9.104068E+13	0.000174	5749.522309	15.68765	0.881972	0	0
0	0	0	55.809989	3.625734	49.243154	3.625734	8.573221E+13	0.000172	5816.145377	15.685007	0.876776	0	0
0	0	0	55.668449	3.636228	49.04429	3.636228	8.101695E+13	0.00017	5867.213956	15.70158	0.871625	0	0
0	0	0	55.522459	3.646061	48.840754	3.646061	7.642145E+13	0.000169	5934.469894	15.687229	0.866489	0	0
0	0	0	55.377856	3.655579	48.639353	3.655579	7.212355E+13	0.000167	5995.24798	15.715401	0.861299	0	0
0	0	0	55.228966	3.664504	48.43339	3.664504	6.794772E+13	0.000165	6072.218655	15.687785	0.856327	0	0
0	0	0	55.083506	3.672883	48.232614	3.672883	6.409916E+13	0.000163	6146.705442	15.724457	0.851164	0	0
0	0	0	54.935473	3.680928	48.029007	3.680928	6.040396E+13	0.000161	6227.172529	15.688977	0.84649	0	0
0	0	0	54.788584	3.688526	47.827522	3.688526	5.694585E+13	0.000158	6309.214429	15.732106	0.841353	0	0
0	0	0	54.637448	3.695885	47.62091	3.695885	5.35924E+13	0.000156	6399.294359	15.692231	0.836666	0	0
0	0	0	54.487251	3.702777	47.416221	3.702777	5.045378E+13	0.000154	6494.208266	15.733966	0.831509	0	0
0	0	0	54.335053	3.709324	47.209489	3.709324	4.745927E+13	0.000152	6597.857503	15.695316	0.826894	0	0
0	0	0	54.187633	3.71552	47.009384	3.71552	4.472703E+13	0.000149	6693.442634	15.741673	0.821771	0	0
0	0	0	54.03568	3.721423	46.803925	3.721423	4.207411E+13	0.000147	6804.146991	15.705263	0.817493	0	0
0	0	0	53.887198	3.727048	46.603311	3.727048	3.963284E+13	0.000145	6908.30371	15.741321	0.812654	0	0
0	0	0	53.733939	3.732376	46.39705	3.732376	3.726052E+13	0.000142	7030.836226	15.708144	0.808469	0	0
0	0	0	53.58317	3.73742	46.194412	3.73742	3.506453E+13	0.00014	7151.898547	15.738226	0.80355	0	0
0	0	0	53.432932	3.742267	45.992733	3.742267	3.300429E+13	0.000138	7272.461171	15.718063	0.799405	0	0
0	0	0	53.283307	3.746959	45.792037	3.746959	3.107213E+13	0.000135	7389.551153	15.739981	0.794506	0	0
0	0	0	53.131721	3.751275	45.589485	3.751275	2.922939E+13	0.000133	7527.708431	15.725871	0.790302	0	0
0	0	0	52.980994	3.755438	45.388245	3.755438	2.750493E+13	0.00013	7663.835601	15.735491	0.785522	0	0
0	0	0	52.829	3.759331	45.185838	3.759331	2.586854E+13	0.000128	7814.675312	15.732446	0.781284	0	0
0	0	0	52.676189	3.763201	44.982343	3.763201	2.432107E+13	0.000126	7958.712172	15.728643	0.77661	0	0
0	0	0	52.523175	3.766821	44.779014	3.766821	2.286392E+13	0.000123	8114.566102	15.743463	0.772227	0	0
0	0	0	52.368363	3.770303	44.573588	3.770303	2.147815E+13	0.000121	8278.371357	15.72411	0.767718	0	0
0	0	0	52.213102	3.773567	44.367957	3.773567	2.017242E+13	0.000118	8455.122172	15.749708	0.763269	0	0
0	0	0	52.054656	3.77674	44.158363	3.77674	1.892143E+13	0.000116	8642.072048	15.721414	0.758958	0	0
0	0	0	51.898701	3.77974	43.952247	3.77974	1.776567E+13	0.000113	8829.503028	15.751092	0.754575	0	0
0	0	0	51.735355	3.782677	43.736722	3.782677	1.663053E+13	0.000111	9040.18383	15.720611	0.75039	0	0
0	0	0	51.565638	3.78547	43.513267	3.78547	1.552767E+13	0.000108	9283.137647	15.754031	0.74606	0	0
0	0	0	51.403476	3.788211	43.299536	3.788211	1.454213E+13	0.000105	9493.915757	15.719464	0.741915	0	0
0	0	0	51.242743	3.790622	43.088285	3.790622	1.362687E+13	0.000103	9739.059463	15.754311	0.737551	0	0
0	0	0	51.070372	3.793157	42.86178	3.793157	1.270911E+13	0.0001	9999.654653	15.717105	0.733492	0	0
0	0	0	50.907271	3.795552	42.647405	3.795552	1.189757E+13	9.770395E-5	10235.000446	15.754807	0.729215	0	0
0	0	0	50.741433	3.797686	42.430032	3.797686	1.112542E+13	9.506077E-5	10519.586853	15.711964	0.725367	0	0
0	0	0	50.569838	3.799865	42.205123	3.799865	1.037909E+13	9.25042E-5	10810.319763	15.751842	0.720891	0	0
0	0	0	50.405879	3.801881	41.990316	3.801881	9.712705E+12	9.016041E-5	11091.34232	15.71335	0.71711	0	0
0	0	0	50.234488	3.803761	41.766225	3.803761	9.061737E+12	8.750676E-5	11427.688912	15.747925	0.71266	0	0
0	0	0	50.059626	3.805658	41.537592	3.805658	8.442463E+12	8.498242E-5	11767.139418	15.713729	0.708998	0	0
0	0	0	49.882477	3.807579	41.305923	3.807579	7.858172E+12	8.264694E-5	12099.661456	15.749295	0.704654	0	0
0	0	0	49.708676	3.809222	41.079129	3.809222	7.324192E+12	8.010326E-5	12483.886521	15.712146	0.700926	0	0
0	0	0	49.532507	3.810863	40.849259	3.810863	6.819909E+12	7.768115E-5	12873.136394	15.743652	0.696642	0	0
0	0	0	49.356175	3.812443	40.619276	3.812443	6.349889E+12	7.533559E-5	13273.937871	15.712049	0.692953	0	0
0	0	0	49.177474	3.813898	40.386497	3.813898	5.906559E+12	7.286778E-5	13723.485697	15.736846	0.688781	0	0
0	0	0	48.999834	3.815363	40.15502	3.815363	5.496515E+12	7.064207E-5	14155.871101	15.712347	0.685204	0	0
0	0	0	48.818316	3.816736	39.918736	3.816736	5.10688E+12	6.831016E-5	14639.111475	15.729597	0.681039	0	0
0	0	0	48.638921	3.818009	39.685378	3.818009	4.748925E+12	6.601642E-5	15147.745553	15.710828	0.677383	0	0
0	0	0	48.454094	3.819331	39.444893	3.819331	4.406335E+12	6.385868E-5	15659.579379	15.727384	0.673291	0	0
0	0	0	48.269758	3.820512	39.205337	3.820512	4.089254E+12	6.160347E-5	16232.851304	15.703808	0.669807	0	0
0	0	0	48.084319	3.821749	38.964198	3.821749	3.79328E+12	5.960967E-5	16775.801879	15.723176	0.665649	0	0
0	0	0	47.893408	3.8228	38.716443	3.8228	3.510922E+12	5.727098E-5	17460.849184	15.701237	0.662244	0	0
0	0	0	47.702619	3.823815	38.4689	3.823815	3.249731E+12	5.503309E-5	18170.885158	15.711441	0.658158	0	0
0	0	0	47.508401	3.824889	38.216779	3.824889	3.003783E+12	5.300783E-5	18865.136519	15.700027	0.654648	0	0
0	0	0	47.311487	3.825847	37.961449	3.825847	2.773408E+12	5.084929E-5	19665.95779	15.701706	0.650747	0	0
0	0	0	47.113307	3.82675	37.704598	3.82675	2.559381E+12	4.871508E-5	20527.525115	15.695688	0.647171	0	0
0	0	0	46.914514	3.827664	37.446904	3.827664	2.361278E+12	4.675085E-5	21389.985945	15.697461	0.643283	0	0
0	0	0	46.712659	3.828576	37.185256	3.828576	2.1758E+12	4.487564E-5	22283.803037	15.68827	0.639799	0	0
0	0	0	46.505944	3.829463	36.917395	3.829463	2.000941E+12	4.301667E-5	23246.800951	15.685437	0.636084	0	0
0	0	0	46.298617	3.830317	36.648803	3.830317	1.839674E+12	4.122981E-5	24254.293376	15.681978	0.632712	0	0
0	0	0	46.089983	3.831079	36.37874	3.831079	1.690505E+12	3.937885E-5	25394.34536	15.685038	0.628891	0	0
0	0	0	45.874651	3.831739	36.100305	3.831739	1.549216E+12	3.736213E-5	26765.067813	15.679411	0.625592	0	0
0	0	0	45.657768	3.832506	35.81958	3.832506	1.418841E+12	3.56826E-5	28024.865214	15.674922	0.621962	0	0
0	0	0	45.437169	3.833177	35.5343	3.833177	1.297479E+12	3.390038E-5	29498.19276	15.672469	0.618498	0	0
0	0	0	45.212159	3.833878	35.243253	3.833878	1.184376E+12	3.225585E-5	31002.124657	15.668336	0.614888	0	0
0	0	0	44.98278	3.834436	34.946938	3.834436	1.079218E+12	3.041781E-5	32875.481128	15.667269	0.611543	0	0
0	0	0	44.749726	3.835093	34.645619	3.835093	9.819303E+11	2.886218E-5	34647.416013	15.668218	0.607914	0	0
0	0	0	44.51418	3.835768	34.341027	3.835768	8.925101E+11	2.744231E-5	36440.087294	15.658426	0.604674	0	0
0	0	0	44.276266	3.83633	34.033668	3.83633	8.104533E+11	2.591297E-5	38590.71869	15.654739	0.601064	0	0
0	0	0	44.033289	3.836826	33.719956	3.836826	7.344306E+11	2.433857E-5	41087.050076	15.6458	0.597832	0	0
0	0	0	43.788759	3.837412	33.403988	3.837412	6.651197E+11	2.303436E-5	43413.404423	15.650194	0.594262	0	0
0	0	0	43.535736	3.837941	33.077232	3.837941	6.002786E+11	2.166955E-5	46147.694846	15.637875	0.591207	0	0
0	0	0	43.280384	3.838411	32.747625	3.838411	5.412472E+11	2.030343E-5	49252.753081	15.644291	0.587604	0	0
0	0	0	43.020623	3.838812	32.412522	3.838812	4.871487E+11	1.890413E-5	52898.49043	15.625802	0.58455	0	0
0	0	0	42.74959	3.839284	32.062711	3.839284	4.364581E+11	1.765538E-5	56639.973153	15.63205	0.581006	0	0
0	0	0	42.479456	3.839816	31.713869	3.839816	3.911842E+11	1.661712E-5	60178.910017	15.616652	0.577998	0	0
0	0	0	42.188455	3.840189	31.33862	3.840189	3.476528E+11	1.530622E-5	65332.916168	15.625398	0.574494	0	0
0	0	0	41.904681	3.840622	30.972478	3.840622	3.09872E+11	1.424611E-5	70194.587327	15.60851	0.57144	0	0
0	0	0	41.608289	3.841123	30.589897	3.841123	2.747875E+11	1.331378E-5	75110.122166	15.61829	0.568062	0	0
0	0	0	41.316757	3.841437	30.214084	3.841437	2.441557E+11	1.224265E-5	81681.660414	15.592844	0.565001	0	0
0	0	0	41.019548	3.841853	29.830662	3.841853	2.164398E+11	1.137886E-5	87882.270112	15.610934	0.561543	0	0
0	0	0	40.713927	3.842228	29.436521	3.842228	1.912167E+11	1.051268E-5	95123.192668	15.58336	0.558793	0	0
0	0	0	40.403569	3.842623	29.036209	3.842623	1.686089E+11	9.74025E-6	102666.771371	15.601979	0.555309	0	0
0	0	0	40.092721	3.842862	28.635718	3.842862	1.486444E+11	8.85786E-6	112894.078745	15.568092	0.552539	0	0
0	0	0	39.777258	3.843196	28.228994	3.843196	1.307988E+11	8.154404E-6	122633.122144	15.597828	0.549094	0	0
0	0	0	39.460693	3.843506	27.820908	3.843506	1.150442E+11	7.493794E-6	133443.753412	15.55192	0.54639	0	0
0	0	0	39.14617	3.843858	27.415306	3.843858	1.01271E+11	6.950588E-6	143872.720284	15.584628	0.542926	0	0
0	0	0	38.830054	3.844092	27.008004	3.844092	8.908922E+10	6.339755E-6	157734.798938	15.54115	0.540202	0	0
0	0	0	38.516756	3.844337	26.604277	3.844337	7.84623E+10	5.80893E-6	172148.756891	15.576654	0.536923	0	0
0	0	0	38.204846	3.844608	26.202246	3.844608	6.91419E+10	5.357367E-6	186658.84692	15.530787	0.534094	0	0
0	0	0	37.895468	3.844845	25.803566	3.844845	6.099122E+10	4.926393E-6	202988.267668	15.561374	0.5309	0	0
0	0	0	37.589887	3.845062	25.409821	3.845062	5.388426E+10	4.528883E-6	220804.994683	15.517052	0.528117	0	0
0	0	0	37.28443	3.845326	25.016076	3.845326	4.760779E+10	4.208577E-6	237610.032586	15.552114	0.524871	0	0
0	0	0	36.979585	3.845471	24.623489	3.845471	4.207285E+10	3.828218E-6	261218.167471	15.5002	0.522134	0	0
0	0	0	36.676414	3.845676	24.232857	3.845676	3.720666E+10	3.531141E-6	283194.612946	15.53344	0.518987	0	0
0	0	0	36.367322	3.845797	23.834868	3.845797	3.282439E+10	3.19709E-6	312784.397356	15.488737	0.516217	0	0
0	0	0	36.056719	3.846061	23.434465	3.846061	2.894054E+10	2.989125E-6	334546.048531	15.529108	0.51311	0	0
0	0	0	35.741378	3.846269	23.028138	3.846269	2.546727E+10	2.76235E-6	362010.57063	15.475404	0.510459	0	0
0	0	0	35.422363	3.846319	22.617603	3.846319	2.237748E+10	2.456338E-6	407110.081104	15.50508	0.507451	0	0
0	0	0	35.102122	3.846557	22.204857	3.846557	1.965278E+10	2.290021E-6	436677.271813	15.464837	0.504747	0	0
0	0	0	34.77641	3.846661	21.785512	3.846661	1.72216E+10	2.06236E-6	484881.422238	15.489481	0.501851	0	0
0	0	0	34.450983	3.846808	21.366385	3.846808	1.509291E+10	1.88076E-6	531699.878296	15.449945	0.499187	0	0
0	0	0	34.120248	3.846954	20.940423	3.846954	1.319891E+10	1.714262E-6	583341.418695	15.467685	0.49643	0	0
0	0	0	33.784734	3.847065	20.508431	3.847065	1.152024E+10	1.545489E-6	647044.574563	15.441399	0.493666	0	0
0	0	0	33.442564	3.847313	20.067391	3.847313	1.002797E+10	1.452742E-6	688353.376555	15.448332	0.491075	0	0
0	0	0	33.095453	3.847409	19.620517	3.847409	8.711536E+9	1.302085E-6	767998.839282	15.427198	0.488258	0	0
0	0	0	32.730905	3.847587	19.150914	3.847587	7.514601E+9	1.19383E-6	837640.4872	15.422978	0.485766	0	0
0	0	0	32.370971	3.847672	18.68757	3.847672	6.49426E+9	1.063615E-6	940189.989391	15.416278	0.482864	0	0
0	0	0	32.006423	3.847704	18.218474	3.847704	5.601971E+9	9.28266E-7	1077277.472571	15.404935	0.480424	0	0
0	0	0	31.641262	3.847908	17.747969	3.847908	4.831079E+9	8.653749E-7	1155568.568088	15.401429	0.477648	0	0
0	0	0	31.271038	3.848002	17.271339	3.848002	4.157726E+9	7.734959E-7	1292831.669086	15.376425	0.475307	0	0
0	0	0	30.895096	3.848178	16.787046	3.848178	3.569939E+9	7.162411E-7	1396177.816413	15.392421	0.472471	0	0
0	0	0	30.517276	3.848216	16.300836	3.848216	3.062916E+9	6.251707E-7	1599563.160517	15.351584	0.47023	0	0
0	0	0	30.136883	3.848382	15.81084	3.848382	2.625164E+9	5.792561E-7	1726352.116866	15.38468	0.467394	0	0
0	0	0	29.750978	3.848452	15.3141	3.848452	2.244951E+9	5.129621E-7	1949461.695683	15.336426	0.465258	0	0
0	0	0	29.361111	3.848479	14.812421	3.848479	1.916726E+9	4.441895E-7	2251291.618326	15.368599	0.462482	0	0
0	0	0	28.968304	3.8486	14.306601	3.8486	1.634539E+9	4.039238E-7	2475714.62453	15.313111	0.460267	0	0
0	0	0	28.568023	3.848717	13.791176	3.848717	1.38968E+9	3.669E-7	2725538.621398	15.352825	0.457622	0	0
0	0	0	28.169581	3.848772	13.278347	3.848772	1.182382E+9	3.226023E-7	3099792.099943	15.301689	0.455348	0	0
0	0	0	27.765258	3.848821	12.757974	3.848821	1.003611E+9	2.82168E-7	3543987.627995	15.330878	0.452856	0	0
0	0	0	27.361343	3.848965	12.237748	3.848965	8.520108E+8	2.632424E-7	3798780.108084	15.292508	0.450568	0	0
0	0	0	26.951384	3.849008	11.71014	3.849008	7.215401E+8	2.29615E-7	4355115.320354	15.304088	0.448149	0	0
0	0	0	26.537669	3.849103	11.177485	3.849103	6.101187E+8	2.081964E-7	4803157.985982	15.282734	0.44565	0	0
0	0	0	26.119666	3.849178	10.639393	3.849178	5.150071E+8	1.862131E-7	5370190.511072	15.284461	0.443316	0	0
0	0	0	25.700437	3.849279	10.099608	3.849279	4.345066E+8	1.710869E-7	5844983.600135	15.276735	0.440777	0	0
0	0	0	25.281086	3.849248	9.560205	3.849248	3.665708E+8	1.404342E-7	7120771.509293	15.251591	0.438708	0	0
0	0	0	24.859489	3.849383	9.017225	3.849383	3.089755E+8	1.338162E-7	7472937.388948	15.266911	0.436063	0	0
0	0	0	24.433686	3.8494	8.469317	3.8494	2.599857E+8	1.14467E-7	8736138.587404	15.22486	0.434001	0	0
0	0	0	24.004004	3.849462	7.91623	3.849462	2.184197E+8	1.023172E-7	9773523.393118	15.256403	0.431429	0	0
0	0	0	23.569094	3.849536	7.356361	3.849536	1.831108E+8	9.295217E-8	1.075822E+7	15.204133	0.429399	0	0
0	0	0	23.118258	3.849646	6.775842	3.849646	1.525217E+8	8.841147E-8	1.131075E+7	15.244084	0.426887	0	0
0	0	0	22.672772	3.849723	6.202345	3.849723	1.273184E+8	8.18427E-8	1.221856E+7	15.183049	0.424851	0	0
0	0	0	22.235412	3.849685	5.639792	3.849685	1.066306E+8	6.500379E-8	1.538372E+7	15.216302	0.422431	0	0
0	0	0	21.793029	3.849823	5.070014	3.849823	8.912264E+7	6.678998E-8	1.497231E+7	15.175134	0.420263	0	0
0	0	0	21.347012	3.849772	4.496377	3.849772	7.437968E+7	5.139035E-8	1.945891E+7	15.178679	0.418094	0	0
0	0	0	20.900055	3.84985	3.920965	3.84985	6.205191E+7	4.873852E-8	2.051765E+7	15.157342	0.4158	0	0
0	0	0	20.450935	3.849856	3.343083	3.849856	5.172195E+7	4.108074E-8	2.434231E+7	15.149978	0.413738	0	0
0	0	0	19.999323	3.849973	2.761502	3.849973	4.306813E+7	4.306346E-8	2.322154E+7	15.152071	0.411311	0	0
0	0	0	19.541504	3.84998	2.172424	3.84998	3.577208E+7	3.628066E-8	2.756289E+7	15.11094	0.409374	0	0
0	0	0	19.077559	3.849963	1.57557	3.849963	2.963834E+7	2.895387E-8	3.45377E+7	15.131991	0.406955	0	0
0	0	0	18.610144	3.850056	0.973746	3.850056	2.452179E+7	3.003273E-8	3.3297E+7	15.087403	0.405037	0	0
0	0	0	18.137909	3.850141	0.365755	3.850141	2.024894E+7	3.223349E-8	3.102363E+7	15.120558	0.402591	0	0
0	0	0	17.660244	3.850018	-0.248264	3.850018	1.668383E+7	1.851218E-8	5.401849E+7	15.064782	0.400727	0	0
0	0	0	17.171838	3.850132	-0.877205	3.850132	1.368669E+7	2.115334E-8	4.727387E+7	15.100353	0.398393	0	0
0	0	0	16.669467	3.850173	-1.523775	3.850173	1.116457E+7	2.002338E-8	4.994163E+7	15.04759	0.39639	0	0
0	0	0	16.157212	3.850194	-2.182971	3.850194	9070791.5	1.776847E-8	5.627946E+7	15.061235	0.394307	0	0
0	0	0	15.631319	3.850249	-2.859881	3.850249	7329037.5	1.88844E-8	5.295376E+7	15.042854	0.392132	0	0
0	0	0	15.093297	3.850204	-3.551919	3.850204	5892684	1.210099E-8	8.26379E+7	15.015542	0.390235	0	0
0	0	0	14.56773	3.850223	-4.228238	3.850223	4761814	1.071058E-8	9.336562E+7	15.029799	0.387961	0	0
0	0	0	14.058416	3.850209	-4.883479	3.850209	3873410	8.111132E-9	1.232873E+8	14.987396	0.386163	0	0
0	0	0	13.577075	3.850302	-5.503263	3.850302	3186691	1.17848E-8	8.485508E+7	15.023879	0.383895	0	0
0	0	0	13.130609	3.850376	-6.078087	3.850376	2659053.5	2.517088E-8	3.972846E+7	14.963493	0.38211	0	0
0	0	0	12.709012	3.850317	-6.620246	3.850317	2241265	9.438769E-9	1.05946E+8	14.992417	0.379915	0	0
0	0	0	12.301871	3.850323	-7.144133	3.850323	1900223.5	8.508587E-9	1.175283E+8	14.940584	0.378037	0	0
0	0	0	11.912616	3.850376	-7.645244	3.850376	1622802	1.536169E-8	6.509701E+7	14.960708	0.376054	0	0
0	0	0	11.535613	3.850383	-8.130356	3.850383	1392783.5	1.521892E-8	6.57077E+7	14.925881	0.373998	0	0
0	0	0	11.167022	3.850366	-8.604525	3.850366	1199452	9.285305E-9	1.076971E+8	14.911519	0.372206	0	0
0	0	0	10.80766	3.8504	-9.067081	3.8504	1036829	1.925205E-8	5.194253E+7	14.914497	0.370111	0	0
0	0	0	10.456139	3.85033	-9.519011	3.85033	899108.5	4.297702E-9	2.326825E+8	14.877136	0.368425	0	0
0	0	0	10.109191	3.850406	-9.965816	3.850406	781128	1.965964E-8	5.086563E+7	14.910684	0.36617	0	0
0	0	0	9.763999	3.85041	-10.409988	3.85041	679112.5	2.240017E-8	4.464252E+7	14.845428	0.364577	0	0
0	0	0	9.431671	3.850436	-10.83772	3.850436	593507	-2.267533E-8	-4.410079E+7	14.877525	0.362521	0	0
0	0	0	9.103753	3.850448	-11.259712	3.850448	519621	-9.548372E-9	-1.047299E+8	14.830808	0.360769	0	0
0	0	0	8.782778	3.850455	-11.672737	3.850455	456215.5	-6.655929E-9	-1.50242E+8	14.840216	0.358859	0	0
0	0	0	8.469275	3.85047	-12.076193	3.85047	401762.5	-3.958405E-9	-2.52627E+8	14.824223	0.356809	0	0
0	0	0	8.158141	3.850421	-12.476262	3.850421	354148.5	5.224133E-8	1.914193E+7	14.797608	0.355196	0	0
0	0	0	7.852602	3.850478	-12.8697	3.850478	312886.5	-2.600311E-9	-3.845693E+8	14.816141	0.3531	0	0
0	0	0	7.550003	3.85051	-13.25922	3.85051	276761.5	-1.449462E-9	-6.89911E+8	14.762965	0.351533	0	0
0	0	0	7.251977	3.850448	-13.64235	3.850448	245262	-4.506839E-9	-2.21885E+8	14.784892	0.349504	0	0
0	0	0	6.960813	3.850482	-14.01717	3.850482	217952.5	-1.679894E-9	-5.952757E+8	14.726139	0.347871	0	0
0	0	0	6.674221	3.850465	-14.385829	3.850465	194044	-2.107321E-9	-4.745362E+8	14.742876	0.345993	0	0
0	0	0	6.393878	3.850427	-14.746331	3.850427	173196	-2.358389E-8	-4.240183E+7	14.719923	0.34403	0	0
0	0	0	6.118721	3.850444	-15.100462	3.850444	154913	-3.442147E-9	-2.905164E+8	14.688956	0.342569	0	0
0	0	0	5.84871	3.850459	-15.447962	3.850459	138850	-1.781086E-9	-5.614553E+8	14.699027	0.340532	0	0
0	0	0	5.582374	3.850533	-15.791063	3.850533	124638	-5.134955E-10	-1.947437E+9	14.643373	0.339124	0	0
0	0	0	5.320489	3.85052	-16.127956	3.85052	112082.5	-5.225805E-10	-1.913581E+9	14.681647	0.337042	0	0
0	0	0	5.063545	3.85048	-16.458336	3.85048	100994	-8.077307E-10	-1.238036E+9	14.62923	0.335429	0	0
0	0	0	4.796188	3.850444	-16.802136	3.850444	90619	-2.013542E-9	-4.966374E+8	14.645099	0.333637	0	0
0	0	0	4.546431	3.850523	-17.123934	3.850523	81892.5	-3.736201E-10	-2.676516E+9	14.623413	0.331859	0	0
0	0	0	4.303331	3.850512	-17.436667	3.850512	74206	-3.792823E-10	-2.636559E+9	14.591968	0.330384	0	0
0	0	0	4.062681	3.850497	-17.746223	3.850497	67307.5	-4.137031E-10	-2.417192E+9	14.604886	0.328401	0	0
0	0	0	3.830321	3.850453	-18.044944	3.850453	61256.5	-9.59603E-10	-1.042098E+9	14.553296	0.32696	0	0
0	0	0	3.60723	3.850499	-18.332255	3.850499	55959	-3.342776E-10	-2.991526E+9	14.571669	0.325062	0	0
0	0	0	3.386754	3.850584	-18.616423	3.850584	51174	-1.438654E-10	-6.95094E+9	14.532763	0.323429	0	0
0	0	0	3.17032	3.850559	-18.89476	3.850559	46875	-1.566594E-10	-6.383276E+9	14.518858	0.321915	0	0
0	0	0	2.958868	3.850584	-19.166979	3.850584	43023.5	-1.209519E-10	-8.267747E+9	14.522383	0.319939	0	0
0	0	0	2.750193	3.850544	-19.435246	3.850544	39533.5	-1.484755E-10	-6.735117E+9	14.476196	0.318484	0	0
0	0	0	2.550339	3.850525	-19.692285	3.850525	36456.5	-1.628291E-10	-6.141407E+9	14.497851	0.316613	0	0
0	0	0	2.352567	3.850478	-19.946484	3.850478	33647.5	-2.796346E-10	-3.576095E+9	14.445355	0.315199	0	0
0	0	0	2.1648	3.850576	-20.188646	3.850576	31181	-9.255901E-11	-1.080392E+10	14.463544	0.313453	0	0
0	0	0	1.975074	3.85059	-20.432852	3.85059	28872.5	-7.806959E-11	-1.280908E+10	14.438886	0.311787	0	0
0	0	0	1.796128	3.850561	-20.662926	3.850561	26852	-8.835113E-11	-1.131847E+10	14.412435	0.310405	0	0
0	0	0	1.619183	3.850586	-20.890747	3.850586	24993	-6.934505E-11	-1.442064E+10	14.420586	0.308581	0	0
0	0	0	1.44869	3.850497	-21.109596	3.850497	23323.5	-1.43357E-10	-6.975591E+9	14.358702	0.307212	0	0
0	0	0	1.28808	3.850593	-21.316811	3.850593	21853.5	-5.83479E-11	-1.713858E+10	14.380061	0.305513	0	0
0	0	0	1.129062	3.850463	-21.520656	3.850463	20489	-2.344994E-10	-4.264403E+9	14.339795	0.304006	0	0
0	0	0	0.9874	3.850497	-21.70313	3.850497	19345.5	-1.189064E-10	-8.409976E+9	14.323809	0.302505	0	0
0	0	0	0.855783	3.850569	-21.872904	3.850569	18340	-5.682344E-11	-1.759837E+10	14.334613	0.300766	0	0
0	0	0	0.74626	3.850584	-22.013914	3.850584	17543.5	-4.932003E-11	-2.027574E+10	14.274505	0.299557	0	0
0	0	0	0.649681	3.850612	-22.138344	3.850612	16870	-4.046471E-11	-2.471289E+10	14.303907	0.297772	0	0
0	0	0	0.565354	3.850561	-22.246546	3.850561	16302.5	-5.364011E-11	-1.864276E+10	14.257623	0.29635	0	0
0	0	0	0.492869	3.850537	-22.339673	3.850537	15830.5	-6.278459E-11	-1.592748E+10	14.257301	0.294955	0	0
0	0	0	0.429735	3.850512	-22.420754	3.850512	15430.5	-7.886848E-11	-1.267934E+10	14.250009	0.293197	0	0
0	0	0	0.378077	3.85058	-22.487625	3.85058	15111	-4.363656E-11	-2.291656E+10	14.211573	0.291914	0	0
0	0	0	0.335689	3.850586	-22.542204	3.850586	14853.5	-4.121221E-11	-2.426466E+10	14.22045	0.290321	0	0
0	0	0	0.287379	3.850595	-22.604414	3.850595	14565	-3.84052E-11	-2.603814E+10	14.165677	0.288906	0	0
0	0	0	0.261652	3.850605	-22.637579	3.850605	14414	-3.578597E-11	-2.794392E+10	14.163271	0.287478	0	0
0	0	0	0.222449	3.850612	-22.688059	3.850612	14186.5	-3.402802E-11	-2.938755E+10	14.152311	0.285819	0	0
0	0	0	0.198274	3.850582	-22.718989	3.850582	14048.5	-4.002424E-11	-2.498486E+10	14.110262	0.284615	0	0
0	0	0	0.185287	3.85062	-22.735925	3.85062	13974.5	-3.207096E-11	-3.118086E+10	14.133903	0.282989	0	0
0	0	0	0.154415	3.850565	-22.77532	3.850565	13801	-4.404496E-11	-2.270407E+10	14.083482	0.281601	0	0
0	0	0	0.130771	3.850501	-22.805364	3.850501	13669	-7.941994E-11	-1.25913E+10	14.086606	0.280232	0	0
0	0	0	0.123134	3.850497	-22.815164	3.850497	13627	-8.375785E-11	-1.193918E+10	14.086152	0.278665	0	0
0	0	0	0.114967	3.850561	-22.826052	3.850561	13582	-4.468885E-11	-2.237694E+10	14.031653	0.277495	0	0
0	0	0	0.098183	3.850531	-22.847471	3.850531	13489.5	-5.667451E-11	-1.764462E+10	14.041872	0.276001	0	0
0	0	0	0.078867	3.850535	-22.872349	3.850535	13384.5	-5.409359E-11	-1.848648E+10	13.996398	0.274553	0	0
0	0	0	0.061798	3.850563	-22.894477	3.850563	13292	-4.306757E-11	-2.321933E+10	13.974954	0.273304	0	0
0	0	0	0.053753	3.850593	-22.905005	3.850593	13249	-3.537426E-11	-2.826914E+10	13.973103	0.271796	0	0
0	0	0	0.050445	3.850586	-22.909223	3.850586	13231	-3.671045E-11	-2.72402E+10	13.925223	0.270573	0	0
0	0	0	0.046402	3.850646	-22.914779	3.850646	13209.5	-2.683613E-11	-3.72632E+10	13.940052	0.269125	0	0
0	0	0	0.040358	3.850605	-22.922315	3.850605	13177	-3.271484E-11	-3.056717E+10	13.921478	0.267764	0	0
0	0	0	0.034682	3.850552	-22.929303	3.850552	13147	-4.611474E-11	-2.168504E+10	13.882492	0.266527	0	0
0	0	0	0.02627	3.850584	-22.940316	3.850584	13102	-3.683364E-11	-2.714909E+10	13.893026	0.265066	0	0
0	0	0	0.013774	3.850567	-22.956294	3.850567	13036	-4.098772E-11	-2.439755E+10	13.843209	0.263817	0	0
0	0	0	-2.89393E-5	3.850531	-22.973838	3.850531	12963	-5.446249E-11	-1.836126E+10	13.831017	0.262541	0	0
0	0	0	-0.007502	3.850512	-22.98334	3.850512	12924	-6.605724E-11	-1.513839E+10	13.823461	0.26102	0	0
0	0	0	-0.012933	3.850531	-22.990442	3.850531	12895.5	-5.417889E-11	-1.845737E+10	13.767505	0.259949	0	0
0	0	0	-0.017058	3.850565	-22.995952	3.850565	12874	-4.10865E-11	-2.433889E+10	13.795332	0.258508	0	0
0	0	0	-0.020733	3.850561	-23.000655	3.850561	12855	-4.22968E-11	-2.364245E+10	13.764553	0.257166	0	0
0	0	0	-0.022081	3.85065	-23.002921	3.85065	12847.5	-2.561082E-11	-3.9046E+10	13.726977	0.256022	0	0
0	0	0	-0.023347	3.850627	-23.004411	3.850627	12841	-2.854445E-11	-3.503308E+10	13.742673	0.254627	0	0
0	0	0	-0.024449	3.850601	-23.005677	3.850601	12835.5	-3.262972E-11	-3.064691E+10	13.697945	0.253411	0	0
0	0	0	-0.024694	3.85054	-23.005625	3.85054	12834	-4.996739E-11	-2.001305E+10	13.666275	0.252327	0	0
0	0	0	-0.024858	3.850595	-23.006165	3.850595	12833.5	-3.383956E-11	-2.955121E+10	13.662866	0.250799	0	0
0	0	0	-0.026654	3.850561	-23.008274	3.850561	12824	-4.219481E-11	-2.36996E+10	13.61441	0.249768	0	0
0	0	0	-0.026573	3.850582	-23.008296	3.850582	12824.5	-3.653706E-11	-2.736947E+10	13.624249	0.248459	0	0
0	0	0	-0.027022	3.850578	-23.008848	3.850578	12822	-3.753682E-11	-2.664051E+10	13.604643	0.247176	0	0
0	0	0	-0.028655	3.850493	-23.010444	3.850493	12813.5	-8.35954E-11	-1.196238E+10	13.56967	0.246145	0	0
0	0	0	-0.028165	3.850578	-23.01032	3.850578	12816	-3.751926E-11	-2.665298E+10	13.582311	0.244777	0	0
0	0	0	-0.029676	3.850565	-23.012188	3.850565	12808.5	-4.087747E-11	-2.446336E+10	13.525812	0.243679	0	0
0	0	0	-0.029635	3.850529	-23.01192	3.850529	12808.5	-5.48992E-11	-1.82152E+10	13.504472	0.242496	0	0
0	0	0	-0.030575	3.850516	-23.013052	3.850516	12803.5	-6.243669E-11	-1.601623E+10	13.51061	0.24116	0	0
0	0	0	-0.032167	3.850582	-23.015494	3.850582	12795.5	-3.645443E-11	-2.743151E+10	13.446248	0.240103	0	0
0	0	0	-0.031759	3.850616	-23.015171	3.850616	12797.5	-3.001841E-11	-3.331289E+10	13.454429	0.238879	0	0
0	0	0	-0.032862	3.850627	-23.016653	3.850627	12791.5	-2.843442E-11	-3.516865E+10	13.456706	0.23763	0	0
0	0	0	-0.033515	3.850552	-23.017051	3.850552	12788.5	-4.485726E-11	-2.229294E+10	13.401252	0.236559	0	0
0	0	0	-0.032943	3.850567	-23.016404	3.850567	12791.5	-4.021896E-11	-2.48639E+10	13.403822	0.235336	0	0
0	0	0	-0.033311	3.850673	-23.01751	3.850673	12789.5	-2.310963E-11	-4.3272E+10	13.378764	0.234034	0	0
0	0	0	-0.032208	3.850557	-23.015395	3.850557	12795	-4.344528E-11	-2.301746E+10	13.305686	0.233194	0	0
0	0	0	-0.03327	3.850648	-23.017305	3.850648	12789.5	-2.573672E-11	-3.885499E+10	13.335518	0.231845	0	0
0	0	0	-0.035557	3.850535	-23.019577	3.850535	12778	-5.164241E-11	-1.936393E+10	13.300024	0.230735	0	0
0	0	0	-0.035965	3.85052	-23.020014	3.85052	12775.5	-5.956528E-11	-1.67883E+10	13.271285	0.229716	0	0
0	0	0	-0.03621	3.850595	-23.020772	3.850595	12774.5	-3.368398E-11	-2.96877E+10	13.277272	0.228474	0	0
0	0	0	-0.038211	3.850582	-23.023271	3.850582	12764	-3.636469E-11	-2.74992E+10	13.230937	0.227383	0	0
0	0	0	-0.040866	3.850588	-23.026724	3.850588	12750	-3.491977E-11	-2.863707E+10	13.193582	0.226384	0	0
0	0	0	-0.043561	3.850557	-23.030002	3.850557	12736.5	-4.324664E-11	-2.312318E+10	13.2013	0.225115	0	0
0	0	0	-0.048134	3.85059	-23.036089	3.85059	12712.5	-3.437388E-11	-2.909186E+10	13.152956	0.224064	0	0
0	0	0	-0.053729	3.850616	-23.04344	3.850616	12684	-2.975218E-11	-3.361098E+10	13.142112	0.22298	0	0
0	0	0	-0.056547	3.850599	-23.046964	3.850599	12669.5	-3.259784E-11	-3.067688E+10	13.157602	0.221862	0	0
0	0	0	-0.059977	3.850616	-23.051479	3.850616	12652	-2.967712E-11	-3.369599E+10	13.104907	0.220765	0	0
0	0	0	-0.064755	3.85052	-23.057057	3.85052	12627.5	-5.887524E-11	-1.698507E+10	13.051377	0.219853	0	0
0	0	0	-0.069165	3.850461	-23.062377	3.850461	12605	-1.524816E-10	-6.55817E+9	13.061631	0.218616	0	0
0	0	0	-0.074515	3.85058	-23.06997	3.85058	12577.5	-3.632048E-11	-2.753267E+10	13.021913	0.217605	0	0
0	0	0	-0.075168	3.850559	-23.070684	3.850559	12574	-4.202315E-11	-2.379641E+10	12.992497	0.216646	0	0
0	0	0	-0.077782	3.850523	-23.073831	3.850523	12561	-5.730734E-11	-1.744977E+10	13.004058	0.215423	0	0
0	0	0	-0.0806	3.850557	-23.077659	3.850557	12546.5	-4.26015E-11	-2.347335E+10	12.955157	0.214458	0	0
0	0	0	-0.083376	3.850421	-23.080421	3.850421	12532.5	1.848733E-9	5.40911E+8	12.930608	0.213479	0	0
0	0	0	-0.084969	3.850563	-23.083319	3.850563	12524.5	-4.058079E-11	-2.46422E+10	12.920827	0.212329	0	0
0	0	0	-0.087419	3.850576	-23.086548	3.850576	12512	-3.714116E-11	-2.692431E+10	12.867677	0.211331	0	0
0	0	0	-0.089339	3.850535	-23.088777	3.850535	12502	-5.052696E-11	-1.979142E+10	12.841531	0.210392	0	0
0	0	0	-0.091135	3.850557	-23.091216	3.850557	12493	-4.241984E-11	-2.357388E+10	12.865364	0.209334	0	0
0	0	0	-0.092442	3.850506	-23.092593	3.850506	12486.5	-6.878642E-11	-1.453775E+10	12.836503	0.208217	0	0
0	0	0	-0.094076	3.850565	-23.095049	3.850565	12478	-3.98227E-11	-2.511131E+10	12.760716	0.207391	0	0
0	0	0	-0.09477	3.850516	-23.095651	3.850516	12474.5	-6.083231E-11	-1.643863E+10	12.75768	0.206247	0	0
0	0	0	-0.095505	3.850603	-23.097117	3.850603	12471	-3.132819E-11	-3.192013E+10	12.745429	0.205169	0	0
0	0	0	-0.095832	3.85052	-23.097043	3.85052	12469.5	-5.813857E-11	-1.720029E+10	12.709966	0.20433	0	0
0	0	0	-0.096199	3.850533	-23.097592	3.850533	12467.5	-5.136478E-11	-1.946859E+10	12.714325	0.203272	0	0
0	0	0	-0.09624	3.850618	-23.098151	3.850618	12467	-2.892379E-11	-3.457362E+10	12.675012	0.202274	0	0
0	0	0	-0.096403	3.85054	-23.097892	3.85054	12466.5	-4.853658E-11	-2.060302E+10	12.610779	0.201368	0	0
0	0	0	-0.096362	3.850576	-23.098055	3.850576	12466.5	-3.700609E-11	-2.702258E+10	12.614899	0.200356	0	0
0	0	0	-0.095913	3.850586	-23.097541	3.850586	12469	-3.459622E-11	-2.890489E+10	12.612067	0.199398	0	0
0	0	0	-0.09624	3.850563	-23.097822	3.850563	12467	-4.039448E-11	-2.475586E+10	12.576092	0.198459	0	0
0	0	0	-0.095464	3.850582	-23.096937	3.850582	12471	-3.552993E-11	-2.814528E+10	12.534142	0.197514	0	0
0	0	0	-0.09575	3.850542	-23.097064	3.850542	12469.5	-4.767446E-11	-2.097559E+10	12.52574	0.196423	0	0
0	0	0	-0.095546	3.850493	-23.09651	3.850493	12470.5	-8.135766E-11	-1.22914E+10	12.475968	0.195557	0	0
0	0	0	-0.095137	3.85051	-23.096086	3.85051	12473	-6.532388E-11	-1.530834E+10	12.455255	0.194677	0	0
0	0	0	-0.094402	3.850533	-23.09528	3.850533	12476.5	-5.140186E-11	-1.945455E+10	12.450809	0.193639	0	0
0	0	0	-0.095301	3.850563	-23.096613	3.850563	12472	-4.041068E-11	-2.474593E+10	12.440249	0.192588	0	0
0	0	0	-0.094484	3.85047	-23.095005	3.85047	12476	-1.229209E-10	-8.135315E+9	12.36346	0.191828	0	0
0	0	0	-0.09428	3.85059	-23.095464	3.85059	12477	-3.37371E-11	-2.964096E+10	12.342127	0.190816	0	0
0	0	0	-0.095219	3.850593	-23.096685	3.850593	12472.5	-3.330104E-11	-3.00291E+10	12.34771	0.189851	0	0
0	0	0	-0.09477	3.850584	-23.096057	3.850584	12474.5	-3.506955E-11	-2.851477E+10	12.316386	0.189038	0	0
0	0	0	-0.093586	3.850614	-23.09471	3.850614	12480.5	-2.960172E-11	-3.378182E+10	12.284203	0.188113	0	0
0	0	0	-0.093545	3.850552	-23.09429	3.850552	12481	-4.377867E-11	-2.284218E+10	12.276073	0.187167	0	0
0	0	0	-0.091952	3.850612	-23.092596	3.850612	12489	-2.995636E-11	-3.338189E+10	12.236617	0.186268	0	0
0	0	0	-0.092565	3.850501	-23.092725	3.850501	12486	-7.254645E-11	-1.378427E+10	12.199326	0.185442	0	0
0	0	0	-0.091666	3.850535	-23.091772	3.850535	12490.5	-5.048048E-11	-1.980964E+10	12.180373	0.184562	0	0
0	0	0	-0.092156	3.850622	-23.092922	3.850622	12488	-2.835317E-11	-3.526942E+10	12.167073	0.183657	0	0
0	0	0	-0.091789	3.850567	-23.09212	3.850567	12490	-3.927099E-11	-2.546409E+10	12.118996	0.182724	0	0
0	0	0	-0.092156	3.850531	-23.092377	3.850531	12488	-5.246683E-11	-1.905966E+10	12.095606	0.181924	0	0
0	0	0	-0.091707	3.850559	-23.091964	3.850559	12490	-4.174241E-11	-2.395645E+10	12.090258	0.181025	0	0
0	0	0	-0.09187	3.850548	-23.092111	3.850548	12489.5	-4.530467E-11	-2.207278E+10	12.047392	0.180212	0	0
0	0	0	-0.092687	3.850563	-23.09325	3.850563	12485	-4.04528E-11	-2.472017E+10	11.996533	0.179326	0	0
0	0	0	-0.094402	3.850503	-23.095102	3.850503	12476.5	-7.056124E-11	-1.417209E+10	11.953877	0.178559	0	0
0	0	0	-0.094974	3.850573	-23.096256	3.850573	12473.5	-3.755163E-11	-2.663E+10	11.971616	0.177574	0	0
0	0	0	-0.096077	3.850601	-23.097839	3.850601	12468	-3.169548E-11	-3.155024E+10	11.943515	0.176735	0	0
0	0	0	-0.096362	3.850576	-23.098055	3.850576	12466.5	-3.700609E-11	-2.702258E+10	11.883636	0.176034	0	0
0	0	0	-0.09673	3.850633	-23.09887	3.850633	12465	-2.686523E-11	-3.722283E+10	11.876657	0.175128	0	0
0	0	0	-0.096444	3.850565	-23.098097	3.850565	12466	-3.97844E-11	-2.513548E+10	11.856451	0.174342	0	0
0	0	0	-0.096812	3.850648	-23.099064	3.850648	12464.5	-2.508271E-11	-3.98681E+10	11.846193	0.173376	0	0
0	0	0	-0.09771	3.850584	-23.09984	3.850584	12460	-3.502879E-11	-2.854795E+10	11.768559	0.172709	0	0
0	0	0	-0.098159	3.850474	-23.099759	3.850474	12457.5	-1.123194E-10	-8.903185E+9	11.756079	0.171862	0	0
0	0	0	-0.098282	3.850525	-23.100221	3.850525	12457	-5.563789E-11	-1.797336E+10	11.735931	0.171009	0	0
0	0	0	-0.098568	3.850546	-23.100715	3.850546	12455.5	-4.596628E-11	-2.175508E+10	11.7076	0.17019	0	0
0	0	0	-0.09869	3.85058	-23.101076	3.85058	12455	-3.596673E-11	-2.780347E+10	11.667066	0.169436	0	0
0	0	0	-0.099997	3.850597	-23.102858	3.850597	12448	-3.242062E-11	-3.084456E+10	11.631659	0.168629	0	0
0	0	0	-0.100405	3.850588	-23.103333	3.850588	12446	-3.408717E-11	-2.933655E+10	11.621529	0.16781	0	0
0	0	0	-0.102039	3.850527	-23.105067	3.850527	12438	-5.440902E-11	-1.837931E+10	11.591547	0.166997	0	0
0	0	0	-0.10212	3.850675	-23.10606	3.850675	12437.5	-2.228404E-11	-4.487517E+10	11.560183	0.166309	0	0
0	0	0	-0.103958	3.850586	-23.107892	3.850586	12428.5	-3.448385E-11	-2.899908E+10	11.524896	0.165502	0	0
0	0	0	-0.103713	3.850503	-23.107082	3.850503	12429.5	-7.029543E-11	-1.422568E+10	11.493992	0.164722	0	0
0	0	0	-0.104203	3.850682	-23.108777	3.850682	12427	-2.171574E-11	-4.604955E+10	11.480809	0.163876	0	0
0	0	0	-0.104489	3.850605	-23.108689	3.850605	12425.5	-3.084907E-11	-3.241589E+10	11.425248	0.163155	0	0
0	0	0	-0.104326	3.850569	-23.108263	3.850569	12426.5	-3.850144E-11	-2.597305E+10	11.398114	0.162402	0	0
0	0	0	-0.104081	3.850514	-23.107618	3.850514	12427.5	-6.202705E-11	-1.6122E+10	11.367553	0.161556	0	0
0	0	0	-0.103182	3.850597	-23.106957	3.850597	12432	-3.237895E-11	-3.088426E+10	11.353405	0.160848	0	0
0	0	0	-0.102447	3.850616	-23.106125	3.850616	12436	-2.917046E-11	-3.428125E+10	11.313663	0.160068	0	0
0	0	0	-0.101549	3.850586	-23.104792	3.850586	12440.5	-3.451715E-11	-2.897111E+10	11.282063	0.159407	0	0
0	0	0	-0.101263	3.850588	-23.104437	3.850588	12442	-3.407622E-11	-2.934598E+10	11.270474	0.158614	0	0
0	0	0	-0.101059	3.85055	-23.103946	3.85055	12443	-4.437817E-11	-2.25336E+10	11.221024	0.157939	0	0
0	0	0	-0.100283	3.850635	-23.103454	3.850635	12447	-2.655699E-11	-3.765487E+10	11.203856	0.157139	0	0
0	0	0	-0.099507	3.850627	-23.102405	3.850627	12451	-2.767751E-11	-3.613041E+10	11.182204	0.156386	0	0
0	0	0	-0.099221	3.850533	-23.10148	3.850533	12452	-5.130093E-11	-1.949283E+10	11.131424	0.155751	0	0
0	0	0	-0.098894	3.850523	-23.100996	3.850523	12453.5	-5.681689E-11	-1.76004E+10	11.120775	0.154958	0	0
0	0	0	-0.098813	3.850548	-23.101043	3.850548	12454.5	-4.517771E-11	-2.213481E+10	11.081398	0.154297	0	0
0	0	0	-0.098568	3.85072	-23.101754	3.85072	12455.5	-1.895829E-11	-5.274737E+10	11.064388	0.153569	0	0
0	0	0	-0.098649	3.850627	-23.101302	3.850627	12455	-2.768641E-11	-3.611881E+10	11.019363	0.152921	0	0
0	0	0	-0.098241	3.850588	-23.100548	3.850588	12457	-3.41173E-11	-2.931064E+10	10.973357	0.152181	0	0
0	0	0	-0.0982	3.850578	-23.100432	3.850578	12457.5	-3.646974E-11	-2.742E+10	10.952497	0.151553	0	0
0	0	0	-0.097424	3.850535	-23.099181	3.850535	12461	-5.036125E-11	-1.985653E+10	10.918445	0.150846	0	0
0	0	0	-0.097302	3.850627	-23.099568	3.850627	12462	-2.770197E-11	-3.609852E+10	10.889974	0.150085	0	0
0	0	0	-0.096771	3.850518	-23.098239	3.850518	12464.5	-5.941946E-11	-1.68295E+10	10.844337	0.149464	0	0
0	0	0	-0.09673	3.850554	-23.098401	3.850554	12465	-4.30123E-11	-2.324916E+10	10.817038	0.148783	0	0
0	0	0	-0.095995	3.850535	-23.097342	3.850535	12468.5	-5.039157E-11	-1.984459E+10	10.793617	0.148075	0	0
0	0	0	-0.095668	3.850565	-23.097099	3.850565	12470	-3.979717E-11	-2.512742E+10	10.769331	0.147454	0	0
0	0	0	-0.096281	3.850529	-23.097671	3.850529	12467	-5.343547E-11	-1.871416E+10	10.730947	0.146707	0	0
0	0	0	-0.095913	3.850557	-23.097363	3.850557	12469	-4.233835E-11	-2.361925E+10	10.69468	0.146066	0	0
0	0	0	-0.096934	3.85065	-23.099234	3.85065	12464	-2.484633E-11	-4.024739E+10	10.674417	0.145312	0	0
0	0	0	-0.096771	3.850614	-23.098809	3.850614	12464.5	-2.956377E-11	-3.382519E+10	10.638955	0.144737	0	0
0	0	0	-0.09722	3.850546	-23.098981	3.850546	12462	-4.599027E-11	-2.174373E+10	10.602565	0.144096	0	0
0	0	0	-0.097628	3.850548	-23.099519	3.850548	12460	-4.519766E-11	-2.212504E+10	10.572738	0.143428	0	0
0	0	0	-0.098241	3.850633	-23.100814	3.850633	12457	-2.684799E-11	-3.724674E+10	10.540051	0.142839	0	0
0	0	0	-0.099139	3.850654	-23.102097	3.850654	12452.5	-2.436608E-11	-4.104065E+10	10.518664	0.142132	0	0
0	0	0	-0.099344	3.85051	-23.101498	3.85051	12451.5	-6.521128E-11	-1.533477E+10	10.475762	0.141491	0	0
0	0	0	-0.09918	3.850557	-23.101567	3.850557	12452.5	-4.228232E-11	-2.365055E+10	10.444036	0.140816	0	0
0	0	0	-0.099793	3.850518	-23.102127	3.850518	12449.5	-5.934795E-11	-1.684978E+10	10.404281	0.140261	0	0
0	0	0	-0.100079	3.850559	-23.102735	3.850559	12448	-4.160205E-11	-2.403728E+10	10.374179	0.139607	0	0
0	0	0	-0.100814	3.85054	-23.103567	3.85054	12444	-4.844898E-11	-2.064027E+10	10.351259	0.138926	0	0
0	0	0	-0.101998	3.850537	-23.105078	3.850537	12438	-4.932976E-11	-2.027174E+10	10.302827	0.13837	0	0
0	0	0	-0.101875	3.850607	-23.105339	3.850607	12438.5	-3.052458E-11	-3.276048E+10	10.288737	0.137703	0	0
0	0	0	-0.102937	3.850563	-23.106439	3.850563	12433.5	-4.028594E-11	-2.482256E+10	10.25514	0.137127	0	0
0	0	0	-0.103305	3.850563	-23.106912	3.850563	12431.5	-4.027946E-11	-2.482655E+10	10.232488	0.136466	0	0
0	0	0	-0.103917	3.850584	-23.107827	3.850584	12428.5	-3.494023E-11	-2.86203E+10	10.201275	0.135858	0	0
0	0	0	-0.105347	3.850489	-23.109095	3.850489	12421.5	-8.634152E-11	-1.158191E+10	10.16961	0.135237	0	0
0	0	0	-0.107225	3.850531	-23.111766	3.850531	12412	-5.214753E-11	-1.917637E+10	10.114982	0.134628	0	0
0	0	0	-0.109308	3.850559	-23.11461	3.850559	12401.5	-4.144664E-11	-2.412741E+10	10.100714	0.134	0	0
0	0	0	-0.1109	3.85058	-23.116786	3.85058	12393.5	-3.578914E-11	-2.794144E+10	10.056146	0.133458	0	0
0	0	0	-0.111023	3.850557	-23.116804	3.850557	12392.5	-4.207859E-11	-2.376505E+10	10.025429	0.132857	0	0
0	0	0	-0.109757	3.850523	-23.114973	3.850523	12399	-5.656824E-11	-1.767776E+10	9.980752	0.132301	0	0
0	0	0	-0.108899	3.850576	-23.114186	3.850576	12403.5	-3.681908E-11	-2.715983E+10	9.971073	0.13166	0	0
0	0	0	-0.109348	3.850472	-23.114143	3.850472	12401	-1.167661E-10	-8.564133E+9	9.929129	0.131091	0	0
0	0	0	-0.108246	3.850561	-23.113257	3.850561	12406.5	-4.082111E-11	-2.449713E+10	9.895765	0.130463	0	0
0	0	0	-0.106898	3.85055	-23.111459	3.85055	12413.5	-4.427296E-11	-2.258715E+10	9.852403	0.129934	0	0
0	0	0	-0.105428	3.850512	-23.10934	3.850512	12421	-6.34863E-11	-1.575143E+10	9.836127	0.129346	0	0
0	0	0	-0.104816	3.85058	-23.108957	3.85058	12424	-3.587722E-11	-2.787284E+10	9.77724	0.128804	0	0
0	0	0	-0.104489	3.850506	-23.108093	3.850506	12425.5	-6.845038E-11	-1.460912E+10	9.767067	0.128196	0	0
0	0	0	-0.103876	3.850499	-23.107267	3.850499	12428.5	-7.424308E-11	-1.346927E+10	9.726422	0.127621	0	0
0	0	0	-0.103264	3.850561	-23.106846	3.850561	12432	-4.090501E-11	-2.444688E+10	9.700479	0.127078	0	0
0	0	0	-0.102202	3.850582	-23.105607	3.850582	12437	-3.543307E-11	-2.822223E+10	9.659149	0.126497	0	0
0	0	0	-0.101998	3.850616	-23.105547	3.850616	12438	-2.917515E-11	-3.427574E+10	9.642384	0.125809	0	0
0	0	0	-0.101304	3.850552	-23.104274	3.850552	12441.5	-4.364011E-11	-2.29147E+10	9.592017	0.125459	0	0
0	0	0	-0.101345	3.850633	-23.104808	3.850633	12441.5	-2.681458E-11	-3.729314E+10	9.552432	0.124857	0	0
0	0	0	-0.100854	3.850584	-23.103886	3.850584	12444	-3.498381E-11	-2.858465E+10	9.523085	0.124249	0	0
0	0	0	-0.100487	3.85062	-23.103628	3.85062	12446	-2.856311E-11	-3.50102E+10	9.495006	0.123727	0	0
0	0	0	-0.099425	3.850497	-23.101527	3.850497	12451	-7.652961E-11	-1.306684E+10	9.44671	0.123145	0	0
0	0	0	-0.099629	3.85052	-23.101929	3.85052	12450	-5.804765E-11	-1.722723E+10	9.439078	0.122596	0	0
0	0	0	-0.098935	3.850554	-23.101239	3.850554	12453.5	-4.297262E-11	-2.327063E+10	9.366683	0.122173	0	0
0	0	0	-0.098282	3.850576	-23.100525	3.850576	12457	-3.697789E-11	-2.704319E+10	9.349988	0.121545	0	0
0	0	0	-0.098159	3.850552	-23.100228	3.850552	12457.5	-4.369624E-11	-2.288527E+10	9.330633	0.12091	0	0
0	0	0	-0.096771	3.850472	-23.09796	3.850472	12464.5	-1.17364E-10	-8.520503E+9	9.271622	0.120481	0	0
0	0	0	-0.097914	3.850565	-23.099989	3.850565	12459	-3.976206E-11	-2.51496E+10	9.239848	0.119971	0	0
0	0	0	-0.097547	3.850637	-23.099946	3.850637	12460.5	-2.632141E-11	-3.799188E+10	9.208519	0.119509	0	0
0	0	0	-0.097588	3.850586	-23.099695	3.850586	12460.5	-3.457264E-11	-2.892461E+10	9.187579	0.118907	0	0
0	0	0	-0.097506	3.850603	-23.099691	3.850603	12461	-3.130307E-11	-3.194575E+10	9.148996	0.118424	0	0
0	0	0	-0.097792	3.850571	-23.099869	3.850571	12459.5	-3.804872E-11	-2.628209E+10	9.107286	0.117915	0	0
0	0	0	-0.098527	3.850542	-23.100637	3.850542	12455.5	-4.762094E-11	-2.099917E+10	9.077503	0.117367	0	0
0	0	0	-0.098935	3.850531	-23.101099	3.850531	12453.5	-5.232188E-11	-1.911246E+10	9.022777	0.116924	0	0
0	0	0	-0.099425	3.850588	-23.102072	3.850588	12451	-3.410087E-11	-2.932477E+10	8.993156	0.116435	0	0
0	0	0	-0.09967	3.850597	-23.102438	3.850597	12450	-3.242583E-11	-3.083961E+10	8.968061	0.115833	0	0
0	0	0	-0.100446	3.850584	-23.10336	3.850584	12446	-3.498943E-11	-2.858006E+10	8.918134	0.11537	0	0
0	0	0	-0.10065	3.850622	-23.103851	3.850622	12445	-2.825555E-11	-3.539128E+10	8.884347	0.114841	0	0
0	0	0	-0.102202	3.850531	-23.105303	3.850531	12437	-5.225256E-11	-1.913782E+10	8.847806	0.114365	0	0
0	0	0	-0.10212	3.850506	-23.105046	3.850506	12437.5	-6.851648E-11	-1.459503E+10	8.83884	0.113843	0	0
0	0	0	-0.102692	3.850563	-23.106123	3.850563	12434.5	-4.028918E-11	-2.482056E+10	8.808849	0.113374	0	0
0	0	0	-0.103795	3.850618	-23.107872	3.850618	12429	-2.883563E-11	-3.467932E+10	8.743767	0.112944	0	0
0	0	0	-0.103713	3.850508	-23.107108	3.850508	12429.5	-6.674156E-11	-1.498317E+10	8.698901	0.112336	0	0
0	0	0	-0.103468	3.850593	-23.107299	3.850593	12431	-3.319023E-11	-3.012935E+10	8.665785	0.111906	0	0
0	0	0	-0.105061	3.850588	-23.109323	3.850588	12422.5	-3.402281E-11	-2.939204E+10	8.642076	0.111337	0	0
0	0	0	-0.106531	3.850563	-23.111063	3.850563	12415	-4.022599E-11	-2.485955E+10	8.57839	0.110974	0	0
0	0	0	-0.10845	3.850586	-23.113672	3.850586	12405.5	-3.442004E-11	-2.905284E+10	8.559814	0.110445	0	0
0	0	0	-0.111268	3.850637	-23.117601	3.850637	12391.5	-2.617566E-11	-3.820343E+10	8.499937	0.109995	0	0
0	0	0	-0.112452	3.850465	-23.118098	3.850465	12385.5	-1.345066E-10	-7.434578E+9	8.504782	0.109453	0	0
0	0	0	-0.112534	3.850465	-23.118204	3.850465	12385	-1.345012E-10	-7.434878E+9	8.460624	0.108951	0	0
0	0	0	-0.112779	3.850544	-23.118988	3.850544	12384	-4.651045E-11	-2.150054E+10	8.42247	0.108495	0	0
0	0	0	-0.111717	3.850537	-23.117584	3.850537	12389	-4.913542E-11	-2.035192E+10	8.377412	0.108058	0	0
0	0	0	-0.112942	3.850533	-23.119135	3.850533	12383	-5.101665E-11	-1.960144E+10	8.35095	0.107589	0	0
0	0	0	-0.113024	3.850616	-23.119734	3.850616	12382.5	-2.904497E-11	-3.442937E+10	8.292086	0.107179	0	0
0	0	0	-0.111309	3.850552	-23.117147	3.850552	12391.5	-4.346473E-11	-2.300716E+10	8.254042	0.106624	0	0
0	0	0	-0.110492	3.850537	-23.116007	3.850537	12395.5	-4.91612E-11	-2.034124E+10	8.215581	0.106187	0	0
0	0	0	-0.108573	3.850491	-23.113259	3.850491	12405	-8.349467E-11	-1.197681E+10	8.202439	0.105645	0	0
0	0	0	-0.107388	3.850573	-23.112229	3.850573	12411	-3.736347E-11	-2.676411E+10	8.153202	0.105315	0	0
0	0	0	-0.106041	3.850508	-23.110103	3.850508	12418	-6.667981E-11	-1.499704E+10	8.12402	0.104819	0	0
0	0	0	-0.105387	3.850537	-23.109439	3.850537	12421	-4.926234E-11	-2.029948E+10	8.059192	0.104382	0	0
0	0	0	-0.105306	3.850567	-23.109512	3.850567	12421.5	-3.905561E-11	-2.560452E+10	8.034619	0.103913	0	0
0	0	0	-0.103631	3.850641	-23.107801	3.850641	12430	-2.574495E-11	-3.884256E+10	8.016808	0.103483	0	0
0	0	0	-0.104121	3.850578	-23.108051	3.850578	12427.5	-3.638191E-11	-2.748619E+10	7.963435	0.103007	0	0
0	0	0	-0.10257	3.850554	-23.105915	3.850554	12435.5	-4.291051E-11	-2.330432E+10	7.914269	0.102611	0	0
0	0	0	-0.102733	3.850586	-23.106315	3.850586	12434.5	-3.45005E-11	-2.898509E+10	0	0	0	0
0	0	0	-0.102365	3.850554	-23.105652	3.850554	12436.5	-4.291396E-11	-2.330244E+10	0	0	0	0
0	0	0	-0.101998	3.850463	-23.104635	3.850463	12438	-1.423546E-10	-7.02471E+9	0	0	0	0
0	0	0	-0.101875	3.850624	-23.10544	3.850624	12438.5	-2.794213E-11	-3.578825E+10	0	0	0	0
0	0	0	-0.101018	3.850546	-23.103868	3.850546	12443	-4.592015E-11	-2.177693E+10	0	0	0	0
0	0	0	-0.10065	3.850578	-23.103585	3.850578	12445	-3.643314E-11	-2.744754E+10	0	0	0	0
0	0	0	-0.099425	3.85051	-23.101603	3.85051	12451	-6.520866E-11	-1.533539E+10	0	0	0	0
0	0	0	-0.098037	3.850605	-23.100387	3.850605	12458	-3.092976E-11	-3.233132E+10	0	0	0	0
0	0	0	-0.098731	3.850565	-23.101039	3.850565	12454.5	-3.97477E-11	-2.515869E+10	0	0	0	0
0	0	0	-0.097873	3.850508	-23.099594	3.850508	12459	-6.689997E-11	-1.494769E+10	0	0	0	0
0	0	0	-0.097424	3.850487	-23.098889	3.850487	12461	-8.954626E-11	-1.116741E+10	0	0	0	0
0	0	0	-0.098078	3.85058	-23.100287	3.85058	12458	-3.59754E-11	-2.779677E+10	0	0	0	0
0	0	0	-0.098037	3.850557	-23.100095	3.850557	12458	-4.2301E-11	-2.364011E+10	0	0	0	0
0	0	0	-0.098486	3.850529	-23.100509	3.850529	12456	-5.338833E-11	-1.873069E+10	0	0	0	0
0	0	0	-0.098731	3.850561	-23.101014	3.850561	12454.5	-4.097904E-11	-2.440272E+10	0	0	0	0
0	0	0	-0.099017	3.850622	-23.101749	3.850622	12453	-2.827371E-11	-3.536855E+10	0	0	0	0
0	0	0	-0.099507	3.850622	-23.10238	3.850622	12451	-2.826917E-11	-3.537423E+10	0	0	0	0
0	0	0	-0.100405	3.850573	-23.103244	3.850573	12446	-3.746884E-11	-2.668884E+10	0	0	0	0
0	0	0	-0.101794	3.850631	-23.105373	3.850631	12439	-2.708399E-11	-3.692218E+10	0	0	0	0
0	0	0	-0.102202	3.850529	-23.10529	3.850529	12437	-5.330689E-11	-1.87593E+10	0	0	0	0
0	0	0	-0.102733	0	-0.102733	0	12434.5	0	0	0	0	0	0
0	0	0	-0.103468	0	-0.103468	0	12431	0	0	0	0	0	0
