Vload_(V)	ILoad_(A)	RsLoad (ohm)	SunsVoc_Voltage_(V)	SunsVoc_Current_(A)	Model_Voltage_(V)	Model_Current_(A)	Carrier_Density_(cm-3)	Lifetime_(s)	Inverse_Lifetime_(s-1)	Efficiency_(%)	Intensity_(suns)	Dark_IV_Voltage_(V)	Dark_IV_Current_(A)
3.319039	6.384659	0	65.257245	-1.253636	65.587613	-1.253636	4.063928E+15	0.000223	4449.980251	19.553264	1.189092	0	0
3.340122	6.385301	-0.538706	65.206689	-0.992138	65.470936	-0.992138	4.015815E+15	0.000229	4349.148139	19.590056	1.187651	0	0
5.162787	6.376882	5.464725	65.074991	-0.590522	65.2366	-0.590522	3.892831E+15	0.000234	4243.242452	19.518745	1.186699	0	0
8.248732	6.358303	6.517704	64.914993	-0.152584	64.95811	-0.152584	3.747892E+15	0.000241	4131.793951	19.474346	1.184121	0	0
11.367885	6.351645	6.162649	64.748707	0.260091	64.672805	0.260091	3.602299E+15	0.000247	4028.606321	19.507439	1.180167	0	0
14.057717	6.352303	5.728199	64.583686	0.653283	64.387039	0.653283	3.462734E+15	0.000254	3922.987175	19.521459	1.177259	0	0
16.78096	6.34737	5.379076	64.414868	1.025034	64.096688	1.025034	3.324866E+15	0.00026	3821.684991	19.478568	1.175791	0	0
19.61605	6.342763	4.995298	64.245804	1.36819	63.808233	1.36819	3.191612E+15	0.000267	3727.325792	19.471793	1.173371	0	0
22.487516	6.338576	4.595358	64.077966	1.685189	63.523272	1.685189	3.063934E+15	0.000274	3638.215044	19.5188	1.16922	0	0
25.490622	6.337199	4.137908	63.91613	1.978123	63.247198	1.978123	2.945032E+15	0.000281	3549.968639	19.527931	1.164434	0	0
29.019477	6.237683	4.160092	63.751559	2.250364	62.969953	2.250364	2.828225E+15	0.000287	3468.992502	19.472966	1.159912	0	0
31.971221	6.232972	3.703866	63.593113	2.503708	62.701437	2.503708	2.719555E+15	0.000294	3387.225098	19.441847	1.155707	0	0
34.89988	6.226442	3.255629	63.430747	2.742678	62.42918	2.742678	2.611934E+15	0.000301	3310.299386	19.488247	1.150961	0	0
37.788235	6.227868	2.78739	63.271525	2.965606	62.162271	2.965606	2.509958E+15	0.000308	3234.539667	19.521064	1.146479	0	0
40.222588	6.307325	2.052616	63.113242	3.171312	61.89911	3.171312	2.411972E+15	0.000315	3164.002946	19.486594	1.142221	0	0
43.067086	6.281687	1.738077	62.956552	3.362359	61.639957	3.362359	2.318199E+15	0.000322	3096.795631	19.461829	1.137567	0	0
45.928566	6.264584	1.354542	62.80268	3.538972	61.386623	3.538972	2.229145E+15	0.000329	3032.802953	19.49712	1.132332	0	0
46.860193	6.262454	1.213745	62.651135	3.705838	61.137055	3.705838	2.144289E+15	0.000336	2968.384367	19.509413	1.127215	0	0
47.788808	6.259322	1.077478	62.498325	3.864289	60.886643	3.864289	2.061505E+15	0.000343	2905.370832	19.467207	1.122587	0	0
48.719947	6.244434	0.980337	62.345024	4.010195	60.638275	4.010195	1.981182E+15	0.00035	2848.550472	19.458255	1.117682	0	0
49.65556	6.21912	0.906692	62.197237	4.142489	60.400112	4.142489	1.906258E+15	0.000357	2795.927051	19.507005	1.112407	0	0
50.579633	6.188355	0.83709	62.05047	4.266513	60.164691	4.266513	1.834222E+15	0.000364	2745.341843	19.522923	1.1077	0	0
51.519242	6.14009	0.786925	61.905704	4.381756	59.933686	4.381756	1.765419E+15	0.00037	2697.459012	19.479408	1.103231	0	0
52.457722	6.082211	0.734326	61.761878	4.490188	59.705118	4.490188	1.699216E+15	0.000377	2651.123655	19.479305	1.097889	0	0
53.387967	6.003009	0.692687	61.618296	4.591251	59.478557	4.591251	1.635208E+15	0.000383	2608.21052	19.517357	1.09223	0	0
54.302629	5.901354	0.655858	61.476798	4.686685	59.255674	4.686685	1.574111E+15	0.000389	2565.517775	19.522332	1.086492	0	0
55.224975	5.76945	0.620485	61.335135	4.776563	59.033759	4.776563	1.514861E+15	0.000395	2524.990235	19.479016	1.081203	0	0
56.128079	5.605165	0.588131	61.195679	4.8606	58.816088	4.8606	1.458358E+15	0.000402	2485.972142	19.479536	1.075478	0	0
57.031797	5.39387	0.559663	61.051076	4.939364	58.593175	4.939364	1.401633E+15	0.000407	2453.128811	19.529552	1.06974	0	0
57.9191	5.132931	0.534939	60.914069	5.013874	58.380861	5.013874	1.34959E+15	0.000413	2416.569687	19.531926	1.064148	0	0
58.807515	4.801165	0.514116	60.776981	5.083796	58.169659	5.083796	1.299132E+15	0.000419	2382.554105	19.491706	1.058608	0	0
59.663148	4.412881	0.493994	60.642792	5.150495	57.962797	5.150495	1.251267E+15	0.000426	2347.021592	19.493871	1.052645	0	0
60.509999	3.94378	0.477955	60.499415	5.21368	57.744941	5.21368	1.20175E+15	0.000431	2318.789749	19.536706	1.046457	0	0
61.330644	3.406524	0.458912	60.365471	5.272401	57.540671	5.272401	1.156968E+15	0.000437	2287.90292	19.529095	1.040983	0	0
62.114263	2.806419	0.443872	60.230628	5.327681	57.33623	5.327681	1.113292E+15	0.000442	2259.627085	19.495636	1.035351	0	0
62.850799	2.163829	0.435235	60.103626	5.37915	57.143246	5.37915	1.073413E+15	0.000448	2229.571738	19.51326	1.029494	0	0
63.526584	1.500762	0.44096	59.971683	5.427802	56.944671	5.427802	1.033244E+15	0.000453	2204.297497	19.550504	1.023504	0	0
64.114636	0.87634	0.451592	59.845335	5.473041	56.754608	5.473041	9.959529E+14	0.000459	2178.818588	19.533933	1.017792	0	0
53.245461	6.013538	0.702944	59.718007	5.516896	56.56342	5.516896	9.595084E+14	0.000464	2152.875475	19.501799	1.011737	0	0
64.91378	0	0	59.595987	5.557651	56.380355	5.557651	9.25628E+14	0.00047	2126.952447	19.519562	1.005549	0	0
0	0	0	59.472415	5.595642	56.19632	5.595642	8.923344E+14	0.000475	2105.042625	19.555706	0.999586	0	0
0	0	0	59.343658	5.632184	56.005809	5.632184	8.587075E+14	0.000479	2086.254443	19.532029	0.994245	0	0
0	0	0	59.223884	5.66587	55.828304	5.66587	8.28379E+14	0.000484	2065.893572	19.51304	0.988652	0	0
0	0	0	59.099986	5.698263	55.645701	5.698263	7.97949E+14	0.000488	2048.097011	19.54063	0.983205	0	0
0	0	0	58.97866	5.729541	55.466728	5.729541	7.690588E+14	0.000493	2028.264558	19.558076	0.978154	0	0
0	0	0	58.859295	5.758924	55.291095	5.758924	7.414918E+14	0.000497	2009.37746	19.527909	0.973487	0	0
0	0	0	58.735478	5.787184	55.109891	5.787184	7.137734E+14	0.000501	1993.197066	19.519659	0.968317	0	0
0	0	0	58.615868	5.814222	54.934638	5.814222	6.878247E+14	0.000506	1974.839411	19.557084	0.963002	0	0
0	0	0	58.495359	5.840007	54.758637	5.840007	6.624848E+14	0.000511	1957.746672	19.567638	0.958004	0	0
0	0	0	58.376974	5.864037	54.58624	5.864037	6.383587E+14	0.000515	1942.144366	19.521816	0.953324	0	0
0	0	0	58.258139	5.886763	54.413783	5.886763	6.148879E+14	0.000518	1928.307188	19.526392	0.94822	0	0
0	0	0	58.140326	5.90883	54.242816	5.90883	5.923403E+14	0.000523	1913.032939	19.564289	0.943302	0	0
0	0	0	58.023329	5.929079	54.073857	5.929079	5.706434E+14	0.000526	1901.303297	19.558888	0.938542	0	0
0	0	0	57.909844	5.948481	53.909878	5.948481	5.502435E+14	0.00053	1887.852106	19.522381	0.933584	0	0
0	0	0	57.791949	5.967032	53.740358	5.967032	5.297086E+14	0.000532	1877.668756	19.534219	0.92807	0	0
0	0	0	57.680465	5.984716	53.579734	5.984716	5.108927E+14	0.000536	1864.414125	19.56965	0.922808	0	0
0	0	0	57.564775	6.001614	53.413824	6.001614	4.919713E+14	0.000539	1854.343754	19.536672	0.918128	0	0
0	0	0	57.452719	6.01736	53.253352	6.01736	4.742176E+14	0.000542	1844.712252	19.514271	0.91313	0	0
0	0	0	57.341399	6.032123	53.094358	6.032123	4.571257E+14	0.000544	1836.792629	19.540459	0.907974	0	0
0	0	0	57.229507	6.046235	52.934879	6.046235	4.404809E+14	0.000546	1829.920454	19.566158	0.903161	0	0
0	0	0	57.121249	6.059853	52.780438	6.059853	4.248752E+14	0.000549	1820.817012	19.527595	0.898666	0	0
0	0	0	57.008785	6.073341	52.6203	6.073341	4.0917E+14	0.000552	1812.211185	19.512932	0.89384	0	0
0	0	0	56.899547	6.085529	52.465258	6.085529	3.943979E+14	0.000553	1806.502619	19.556313	0.888802	0	0
0	0	0	56.789451	6.097243	52.309269	6.097243	3.799795E+14	0.000555	1801.641389	19.580268	0.883857	0	0
0	0	0	56.680663	6.108306	52.155368	6.108306	3.661841E+14	0.000556	1797.568887	19.535329	0.879322	0	0
0	0	0	56.57755	6.119153	52.009105	6.119153	3.535131E+14	0.000559	1788.92772	19.527777	0.874179	0	0
0	0	0	56.467414	6.129708	51.853516	6.129708	3.404034E+14	0.00056	1783.97989	19.562725	0.869181	0	0
0	0	0	56.364016	6.139891	51.707122	6.139891	3.284852E+14	0.000563	1774.886284	19.567055	0.864421	0	0
0	0	0	56.256044	6.148934	51.555342	6.148934	3.164321E+14	0.000564	1774.428585	19.524064	0.859939	0	0
0	0	0	56.150726	6.157957	51.407033	6.157957	3.050522E+14	0.000565	1770.179348	19.539634	0.855047	0	0
0	0	0	56.042591	6.167062	51.25477	6.167062	2.937451E+14	0.000567	1764.501801	19.574339	0.850169	0	0
0	0	0	55.941929	6.175034	51.113325	6.175034	2.835544E+14	0.000568	1760.953229	19.547596	0.845832	0	0
0	0	0	55.834733	6.183372	50.96272	6.183372	2.730484E+14	0.000569	1755.982433	19.514919	0.841363	0	0
0	0	0	55.732315	6.190358	50.819514	6.190358	2.633356E+14	0.000569	1757.56741	19.550823	0.836286	0	0
0	0	0	55.634674	6.197595	50.682452	6.197595	2.543642E+14	0.000571	1751.786981	19.573386	0.831711	0	0
0	0	0	55.526049	6.204941	50.530445	6.204941	2.447055E+14	0.000572	1749.430413	19.532957	0.827454	0	0
0	0	0	55.428531	6.211136	50.394231	6.211136	2.363161E+14	0.000572	1749.09858	19.525007	0.822734	0	0
0	0	0	55.324561	6.217405	50.249205	6.217405	2.276572E+14	0.000571	1750.041247	19.555451	0.81808	0	0
0	0	0	55.219816	6.223793	50.102962	6.223793	2.192241E+14	0.000572	1747.95366	19.553018	0.813756	0	0
0	0	0	55.124666	6.229433	49.97019	6.229433	2.118093E+14	0.000573	1745.72394	19.512263	0.809486	0	0
0	0	0	55.018981	6.235898	49.822477	6.235898	2.038406E+14	0.000575	1738.418228	19.526876	0.804898	0	0
0	0	0	54.917257	6.239961	49.682041	6.239961	1.964287E+14	0.00057	1754.751847	19.566089	0.800283	0	0
0	0	0	54.821495	6.245814	49.548082	6.245814	1.896765E+14	0.000573	1743.718917	19.532453	0.796198	0	0
0	0	0	54.715606	6.250902	49.40106	6.250902	1.824573E+14	0.000573	1746.289735	19.493588	0.791636	0	0
0	0	0	54.617272	6.255077	49.264944	6.255077	1.759793E+14	0.00057	1754.066567	19.523289	0.787141	0	0
0	0	0	54.515834	6.260991	49.1231	6.260991	1.695185E+14	0.000575	1737.809866	19.55418	0.782659	0	0
0	0	0	54.412394	6.26479	48.980324	6.26479	1.631555E+14	0.000571	1750.12463	19.513621	0.778613	0	0
0	0	0	54.315122	6.268533	48.84587	6.268533	1.573734E+14	0.000569	1757.762533	19.497855	0.77421	0	0
0	0	0	54.213806	6.273463	48.70488	6.273463	1.515527E+14	0.000572	1747.79372	19.540254	0.769517	0	0
0	0	0	54.112858	6.277169	48.565412	6.277169	1.45952E+14	0.00057	1754.370371	19.533499	0.765563	0	0
0	0	0	54.013217	6.28034	48.428142	6.28034	1.406127E+14	0.000566	1767.283475	19.489435	0.761438	0	0
0	0	0	53.913739	6.284666	48.290023	6.284666	1.354638E+14	0.000569	1758.375564	19.495574	0.757009	0	0
0	0	0	53.814057	6.28864	48.151898	6.28864	1.30481E+14	0.00057	1752.976732	19.528072	0.752659	0	0
0	0	0	53.714701	6.291132	48.015512	6.291132	1.256853E+14	0.000564	1772.6338	19.505618	0.748917	0	0
0	0	0	53.613876	6.293742	47.877006	6.293742	1.209877E+14	0.000559	1790.069432	19.473506	0.744805	0	0
0	0	0	53.514561	6.297297	47.739645	6.297297	1.165219E+14	0.00056	1786.003485	19.502056	0.740482	0	0
0	0	0	53.414226	6.301124	47.600615	6.301124	1.121677E+14	0.000564	1774.068767	19.514935	0.736476	0	0
0	0	0	53.316055	6.303846	47.46549	6.303846	1.080561E+14	0.000561	1781.555473	19.472667	0.732681	0	0
0	0	0	53.218333	6.305726	47.33173	6.305726	1.041048E+14	0.000554	1806.16277	19.454897	0.728596	0	0
0	0	0	53.115179	6.308381	47.189882	6.308381	1.000823E+14	0.000551	1815.554136	19.503376	0.724232	0	0
0	0	0	53.016151	6.311483	47.053156	6.311483	9.63593E+13	0.000553	1809.023793	19.490183	0.720517	0	0
0	0	0	52.916183	6.314533	46.915176	6.314533	9.273448E+13	0.000555	1801.396189	19.453946	0.716564	0	0
0	0	0	52.812009	6.316842	46.772184	6.316842	8.909516E+13	0.000551	1813.240864	19.476569	0.712333	0	0
0	0	0	52.713878	6.318318	46.638137	6.318318	8.579162E+13	0.000543	1842.081098	19.50291	0.708155	0	0
0	0	0	52.610153	6.320027	46.496285	6.320027	8.242679E+13	0.000535	1867.87429	19.459498	0.704625	0	0
0	0	0	52.508552	6.322479	46.356561	6.322479	7.925325E+13	0.000535	1868.965074	19.430755	0.700738	0	0
0	0	0	52.409482	6.324944	46.22022	6.324944	7.627151E+13	0.000536	1865.06185	19.477209	0.696546	0	0
0	0	0	52.302205	6.327629	46.072537	6.327629	7.316396E+13	0.000539	1856.846571	19.479756	0.692646	0	0
0	0	0	52.199419	6.329486	45.931716	6.329486	7.030069E+13	0.000535	1869.553407	19.424897	0.689155	0	0
0	0	0	52.096347	6.331104	45.790725	6.331104	6.75377E+13	0.000529	1888.951495	19.425786	0.685057	0	0
0	0	0	51.989437	6.332238	45.64501	6.332238	6.478229E+13	0.000519	1927.63216	19.461228	0.681143	0	0
0	0	0	51.891348	6.333541	45.51104	6.333541	6.23497E+13	0.000512	1953.03352	19.440226	0.677706	0	0
0	0	0	51.781334	6.335722	45.360038	6.335722	5.972621E+13	0.000512	1951.849316	19.406255	0.673977	0	0
0	0	0	51.669768	6.337849	45.206964	6.337849	5.717473E+13	0.000513	1950.301856	19.437882	0.670063	0	0
0	0	0	51.556324	6.340032	45.051267	6.340032	5.468851E+13	0.000514	1943.898882	19.447443	0.666414	0	0
0	0	0	51.451048	6.341486	44.907343	6.341486	5.247517E+13	0.00051	1959.862665	19.406753	0.663188	0	0
0	0	0	51.341565	6.343076	44.75757	6.343076	5.026558E+13	0.000507	1970.657218	19.398473	0.659446	0	0
0	0	0	51.238657	6.344263	44.617096	6.344263	4.82712E+13	0.000502	1993.539613	19.429564	0.655678	0	0
0	0	0	51.120394	6.344985	44.456318	6.344985	4.607414E+13	0.000488	2051.233664	19.40426	0.652479	0	0
0	0	0	51.013116	6.345942	44.310148	6.345942	4.416553E+13	0.000479	2088.278509	19.365206	0.649067	0	0
0	0	0	50.900815	6.346838	44.157234	6.346838	4.22501E+13	0.000469	2132.454161	19.404668	0.64522	0	0
0	0	0	50.792762	6.347932	44.009844	6.347932	4.048368E+13	0.000463	2161.082934	19.438402	0.641571	0	0
0	0	0	50.681931	6.349631	43.858034	6.349631	3.87468E+13	0.000464	2153.535086	19.368987	0.638517	0	0
0	0	0	50.569876	6.350893	43.705016	6.350893	3.70648E+13	0.000461	2170.15028	19.360607	0.634762	0	0
0	0	0	50.453818	6.352577	43.546106	6.352577	3.539803E+13	0.000463	2158.978095	19.402187	0.631126	0	0
0	0	0	50.342743	6.35386	43.394359	6.35386	3.387163E+13	0.000462	2166.092915	19.392147	0.627939	0	0
0	0	0	50.221376	6.354859	43.228976	6.354859	3.227751E+13	0.000455	2199.321016	19.339121	0.624845	0	0
0	0	0	50.107891	6.355992	43.074101	6.355992	3.085358E+13	0.000452	2213.320039	19.364573	0.621117	0	0
0	0	0	49.984565	6.356913	42.906124	6.356913	2.937604E+13	0.000444	2249.968757	19.390842	0.617653	0	0
0	0	0	49.858176	6.357671	42.734171	6.357671	2.793396E+13	0.000435	2301.463475	19.340581	0.614757	0	0
0	0	0	49.73538	6.358099	42.567445	6.358099	2.659961E+13	0.00042	2378.568779	19.325529	0.611373	0	0
0	0	0	49.608991	6.358684	42.395669	6.358684	2.529172E+13	0.000409	2446.486515	19.365134	0.607829	0	0
0	0	0	49.480437	6.359281	42.220942	6.359281	2.402642E+13	0.000397	2516.175934	19.343289	0.604696	0	0
0	0	0	49.34343	6.359819	42.034828	6.359819	2.274655E+13	0.000384	2601.430178	19.284932	0.601721	0	0
0	0	0	49.210957	6.360723	41.85442	6.360723	2.157304E+13	0.000378	2643.108278	19.317665	0.598111	0	0
0	0	0	49.068437	6.361463	41.660588	6.361463	2.037721E+13	0.000369	2711.722897	19.345195	0.594846	0	0
0	0	0	48.925876	6.36235	41.466515	6.36235	1.924656E+13	0.000362	2761.163753	19.290464	0.591963	0	0
0	0	0	48.776945	6.362904	41.264196	6.362904	1.813159E+13	0.00035	2858.246807	19.277697	0.588645	0	0
0	0	0	48.625442	6.36399	41.05775	6.36399	1.706291E+13	0.000347	2885.566698	19.323787	0.58522	0	0
0	0	0	48.467894	6.365063	40.843118	6.365063	1.601768E+13	0.000343	2914.339351	19.303581	0.582404	0	0
0	0	0	48.306344	6.365698	40.623575	6.365698	1.501175E+13	0.000332	3008.772352	19.251865	0.579456	0	0
0	0	0	48.13479	6.366659	40.390075	6.366659	1.401198E+13	0.000327	3060.15674	19.275821	0.576031	0	0
0	0	0	47.960295	6.36742	40.152819	6.36742	1.30628E+13	0.000318	3143.714111	19.299197	0.572884	0	0
0	0	0	47.776531	6.368261	39.902894	6.368261	1.21321E+13	0.000311	3219.674347	19.241383	0.570267	0	0
0	0	0	47.585497	6.368723	39.643579	6.368723	1.123432E+13	0.000296	3379.0693	19.223745	0.567093	0	0
0	0	0	47.382907	6.369459	39.368257	6.369459	1.035423E+13	0.000286	3497.000639	19.259886	0.563841	0	0
0	0	0	47.174273	6.36992	39.08508	6.36992	9.519465E+12	0.000271	3688.227844	19.225493	0.561077	0	0
0	0	0	46.952979	6.370067	38.785148	6.370067	8.707071E+12	0.00025	3992.161022	19.176618	0.558208	0	0
0	0	0	46.720578	6.370607	38.469659	6.370607	7.928056E+12	0.000237	4222.304025	19.212405	0.555009	0	0
0	0	0	46.471965	6.371046	38.132326	6.371046	7.171346E+12	0.000221	4521.903849	19.245708	0.551981	0	0
0	0	0	46.213796	6.371389	37.782163	6.371389	6.461587E+12	0.000204	4891.961584	19.170212	0.549535	0	0
0	0	0	45.935944	6.3716	37.405506	6.3716	5.77571E+12	0.000186	5386.014768	19.168186	0.546309	0	0
0	0	0	45.638368	6.371969	37.00191	6.371969	5.121415E+12	0.000169	5902.695959	19.218052	0.543228	0	0
0	0	0	45.324498	6.372335	36.576231	6.372335	4.511214E+12	0.000154	6507.461776	19.173921	0.540676	0	0
0	0	0	44.994824	6.372533	36.129366	6.372533	3.948218E+12	0.000137	7315.916045	19.131373	0.537847	0	0
0	0	0	44.65539	6.373014	35.668873	6.373014	3.441714E+12	0.000124	8059.552176	19.169913	0.534608	0	0
0	0	0	44.30346	6.373285	35.191733	6.373285	2.984932E+12	0.00011	9076.682142	19.163891	0.531911	0	0
0	0	0	43.9432	6.373668	34.703135	6.373668	2.579959E+12	9.854419E-5	10147.73144	19.106109	0.529293	0	0
0	0	0	43.570117	6.373983	34.197251	6.373983	2.218306E+12	8.722739E-5	11464.288693	19.13104	0.526119	0	0
0	0	0	43.183394	6.374479	33.672605	6.374479	1.896782E+12	7.822053E-5	12784.367746	19.163577	0.523409	0	0
0	0	0	42.776539	6.374935	33.120724	6.374935	1.608641E+12	6.944502E-5	14399.880843	19.09153	0.521069	0	0
0	0	0	42.349756	6.375058	32.542335	6.375058	1.353265E+12	5.91703E-5	16900.370024	19.067587	0.518226	0	0
0	0	0	41.898512	6.375565	31.930198	6.375565	1.127176E+12	5.203541E-5	19217.683296	19.115916	0.515172	0	0
0	0	0	41.437426	6.3758	31.305137	6.3758	9.350997E+11	4.431069E-5	22567.916566	19.103416	0.512766	0	0
0	0	0	40.968908	6.376086	30.669911	6.376086	7.734052E+11	3.786973E-5	26406.312803	19.048095	0.510267	0	0
0	0	0	40.482626	6.376466	30.010447	6.376466	6.350706E+11	3.254094E-5	30730.519357	19.062292	0.507371	0	0
0	0	0	39.9825	6.376984	29.331976	6.376984	5.185531E+11	2.836215E-5	35258.263594	19.068688	0.504819	0	0
0	0	0	39.469878	6.377146	28.637149	6.377146	4.212684E+11	2.353962E-5	42481.564283	19.023041	0.502545	0	0
0	0	0	38.943699	6.377735	27.923206	6.377735	3.403555E+11	2.063544E-5	48460.321782	19.029394	0.499808	0	0
0	0	0	38.400736	6.377976	27.187098	6.377976	2.731163E+11	1.715679E-5	58285.945619	19.075128	0.496966	0	0
0	0	0	37.84299	6.378313	26.430774	6.378313	2.178493E+11	1.441189E-5	69387.135418	19.01133	0.49489	0	0
0	0	0	37.276831	6.378662	25.663009	6.378662	1.731732E+11	1.21224E-5	82491.904027	18.967066	0.492338	0	0
0	0	0	36.697646	6.378868	24.877835	6.378868	1.369333E+11	9.926782E-6	100737.581161	19.018804	0.489548	0	0
0	0	0	36.102575	6.379354	24.070594	6.379354	1.075817E+11	8.513452E-6	117461.171901	19.015446	0.487195	0	0
0	0	0	35.484227	6.379593	23.232255	6.379593	8.372739E+10	6.937698E-6	144140.026966	18.957827	0.484855	0	0
0	0	0	34.849055	6.380097	22.370581	6.380097	6.471918E+10	5.956049E-6	167896.549262	18.974675	0.482131	0	0
0	0	0	34.195139	6.379954	21.484762	6.379954	4.964745E+10	4.429887E-6	225739.386568	18.985646	0.479764	0	0
0	0	0	33.512269	6.380471	20.558378	6.380471	3.764108E+10	3.773531E-6	265003.803577	18.928935	0.477517	0	0
0	0	0	32.801917	6.380636	19.595443	6.380636	2.822197E+10	2.94526E-6	339528.548825	18.937484	0.474793	0	0
0	0	0	32.071024	6.381145	18.603932	6.381145	2.098433E+10	2.507161E-6	398857.451181	18.971592	0.472321	0	0
0	0	0	31.339191	6.381231	17.612017	6.381231	1.559686E+10	1.910374E-6	523457.633192	18.915784	0.470218	0	0
0	0	0	30.592249	6.381078	16.600145	6.381078	1.152174E+10	1.350798E-6	740302.892026	18.875449	0.467944	0	0
0	0	0	29.841101	6.381579	15.581125	6.381579	8.49686E+9	1.158048E-6	863522.290001	18.921137	0.465141	0	0
0	0	0	29.080519	6.381769	14.549984	6.381769	6.242198E+9	9.069223E-7	1102630.279123	18.91415	0.46292	0	0
0	0	0	28.307646	6.381883	13.502349	6.381883	4.563017E+9	6.899805E-7	1449316.358446	18.845041	0.460752	0	0
0	0	0	27.536284	6.382319	12.455989	6.382319	3.337586E+9	5.988631E-7	1669830.829294	18.871367	0.45816	0	0
0	0	0	26.761859	6.38208	11.407065	6.38208	2.438224E+9	3.969634E-7	2519123.722474	18.887065	0.455833	0	0
0	0	0	25.985065	6.382362	10.353677	6.382362	1.779498E+9	3.252417E-7	3074636.41623	18.817398	0.45385	0	0
0	0	0	25.208639	6.382615	9.300833	6.382615	1.298932E+9	2.668519E-7	3747396.79803	18.831835	0.451311	0	0
0	0	0	24.434949	6.382721	8.25205	6.382721	9.491976E+8	2.056349E-7	4862987.982678	18.872663	0.448799	0	0
0	0	0	23.651458	6.382644	7.190447	6.382644	6.908779E+8	1.439317E-7	6947740.085837	18.791173	0.446975	0	0
0	0	0	22.851878	6.382989	6.105939	6.382989	4.99589E+8	1.255648E-7	7964016.851276	18.768375	0.444582	0	0
0	0	0	22.071123	6.383242	5.047158	6.383242	3.640317E+8	1.078506E-7	9272089.369103	18.823159	0.442017	0	0
0	0	0	21.291308	6.38301	3.990943	6.38301	2.653573E+8	6.755094E-8	1.480364E+7	18.792841	0.440073	0	0
0	0	0	20.520558	6.383214	2.945834	6.383214	1.941418E+8	5.640024E-8	1.773042E+7	18.732374	0.437997	0	0
0	0	0	19.753892	6.383347	1.906438	6.383347	1.422742E+8	4.554563E-8	2.1956E+7	18.780847	0.435207	0	0
0	0	0	18.988532	6.383425	0.868962	6.383425	1.043189E+8	3.548985E-8	2.817707E+7	18.758163	0.433304	0	0
0	0	0	18.236486	6.383516	-0.150519	6.383516	7.690319E+7	2.825737E-8	3.5389E+7	18.689044	0.431413	0	0
0	0	0	17.497874	6.383488	-1.15145	6.383488	5.700215E+7	2.044157E-8	4.891993E+7	18.726558	0.428967	0	0
0	0	0	16.771841	6.383643	-2.135875	6.383643	4.246711E+7	1.754943E-8	5.698191E+7	18.73889	0.426732	0	0
0	0	0	16.068635	6.383755	-3.089247	6.383755	3.193255E+7	1.484045E-8	6.73834E+7	18.660414	0.424908	0	0
0	0	0	15.387031	6.383727	-4.012923	6.383727	2.422247E+7	1.091717E-8	9.159881E+7	18.64938	0.422607	0	0
0	0	0	14.718985	6.383819	-4.91859	6.383819	1.847525E+7	9.2335E-9	1.083013E+8	18.710064	0.420241	0	0
0	0	0	14.066417	6.383678	-5.802566	6.383678	1.418036E+7	6.070242E-9	1.647381E+8	18.656439	0.418548	0	0
0	0	0	13.42663	6.383966	-6.67056	6.383966	1.094044E+7	6.634699E-9	1.507227E+8	18.632843	0.416353	0	0
0	0	0	12.814571	6.383896	-7.499852	6.383896	8536206.875	4.699132E-9	2.128053E+8	18.669435	0.413894	0	0
0	0	0	12.222686	6.383945	-8.302184	6.383945	6715014.5	3.951766E-9	2.530514E+8	18.613569	0.412228	0	0
0	0	0	11.655261	6.384107	-9.071733	6.384107	5335020	4.060712E-9	2.462622E+8	18.558873	0.410126	0	0
0	0	0	11.109521	6.384128	-9.811442	6.384128	4276054.75	3.384187E-9	2.95492E+8	18.619681	0.407852	0	0
0	0	0	10.587344	6.383995	-10.518706	6.383995	3460185.125	2.187309E-9	4.571828E+8	18.606125	0.40608	0	0
0	0	0	10.085952	6.384142	-11.19873	6.384142	2823679.125	2.295631E-9	4.356101E+8	18.532967	0.404216	0	0
0	0	0	9.602365	6.384262	-11.854536	6.384262	2320953.125	2.45567E-9	4.072208E+8	18.556861	0.401836	0	0
0	0	0	9.145118	6.384128	-12.473793	6.384128	1928214	1.526043E-9	6.552894E+8	18.554329	0.399985	0	0
0	0	0	8.707145	6.384276	-13.06788	6.384276	1614499.625	1.771014E-9	5.646483E+8	18.488033	0.398266	0	0
0	0	0	8.291388	6.384149	-13.630924	6.384149	1364056.25	1.124286E-9	8.894535E+8	18.507975	0.395979	0	0
0	0	0	7.891312	6.384269	-14.17356	6.384269	1159812.25	1.249283E-9	8.004589E+8	18.539095	0.393903	0	0
0	0	0	7.509735	6.384121	-14.6902	6.384121	993574.5	7.760509E-10	1.288575E+9	18.472504	0.392317	0	0
0	0	0	7.146861	6.384367	-15.182863	6.384367	857642.5	1.236201E-9	8.089301E+8	18.45927	0.390188	0	0
0	0	0	6.800812	6.384466	-15.652214	6.384466	745374.75	1.623331E-9	6.160173E+8	18.509499	0.387927	0	0
0	0	0	6.470485	6.38436	-16.099539	6.38436	651945.625	9.175477E-10	1.089862E+9	18.440152	0.386393	0	0
0	0	0	6.15641	6.384332	-16.525107	6.384332	573997.25	7.382016E-10	1.354644E+9	18.408936	0.384384	0	0
0	0	0	5.856057	6.384269	-16.931952	6.384269	508187.875	5.473911E-10	1.826847E+9	18.459171	0.382242	0	0
0	0	0	5.565668	6.384431	-17.326098	6.384431	451744.875	8.320154E-10	1.201901E+9	18.40896	0.380721	0	0
0	0	0	5.288592	6.38436	-17.70137	6.38436	403744.125	5.682292E-10	1.759853E+9	18.361363	0.378738	0	0
0	0	0	5.01805	6.3846	-18.068904	6.3846	361800.875	2.570238E-9	3.890691E+8	18.418317	0.376649	0	0
0	0	0	4.74616	6.384466	-18.436918	6.384466	324037.875	7.057134E-10	1.417006E+9	18.374399	0.375142	0	0
0	0	0	4.49771	6.384501	-18.773774	6.384501	292987.625	7.805207E-10	1.281196E+9	18.319287	0.373396	0	0
0	0	0	4.262246	6.384375	-19.092439	6.384375	266311.125	3.933609E-10	2.542195E+9	18.379067	0.371254	0	0
0	0	0	4.028252	6.384677	-19.410684	6.384677	242207.875	-5.559026E-9	-1.798876E+8	18.351169	0.369655	0	0
0	0	0	3.804876	6.3846	-19.713147	6.3846	221236.375	1.571666E-9	6.362674E+8	18.269987	0.368055	0	0
0	0	0	3.594609	6.38436	-19.997244	6.38436	203157.625	2.859239E-10	3.497434E+9	18.320624	0.365939	0	0
0	0	0	3.389078	6.384417	-20.27601	6.384417	186914.75	3.242413E-10	3.084123E+9	18.325103	0.364287	0	0
0	0	0	3.188489	6.384452	-20.548003	6.384452	172315.5	3.49752E-10	2.859169E+9	18.228123	0.362687	0	0
0	0	0	2.994678	6.384557	-20.81107	6.384557	159293.75	6.601147E-10	1.514888E+9	18.243789	0.36069	0	0
0	0	0	2.803767	6.384579	-21.069895	6.384579	147429.125	7.717233E-10	1.295801E+9	18.258851	0.359051	0	0
0	0	0	2.621432	6.384712	-21.31752	6.384712	136923.5	-1.075097E-9	-9.301485E+8	18.187946	0.357583	0	0
0	0	0	2.453675	6.384445	-21.543881	6.384445	127920.5	2.511018E-10	3.982449E+9	18.20905	0.355507	0	0
0	0	0	2.306296	6.384515	-21.743891	6.384515	120500.75	3.524868E-10	2.836986E+9	18.238241	0.353683	0	0
0	0	0	2.196037	6.384733	-21.89415	6.384733	115232.625	-6.487134E-10	-1.541513E+9	18.148618	0.352361	0	0
0	0	0	2.077897	6.384642	-22.053923	6.384642	109843.375	2.731151E-9	3.66146E+8	18.139405	0.350444	0	0
0	0	0	1.972089	6.384621	-22.197247	6.384621	105230.875	1.162874E-9	8.599385E+8	18.183884	0.348606	0	0
0	0	0	1.855174	6.384459	-22.355092	6.384459	100359.25	2.108736E-10	4.742176E+9	18.11567	0.347231	0	0
0	0	0	1.732991	6.384508	-22.520875	6.384508	95508.75	2.663254E-10	3.754805E+9	18.104657	0.345366	0	0
0	0	0	1.616934	6.384628	-22.678626	6.384628	91118.875	1.235773E-9	8.092098E+8	18.149399	0.343476	0	0
0	0	0	1.496915	6.384445	-22.840593	6.384445	86791.125	1.703668E-10	5.869688E+9	18.062482	0.342048	0	0
0	0	0	1.388902	6.38455	-22.987387	6.38455	83072.375	3.218986E-10	3.106568E+9	18.040835	0.340369	0	0
0	0	0	1.281298	6.384783	-23.134113	6.384783	79526.125	-2.696376E-10	-3.708682E+9	18.086098	0.338425	0	0
0	0	0	1.179369	6.384494	-23.271155	6.384494	76306.75	1.945944E-10	5.138894E+9	18.027617	0.337182	0	0
0	0	0	1.081362	6.38455	-23.404203	6.38455	73334	2.841632E-10	3.519104E+9	18.01014	0.335397	0	0
0	0	0	0.987764	6.384564	-23.531112	6.384564	70603.375	3.144155E-10	3.180505E+9	18.059569	0.333388	0	0
0	0	0	0.892615	6.384684	-23.66053	6.384684	67931.5	-1.126035E-9	-8.880716E+8	17.956331	0.332343	0	0
0	0	0	0.799753	6.384804	-23.786849	6.384804	65421.5	-1.895119E-10	-5.276713E+9	17.939995	0.330492	0	0
0	0	0	0.708728	6.384649	-23.909621	6.384649	63051.125	2.687497E-9	3.720935E+8	17.996847	0.328641	0	0
0	0	0	0.616478	6.384649	-24.03465	6.384649	60736.5	2.588838E-9	3.862737E+8	17.934986	0.327359	0	0
0	0	0	0.528638	6.384642	-24.153674	6.384642	58611.625	1.457323E-9	6.861898E+8	17.89906	0.325759	0	0
0	0	0	0.446434	6.384557	-24.264761	6.384557	56690.375	2.349255E-10	4.256669E+9	17.968446	0.323855	0	0
0	0	0	0.370111	6.384754	-24.368967	6.384754	54963	-2.411653E-10	-4.146534E+9	17.882504	0.322678	0	0
0	0	0	0.294931	6.384642	-24.470425	6.384642	53312.875	1.325574E-9	7.5439E+8	17.855478	0.320973	0	0
0	0	0	0.229878	6.384564	-24.558292	6.384564	51925.25	2.312368E-10	4.32457E+9	17.899746	0.319201	0	0
0	0	0	0.182589	6.384543	-24.622301	6.384543	50939.125	1.853493E-10	5.39522E+9	17.826756	0.318117	0	0
0	0	0	0.128358	6.384726	-24.696513	6.384726	49831.375	-3.097525E-10	-3.228383E+9	17.785389	0.316557	0	0
0	0	0	0.110594	6.384705	-24.720507	6.384705	49473.75	-4.473157E-10	-2.235558E+9	17.839538	0.314891	0	0
0	0	0	0.073719	6.384663	-24.770321	6.384663	48739.625	-4.84746E-9	-2.062936E+8	17.78288	0.313529	0	0
0	0	0	0.053015	6.384635	-24.798272	6.384635	48332.125	8.482819E-10	1.178853E+9	17.727444	0.31214	0	0
0	0	0	0.045297	6.384579	-24.808514	6.384579	48181.125	2.52206E-10	3.965014E+9	17.78785	0.310382	0	0
0	0	0	0.037905	6.384663	-24.81886	6.384663	48037	-4.777579E-9	-2.09311E+8	17.743948	0.3091	0	0
0	0	0	0.022836	6.384804	-24.839831	6.384804	47744.5	-1.383055E-10	-7.230372E+9	17.701556	0.307579	0	0
0	0	0	0.008217	6.384677	-24.859152	6.384677	47462.25	-1.089327E-9	-9.179981E+8	17.736278	0.305926	0	0
0	0	0	-0.008444	6.384726	-24.881926	6.384726	47142.75	-2.9304E-10	-3.412503E+9	17.652763	0.304882	0	0
0	0	0	-0.017265	6.384677	-24.893689	6.384677	46974.5	-1.078132E-9	-9.275299E+8	17.628949	0.303335	0	0
0	0	0	-0.023064	6.384705	-24.901658	6.384705	46864.125	-4.237208E-10	-2.360044E+9	17.681183	0.301682	0	0
0	0	0	-0.0258	6.38467	-24.905229	6.38467	46812.125	-1.745909E-9	-5.727675E+8	17.613915	0.300585	0	0
0	0	0	-0.028495	6.384564	-24.90847	6.384564	46761.125	2.082396E-10	4.80216E+9	17.606872	0.298985	0	0
0	0	0	-0.030129	6.384656	-24.911041	6.384656	46730.125	6.971403E-9	1.434432E+8	17.657178	0.297372	0	0
0	0	0	-0.03409	6.384621	-24.916272	6.384621	46655.125	5.155714E-10	1.939595E+9	17.566333	0.296301	0	0
0	0	0	-0.038255	6.384621	-24.921918	6.384621	46576.375	5.147012E-10	1.942875E+9	17.539208	0.29478	0	0
0	0	0	-0.043891	6.384614	-24.929528	6.384614	46470.125	4.332884E-10	2.307931E+9	17.578901	0.2933	0	0
0	0	0	-0.048873	6.384656	-24.936445	6.384656	46376.375	6.918629E-9	1.445373E+8	17.491875	0.292295	0	0
0	0	0	-0.05655	6.384522	-24.946329	6.384522	46232.25	1.422088E-10	7.031912E+9	17.512727	0.290589	0	0
0	0	0	-0.064186	6.384663	-24.957228	6.384663	46089.25	-4.583863E-9	-2.181566E+8	17.539731	0.289082	0	0
0	0	0	-0.069699	6.384867	-24.965495	6.384867	45986.375	-9.270875E-11	-1.078647E+10	17.426656	0.288275	0	0
0	0	0	-0.073987	6.384635	-24.970401	6.384635	45906.5	8.057095E-10	1.241142E+9	17.445787	0.286464	0	0
0	0	0	-0.079868	6.384698	-24.978618	6.384698	45797.25	-4.880166E-10	-2.049111E+9	17.470123	0.285129	0	0
0	0	0	-0.083584	6.384663	-24.983517	6.384663	45728.25	-4.547959E-9	-2.198788E+8	17.375467	0.284111	0	0
0	0	0	-0.085993	6.384663	-24.986783	6.384663	45683.625	-4.543521E-9	-2.200936E+8	17.417298	0.282365	0	0
0	0	0	-0.088484	6.384656	-24.990132	6.384656	45637.5	6.8084E-9	1.468774E+8	17.415515	0.281255	0	0
0	0	0	-0.091343	6.384649	-24.993978	6.384649	45584.625	1.943004E-9	5.146671E+8	17.311529	0.280237	0	0
0	0	0	-0.093956	6.384438	-24.996697	6.384438	45536.375	8.653904E-11	1.155548E+10	17.362447	0.278452	0	0
0	0	0	-0.095998	6.384579	-25.000014	6.384579	45498.625	2.381643E-10	4.198782E+9	17.33248	0.277407	0	0
0	0	0	-0.097019	6.384677	-25.001781	6.384677	45479.875	-1.043829E-9	-9.580118E+8	17.272588	0.276178	0	0
0	0	0	-0.097427	6.384621	-25.002115	6.384621	45472.375	5.025012E-10	1.990045E+9	17.327216	0.274565	0	0
0	0	0	-0.098203	6.384586	-25.00303	6.384586	45458	2.608316E-10	3.833891E+9	17.286874	0.273547	0	0
0	0	0	-0.097264	6.384571	-25.001702	6.384571	45475.25	2.18845E-10	4.569444E+9	17.220298	0.272409	0	0
0	0	0	-0.098081	6.38479	-25.003659	6.38479	45460.25	-1.458486E-10	-6.856427E+9	17.290368	0.270625	0	0
0	0	0	-0.098693	6.384656	-25.003968	6.384656	45449	6.780279E-9	1.474865E+8	17.186248	0.269963	0	0
0	0	0	-0.098979	6.384522	-25.003834	6.384522	45443.75	1.397834E-10	7.153924E+9	17.148684	0.268522	0	0
0	0	0	-0.098938	6.384614	-25.004136	6.384614	45444.5	4.237255E-10	2.360018E+9	17.224496	0.266989	0	0
0	0	0	-0.098897	6.38486	-25.005041	6.38486	45445.25	-9.482126E-11	-1.054616E+10	17.127606	0.266169	0	0
0	0	0	-0.099428	6.384733	-25.005266	6.384733	45435.375	-2.557829E-10	-3.909566E+9	17.124603	0.264648	0	0
0	0	0	-0.098979	6.384797	-25.004904	6.384797	45443.75	-1.383571E-10	-7.227676E+9	17.143223	0.263379	0	0
0	0	0	-0.099428	6.384614	-25.0048	6.384614	45435.375	4.236404E-10	2.360492E+9	17.042618	0.262427	0	0
0	0	0	-0.099469	6.384677	-25.005102	6.384677	45434.75	-1.042793E-9	-9.589632E+8	17.050036	0.261171	0	0
0	0	0	-0.099673	6.384853	-25.006065	6.384853	45430.875	-9.822573E-11	-1.018063E+10	17.074955	0.259822	0	0
0	0	0	-0.09951	6.384642	-25.00502	6.384642	45433.875	1.12967E-9	8.852139E+8	16.98368	0.258884	0	0
0	0	0	-0.099714	6.384508	-25.004776	6.384508	45430.125	1.266816E-10	7.893809E+9	17.04403	0.257244	0	0
0	0	0	-0.099796	6.384663	-25.00549	6.384663	45428.625	-4.51816E-9	-2.21329E+8	17.013057	0.256292	0	0
0	0	0	-0.100449	6.384649	-25.006321	6.384649	45416.625	1.935843E-9	5.165709E+8	16.921419	0.255116	0	0
0	0	0	-0.100245	6.384593	-25.005824	6.384593	45420.375	2.883408E-10	3.468118E+9	16.98686	0.253608	0	0
0	0	0	-0.099918	6.384733	-25.005931	6.384733	45426.375	-2.557322E-10	-3.91034E+9	16.915419	0.252868	0	0
0	0	0	-0.099387	6.384677	-25.004991	6.384677	45436.125	-1.042824E-9	-9.589342E+8	16.880916	0.251466	0	0
0	0	0	-0.099265	6.384579	-25.004441	6.384579	45438.375	2.378489E-10	4.20435E+9	16.933861	0.250184	0	0
0	0	0	-0.100041	6.384663	-25.005822	6.384663	45424.125	-4.517712E-9	-2.21351E+8	16.8521	0.249391	0	0
0	0	0	-0.099673	6.384811	-25.0059	6.384811	45430.875	-1.255107E-10	-7.967451E+9	16.835853	0.248029	0	0
0	0	0	-0.100245	6.384832	-25.006757	6.384832	45420.375	-1.10179E-10	-9.076139E+9	16.8749	0.246746	0	0
0	0	0	-0.1	6.384628	-25.00563	6.384628	45424.875	6.160618E-10	1.623214E+9	16.754908	0.245887	0	0
0	0	0	-0.099878	6.384579	-25.005271	6.384579	45427.125	2.3779E-10	4.205391E+9	16.804325	0.244353	0	0
0	0	0	-0.100245	6.384733	-25.006373	6.384733	45420.375	-2.556985E-10	-3.910857E+9	16.763717	0.243547	0	0
0	0	0	-0.100613	6.384719	-25.006817	6.384719	45413.625	-3.151164E-10	-3.173431E+9	16.676307	0.242515	0	0
0	0	0	-0.101266	6.384761	-25.007867	6.384761	45401.625	-1.855674E-10	-5.388876E+9	16.752405	0.241154	0	0
0	0	0	-0.101225	6.384747	-25.007757	6.384747	45402.375	-2.150261E-10	-4.650597E+9	16.691186	0.240268	0	0
0	0	0	-0.101633	6.384607	-25.007761	6.384607	45394.875	3.660651E-10	2.731754E+9	16.663715	0.239025	0	0
0	0	0	-0.101674	6.384768	-25.008448	6.384768	45394.125	-1.736434E-10	-5.758929E+9	16.7042	0.237875	0	0
0	0	0	-0.101429	6.384698	-25.007841	6.384698	45398.625	-4.837689E-10	-2.067103E+9	16.584005	0.237055	0	0
0	0	0	-0.10245	6.384768	-25.009499	6.384768	45379.75	-1.735884E-10	-5.760753E+9	16.593032	0.23564	0	0
0	0	0	-0.102246	6.384783	-25.009277	6.384783	45383.5	-1.538752E-10	-6.498774E+9	16.601035	0.234596	0	0
0	0	0	-0.102205	6.384754	-25.009112	6.384754	45384.25	-1.991359E-10	-5.021697E+9	16.50061	0.233802	0	0
0	0	0	-0.102124	6.384649	-25.00859	6.384649	45385.75	1.934527E-9	5.169223E+8	16.584527	0.232295	0	0
0	0	0	-0.102409	6.384543	-25.008566	6.384543	45380.5	1.651234E-10	6.056076E+9	16.540957	0.231462	0	0
0	0	0	-0.10294	6.384656	-25.009724	6.384656	45370.75	6.768606E-9	1.477409E+8	16.457622	0.23047	0	0
0	0	0	-0.102409	6.384543	-25.008566	6.384543	45380.5	1.651234E-10	6.056076E+9	16.501864	0.229281	0	0
0	0	0	-0.103961	6.384825	-25.011767	6.384825	45352	-1.146747E-10	-8.720318E+9	16.415128	0.228619	0	0
0	0	0	-0.103308	6.384586	-25.009948	6.384586	45364	2.602923E-10	3.841835E+9	16.41793	0.227337	0	0
0	0	0	-0.103798	6.384684	-25.010996	6.384684	45355	-7.518062E-10	-1.33013E+9	16.43475	0.226213	0	0
0	0	0	-0.104288	6.384656	-25.011551	6.384656	45346	6.764913E-9	1.478216E+8	16.321103	0.22542	0	0
0	0	0	-0.104165	6.384642	-25.01133	6.384642	45348.25	1.127542E-9	8.868853E+8	16.387432	0.224045	0	0
0	0	0	-0.10437	6.38474	-25.011991	6.38474	45344.5	-2.332652E-10	-4.286967E+9	16.346273	0.223331	0	0
0	0	0	-0.105145	6.384628	-25.012603	6.384628	45330.25	6.147785E-10	1.626602E+9	16.282036	0.222418	0	0
0	0	0	-0.10437	6.384733	-25.011963	6.384733	45344.5	-2.552713E-10	-3.917401E+9	16.36271	0.220911	0	0
0	0	0	-0.10486	6.384635	-25.012243	6.384635	45335.5	7.956879E-10	1.256774E+9	16.231372	0.220382	0	0
0	0	0	-0.104941	6.384733	-25.012738	6.384733	45334	-2.552122E-10	-3.918308E+9	16.223213	0.219245	0	0
0	0	0	-0.104206	6.38467	-25.011495	6.38467	45347.5	-1.691284E-9	-5.912667E+8	16.268255	0.218227	0	0
0	0	0	-0.103226	6.384705	-25.010304	6.384705	45365.5	-4.101711E-10	-2.438007E+9	16.147572	0.2175	0	0
0	0	0	-0.103757	6.384628	-25.010722	6.384628	45355.75	6.151244E-10	1.625688E+9	16.226666	0.216125	0	0
0	0	0	-0.104043	6.384733	-25.011521	6.384733	45350.5	-2.553051E-10	-3.916882E+9	16.168713	0.215504	0	0
0	0	0	-0.103308	6.38474	-25.010552	6.38474	45364	-2.333655E-10	-4.285124E+9	16.101458	0.214565	0	0
0	0	0	-0.103512	6.384459	-25.009731	6.384459	45360.25	9.531041E-11	1.049203E+10	16.171226	0.21315	0	0
0	0	0	-0.102695	6.384663	-25.00942	6.384663	45375.25	-4.512851E-9	-2.215894E+8	16.010122	0.21278	0	0
0	0	0	-0.102859	6.384733	-25.009916	6.384733	45372.25	-2.554275E-10	-3.915005E+9	16.073954	0.211299	0	0
0	0	0	-0.102409	6.384705	-25.009197	6.384705	45380.5	-4.103067E-10	-2.437201E+9	16.046888	0.210598	0	0
0	0	0	-0.102409	6.384691	-25.009142	6.384691	45380.5	-5.887009E-10	-1.698655E+9	15.972348	0.209712	0	0
0	0	0	-0.102491	6.384663	-25.009143	6.384663	45379	-4.513224E-9	-2.215711E+8	16.060428	0.208456	0	0
0	0	0	-0.102695	6.384586	-25.009118	6.384586	45375.25	2.603568E-10	3.840883E+9	15.946222	0.207875	0	0
0	0	0	-0.10294	6.38474	-25.010054	6.38474	45370.75	-2.334002E-10	-4.284487E+9	15.967	0.206592	0	0
0	0	0	-0.102328	6.384797	-25.009443	6.384797	45382	-1.381691E-10	-7.23751E+9	15.944646	0.205865	0	0
0	0	0	-0.102818	6.384684	-25.009668	6.384684	45373	-7.521046E-10	-1.329602E+9	15.82738	0.205111	0	0
0	0	0	-0.102205	6.38474	-25.009057	6.38474	45384.25	-2.334696E-10	-4.283212E+9	15.903408	0.20375	0	0
0	0	0	-0.102042	6.384621	-25.008369	6.384621	45387.375	5.015619E-10	1.993772E+9	15.794456	0.20334	0	0
0	0	0	-0.101511	6.384691	-25.007924	6.384691	45397.125	-5.889166E-10	-1.698033E+9	15.810832	0.20211	0	0
0	0	0	-0.101919	6.384593	-25.008094	6.384593	45389.625	2.881456E-10	3.470468E+9	15.83399	0.201251	0	0
0	0	0	-0.101674	6.384621	-25.007871	6.384621	45394.125	5.016365E-10	1.993475E+9	15.722941	0.200537	0	0
0	0	0	-0.102164	6.384663	-25.0087	6.384663	45385.125	-4.513833E-9	-2.215412E+8	15.82582	0.199188	0	0
0	0	0	-0.101838	6.384733	-25.008532	6.384733	45391	-2.555331E-10	-3.913388E+9	15.733431	0.198791	0	0
0	0	0	-0.101715	6.384628	-25.007954	6.384628	45393.375	6.156346E-10	1.62434E+9	15.698261	0.19772	0	0
0	0	0	-0.10245	6.384804	-25.009636	6.384804	45379.75	-1.314553E-10	-7.607148E+9	15.713389	0.196729	0	0
0	0	0	-0.103226	6.384635	-25.010029	6.384635	45365.5	7.962144E-10	1.255943E+9	15.587755	0.196213	0	0
0	0	0	-0.102818	6.384621	-25.009421	6.384621	45373	5.014031E-10	1.994403E+9	15.659317	0.194878	0	0
0	0	0	-0.103349	6.384775	-25.010744	6.384775	45363.25	-1.63072E-10	-6.132262E+9	15.56312	0.194336	0	0
0	0	0	-0.10294	6.384853	-25.010493	6.384853	45370.75	-9.809573E-11	-1.019412E+10	15.522984	0.193397	0	0
0	0	0	-0.103471	6.384712	-25.010663	6.384712	45361	-3.561658E-10	-2.807681E+9	15.574996	0.192458	0	0
0	0	0	-0.103226	6.384487	-25.009453	6.384487	45365.5	1.109479E-10	9.013239E+9	15.450676	0.191969	0	0
0	0	0	-0.103471	6.384677	-25.010526	6.384677	45361	-1.0411E-9	-9.605224E+8	15.546477	0.19066	0	0
0	0	0	-0.103757	6.384775	-25.011298	6.384775	45355.75	-1.63045E-10	-6.133276E+9	15.469103	0.190277	0	0
0	0	0	-0.103144	6.384642	-25.009946	6.384642	45367	1.128008E-9	8.865188E+8	15.438029	0.189219	0	0
0	0	0	-0.104288	6.38455	-25.011139	6.38455	45346	1.75712E-10	5.69113E+9	15.466389	0.188241	0	0
0	0	0	-0.104533	6.384761	-25.012295	6.384761	45341.5	-1.853217E-10	-5.396022E+9	15.338721	0.187857	0	0
0	0	0	-0.104615	6.384804	-25.01257	6.384804	45340	-1.313402E-10	-7.613817E+9	15.410924	0.186442	0	0
0	0	0	-0.104696	6.384579	-25.011802	6.384579	45338.5	2.373261E-10	4.213611E+9	15.302235	0.186085	0	0
0	0	0	-0.104941	6.384663	-25.012464	6.384663	45334	-4.508749E-9	-2.21791E+8	15.288054	0.185001	0	0
0	0	0	-0.1049	6.384663	-25.012408	6.384663	45334.75	-4.508823E-9	-2.217874E+8	15.302181	0.1843	0	0
0	0	0	-0.106085	6.3846	-25.013766	6.3846	45313	3.219043E-10	3.106513E+9	15.209933	0.183573	0	0
0	0	0	-0.106656	6.384663	-25.014788	6.384663	45302.5	-4.505616E-9	-2.219452E+8	15.285179	0.182529	0	0
0	0	0	-0.106942	6.384663	-25.015176	6.384663	45297.25	-4.505094E-9	-2.21971E+8	15.183408	0.182053	0	0
0	0	0	-0.10682	6.384747	-25.015339	6.384747	45299.5	-2.145389E-10	-4.661159E+9	15.211983	0.180903	0	0
0	0	0	-0.10633	6.384628	-25.014208	6.384628	45308.5	6.144835E-10	1.627383E+9	15.171005	0.180334	0	0
0	0	0	-0.106534	6.384705	-25.014787	6.384705	45304.75	-4.096218E-10	-2.441276E+9	15.065947	0.179739	0	0
0	0	0	-0.106085	6.384733	-25.014288	6.384733	45313	-2.55094E-10	-3.920124E+9	15.149011	0.17847	0	0
0	0	0	-0.10535	6.38474	-25.013319	6.38474	45326.5	-2.331726E-10	-4.288669E+9	15.000977	0.178139	0	0
0	0	0	-0.105227	6.384853	-25.013592	6.384853	45328.75	-9.800493E-11	-1.020357E+10	15.062258	0.177002	0	0
0	0	0	-0.1049	6.384867	-25.013204	6.384867	45334.75	-9.139507E-11	-1.094151E+10	15.002049	0.176473	0	0
0	0	0	-0.10486	6.384621	-25.012188	6.384621	45335.5	5.009887E-10	1.996053E+9	14.965513	0.175495	0	0
0	0	0	-0.105105	6.384811	-25.013261	6.384811	45331	-1.252347E-10	-7.985005E+9	14.975992	0.174873	0	0
0	0	0	-0.104941	6.384557	-25.012052	6.384557	45334	1.878645E-10	5.322985E+9	14.884047	0.174252	0	0
0	0	0	-0.103349	6.384705	-25.01047	6.384705	45363.25	-4.101507E-10	-2.438128E+9	14.966589	0.173168	0	0
0	0	0	-0.103839	6.384797	-25.011491	6.384797	45354.25	-1.380846E-10	-7.241939E+9	14.832847	0.17293	0	0
0	0	0	-0.10343	6.384705	-25.010581	6.384705	45361.75	-4.101372E-10	-2.438209E+9	14.902732	0.171766	0	0
0	0	0	-0.103022	6.384698	-25.01	6.384698	45369.25	-4.834558E-10	-2.068441E+9	14.84504	0.171211	0	0
0	0	0	-0.104002	6.384614	-25.010999	6.384614	45351.25	4.22856E-10	2.364871E+9	14.775784	0.17051	0	0
0	0	0	-0.103063	6.384712	-25.01011	6.384712	45368.5	-3.562247E-10	-2.807217E+9	14.826522	0.169651	0	0
0	0	0	-0.102859	6.384768	-25.010053	6.384768	45372.25	-1.735597E-10	-5.761705E+9	14.668081	0.169215	0	0
0	0	0	-0.102859	6.384586	-25.009339	6.384586	45372.25	2.603396E-10	3.841137E+9	14.746735	0.167945	0	0
0	0	0	-0.102736	6.384726	-25.009722	6.384726	45374.5	-2.820485E-10	-3.545489E+9	14.601271	0.16784	0	0
0	0	0	-0.103104	6.384621	-25.009809	6.384621	45367.75	5.01345E-10	1.994634E+9	14.644911	0.166676	0	0
0	0	0	-0.102328	6.384536	-25.008428	6.384536	45382	1.556387E-10	6.425137E+9	14.638505	0.166187	0	0
0	0	0	-0.102164	6.384691	-25.00881	6.384691	45385.125	-5.887609E-10	-1.698482E+9	14.557805	0.165499	0	0
0	0	0	-0.102695	6.384635	-25.00931	6.384635	45375.25	7.963855E-10	1.255673E+9	14.612375	0.164666	0	0
0	0	0	-0.102328	6.384733	-25.009196	6.384733	45382	-2.554824E-10	-3.914164E+9	14.499291	0.164323	0	0
0	0	0	-0.102491	6.384663	-25.009143	6.384663	45379	-4.513224E-9	-2.215711E+8	14.592559	0.16308	0	0
0	0	0	-0.102328	6.384761	-25.009306	6.384761	45382	-1.854872E-10	-5.391207E+9	14.467061	0.162934	0	0
0	0	0	-0.102614	6.384719	-25.009529	6.384719	45376.75	-3.148605E-10	-3.17601E+9	14.499071	0.161969	0	0
0	0	0	-0.102899	6.38474	-25.009998	6.38474	45371.5	-2.334041E-10	-4.284416E+9	14.429302	0.161599	0	0
0	0	0	-0.103144	6.384684	-25.010111	6.384684	45367	-7.520051E-10	-1.329778E+9	14.394942	0.160713	0	0
0	0	0	-0.103104	6.384783	-25.01044	6.384783	45367.75	-1.538218E-10	-6.50103E+9	14.395716	0.159973	0	0
0	0	0	-0.104125	6.384649	-25.011302	6.384649	45349	1.93296E-9	5.173412E+8	14.27962	0.15947	0	0
0	0	0	-0.10392	6.384579	-25.010751	6.384579	45352.75	2.374007E-10	4.212287E+9	14.344752	0.158492	0	0
0	0	0	-0.104002	6.384579	-25.010861	6.384579	45351.25	2.373929E-10	4.212427E+9	14.227373	0.158148	0	0
0	0	0	-0.104451	6.384726	-25.012047	6.384726	45343	-2.818527E-10	-3.547952E+9	14.280287	0.157156	0	0
0	0	0	-0.104125	6.384804	-25.011906	6.384804	45349	-1.313662E-10	-7.612306E+9	14.179673	0.156866	0	0
0	0	0	-0.105105	6.384733	-25.01296	6.384733	45331	-2.551953E-10	-3.918567E+9	14.189439	0.155993	0	0
0	0	0	-0.105023	6.384691	-25.012684	6.384691	45332.5	-5.880782E-10	-1.700454E+9	14.160279	0.155491	0	0
0	0	0	-0.105513	6.384747	-25.013568	6.384747	45323.5	-2.146526E-10	-4.658691E+9	14.114524	0.154763	0	0
0	0	0	-0.10588	6.384705	-25.013901	6.384705	45316.75	-4.097303E-10	-2.44063E+9	14.148974	0.15401	0	0
0	0	0	-0.105105	6.384557	-25.012274	6.384557	45331	1.878521E-10	5.323337E+9	14.017883	0.153679	0	0
0	0	0	-0.105554	6.384768	-25.013706	6.384768	45322.75	-1.733704E-10	-5.767998E+9	14.110387	0.152714	0	0
0	0	0	-0.105268	6.384677	-25.012961	6.384677	45328	-1.040343E-9	-9.612217E+8	13.973983	0.152516	0	0
0	0	0	-0.105105	6.384614	-25.012493	6.384614	45331	4.226672E-10	2.365927E+9	14.045161	0.15155	0	0
0	0	0	-0.106738	6.384663	-25.014899	6.384663	45301	-4.505467E-9	-2.219526E+8	13.940292	0.151154	0	0
0	0	0	-0.107881	6.384607	-25.016229	6.384607	45280	3.651388E-10	2.738685E+9	13.993667	0.150162	0	0
0	0	0	-0.1078	6.384536	-25.015844	6.384536	45281.5	1.55294E-10	6.439397E+9	13.898107	0.149845	0	0
0	0	0	-0.107636	6.38455	-25.015678	6.38455	45284.5	1.754737E-10	5.698859E+9	13.891796	0.148919	0	0
0	0	0	-0.107146	6.384621	-25.015288	6.384621	45293.5	5.005245E-10	1.997904E+9	13.859529	0.148576	0	0
0	0	0	-0.107269	6.384804	-25.016167	6.384804	45291.25	-1.311989E-10	-7.622013E+9	13.758244	0.147967	0	0
0	0	0	-0.108453	6.38479	-25.017718	6.38479	45269.5	-1.452366E-10	-6.885318E+9	13.823467	0.147187	0	0
0	0	0	-0.105717	6.384818	-25.014119	6.384818	45319.75	-1.196637E-10	-8.356755E+9	13.675604	0.14691	0	0
0	0	0	-0.106656	6.384691	-25.014898	6.384691	45302.5	-5.87689E-10	-1.70158E+9	13.755937	0.146011	0	0
0	0	0	-0.105635	6.384635	-25.013295	6.384635	45321.25	7.954378E-10	1.257169E+9	13.618681	0.145588	0	0
0	0	0	-0.105962	6.384783	-25.014314	6.384783	45315.25	-1.536438E-10	-6.508562E+9	13.705773	0.144688	0	0
0	0	0	-0.105962	6.384754	-25.014204	6.384754	45315.25	-1.988331E-10	-5.029343E+9	13.548566	0.144583	0	0
0	0	0	-0.105799	6.384431	-25.01272	6.384431	45318.25	8.346634E-11	1.198088E+10	13.65263	0.143446	0	0
0	0	0	-0.104329	6.384621	-25.011469	6.384621	45345.25	5.010964E-10	1.995624E+9	13.522969	0.14334	0	0
0	0	0	-0.104165	6.384656	-25.011385	6.384656	45348.25	6.765249E-9	1.478142E+8	13.572877	0.142348	0	0
0	0	0	-0.104778	6.384754	-25.012599	6.384754	45337	-1.989285E-10	-5.026931E+9	13.493741	0.142057	0	0
0	0	0	-0.104615	6.384656	-25.011994	6.384656	45340	6.764018E-9	1.478411E+8	13.496497	0.141145	0	0
0	0	0	-0.103634	6.384593	-25.010418	6.384593	45358	2.879448E-10	3.472887E+9	13.469265	0.140801	0	0
0	0	0	-0.103839	6.384804	-25.011518	6.384804	45354.25	-1.313814E-10	-7.611425E+9	13.419016	0.140034	0	0
0	0	0	-0.103553	6.384726	-25.010829	6.384726	45359.5	-2.819553E-10	-3.546661E+9	13.442044	0.139479	0	0
0	0	0	-0.103267	6.38493	-25.011237	6.38493	45364.75	-7.013172E-11	-1.425888E+10	13.343769	0.13895	0	0
0	0	0	-0.103716	6.384705	-25.010968	6.384705	45356.5	-4.100897E-10	-2.438491E+9	13.397789	0.13825	0	0
0	0	0	-0.103144	6.384761	-25.010413	6.384761	45367	-1.854259E-10	-5.392989E+9	13.26638	0.137932	0	0
0	0	0	-0.103144	6.384747	-25.010358	6.384747	45367	-2.148586E-10	-4.654224E+9	13.328744	0.137284	0	0
0	0	0	-0.102654	6.38479	-25.009858	6.38479	45376	-1.455783E-10	-6.869158E+9	13.214235	0.136808	0	0
0	0	0	-0.102818	6.384797	-25.010107	6.384797	45373	-1.381417E-10	-7.238946E+9	13.28578	0.136002	0	0
0	0	0	-0.102532	6.384754	-25.009555	6.384754	45378.25	-1.991095E-10	-5.022361E+9	13.152269	0.13579	0	0
0	0	0	-0.102328	6.384543	-25.008455	6.384543	45382	1.651289E-10	6.055876E+9	13.22135	0.134772	0	0
0	0	0	-0.103267	6.384614	-25.010002	6.384614	45364.75	4.229819E-10	2.364167E+9	13.066597	0.134772	0	0
0	0	0	-0.103349	6.384656	-25.010278	6.384656	45363.25	6.767487E-9	1.477653E+8	13.148799	0.133582	0	0
0	0	0	-0.103267	6.384494	-25.009536	6.384494	45364.75	1.156874E-10	8.643987E+9	13.027938	0.133503	0	0
0	0	0	-0.103798	6.384628	-25.010777	6.384628	45355	6.151142E-10	1.625714E+9	13.067108	0.132604	0	0
0	0	0	-0.104492	6.38474	-25.012157	6.38474	45342.25	-2.332536E-10	-4.28718E+9	12.960873	0.132353	0	0
0	0	0	-0.104002	6.38467	-25.011218	6.38467	45351.25	-1.691424E-9	-5.912178E+8	13.028769	0.131493	0	0
0	0	0	-0.104696	6.384543	-25.011665	6.384543	45338.5	1.649706E-10	6.061686E+9	12.891747	0.131255	0	0
0	0	0	-0.104125	6.384747	-25.011686	6.384747	45349	-2.147734E-10	-4.656071E+9	12.946011	0.130396	0	0
0	0	0	-0.104982	6.384761	-25.012903	6.384761	45333.25	-1.85288E-10	-5.397004E+9	12.882024	0.130171	0	0
0	0	0	-0.104165	6.384691	-25.011522	6.384691	45348.25	-5.882825E-10	-1.699864E+9	12.869803	0.129193	0	0
0	0	0	-0.105758	6.384691	-25.01368	6.384691	45319	-5.879031E-10	-1.700961E+9	12.79497	0.129047	0	0
0	0	0	-0.105758	6.384684	-25.013653	6.384684	45319	-7.512095E-10	-1.331187E+9	12.787125	0.128347	0	0
0	0	0	-0.10633	6.384677	-25.0144	6.384677	45308.5	-1.039895E-9	-9.616353E+8	12.740513	0.128069	0	0
0	0	0	-0.105268	6.384747	-25.013236	6.384747	45328	-2.146739E-10	-4.658228E+9	12.709204	0.12713	0	0
0	0	0	-0.1049	6.384733	-25.012683	6.384733	45334.75	-2.552164E-10	-3.918243E+9	12.658911	0.126813	0	0
0	0	0	-0.10584	6.384684	-25.013764	6.384684	45317.5	-7.511846E-10	-1.331231E+9	12.627534	0.126205	0	0
0	0	0	-0.106289	6.384607	-25.014071	6.384607	45309.25	3.653746E-10	2.736917E+9	12.609155	0.125782	0	0
0	0	0	-0.106493	6.384642	-25.014485	6.384642	45305.5	1.126479E-9	8.877222E+8	12.616057	0.124975	0	0
0	0	0	-0.107024	6.384579	-25.014957	6.384579	45295.75	2.371023E-10	4.217588E+9	12.534027	0.124803	0	0
0	0	0	-0.108412	6.384614	-25.016976	6.384614	45270.25	4.221008E-10	2.369102E+9	12.54593	0.124063	0	0
0	0	0	-0.109147	6.384579	-25.017835	6.384579	45256.75	2.368982E-10	4.221222E+9	12.498852	0.123666	0	0
0	0	0	-0.107759	6.384663	-25.016283	6.384663	45282.25	-4.503602E-9	-2.220445E+8	12.476449	0.123058	0	0
0	0	0	-0.107963	6.38467	-25.016587	6.38467	45278.5	-1.688711E-9	-5.921677E+8	12.426198	0.122767	0	0
0	0	0	-0.10731	6.384712	-25.015866	6.384712	45290.5	-3.556123E-10	-2.812051E+9	0	0	0	0
0	0	0	-0.108086	6.384663	-25.016725	6.384663	45276.25	-4.503005E-9	-2.220739E+8	0	0	0	0
0	0	0	-0.108004	6.384642	-25.016532	6.384642	45277.75	1.125789E-9	8.882662E+8	0	0	0	0
0	0	0	-0.108249	6.3846	-25.0167	6.3846	45273.25	3.216219E-10	3.109241E+9	0	0	0	0
0	0	0	-0.107024	6.384747	-25.015616	6.384747	45295.75	-2.145212E-10	-4.661545E+9	0	0	0	0
0	0	0	-0.105717	6.384726	-25.013762	6.384726	45319.75	-2.817082E-10	-3.549772E+9	0	0	0	0
0	0	0	-0.105145	6.384628	-25.012603	6.384628	45330.25	6.147785E-10	1.626602E+9	0	0	0	0
0	0	0	-0.105472	6.384649	-25.013128	6.384649	45324.25	1.931905E-9	5.176237E+8	0	0	0	0
0	0	0	-0.104982	6.384684	-25.012601	6.384684	45333.25	-7.514457E-10	-1.330768E+9	0	0	0	0
0	0	0	-0.106248	6.384712	-25.014427	6.384712	45310	-3.557654E-10	-2.810841E+9	0	0	0	0
0	0	0	-0.10535	6.384684	-25.0131	6.384684	45326.5	-7.513338E-10	-1.330966E+9	0	0	0	0
0	0	0	-0.104819	6.384579	-25.011968	6.384579	45336.25	2.373143E-10	4.21382E+9	0	0	0	0
0	0	0	-0.104737	6.384698	-25.012324	6.384698	45337.75	-4.831202E-10	-2.069878E+9	0	0	0	0
0	0	0	-0.104288	6.384656	-25.011551	6.384656	45346	6.764913E-9	1.478216E+8	0	0	0	0
0	0	0	-0.104574	6.384691	-25.012075	6.384691	45340.75	-5.881852E-10	-1.700145E+9	0	0	0	0
0	0	0	-0.103798	6.384649	-25.010859	6.384649	45355	1.933216E-9	5.172728E+8	0	0	0	0
0	0	0	-0.103839	6.384726	-25.011216	6.384726	45354.25	-2.819227E-10	-3.547072E+9	0	0	0	0
0	0	0	-0.103961	6.384656	-25.011108	6.384656	45352	6.765808E-9	1.47802E+8	0	0	0	0
0	0	0	-0.103675	6.384656	-25.010721	6.384656	45357.25	6.766592E-9	1.477849E+8	0	0	0	0
0	0	0	-0.102818	6.384783	-25.010052	6.384783	45373	-1.538396E-10	-6.500278E+9	0	0	0	0
0	0	0	-0.102899	0	-0.102899	0	45371.5	0	0	0	0	0	0
0	0	0	-0.102409	0	-0.102409	0	45380.5	0	0	0	0	0	0
