Vload_(V)	ILoad_(A)	RsLoad (ohm)	SunsVoc_Voltage_(V)	SunsVoc_Current_(A)	Model_Voltage_(V)	Model_Current_(A)	Carrier_Density_(cm-3)	Lifetime_(s)	Inverse_Lifetime_(s-1)	Efficiency_(%)	Intensity_(suns)	Dark_IV_Voltage_(V)	Dark_IV_Current_(A)
3.311712	6.384816	0	64.832315	-1.119629	65.142814	-1.119629	3.67487E+15	0.000206	4842.233538	19.654636	1.186481	0	0
3.33127	6.383041	3.126245	65.286132	-1.256562	65.601581	-1.256562	4.091648E+15	0.000225	4421.067517	19.524006	1.184855	0	0
5.163042	6.374461	5.969202	65.206378	-0.961807	65.452274	-0.961807	4.01552E+15	0.000229	4331.572586	19.480787	1.183982	0	0
8.216399	6.35985	6.481858	65.07713	-0.576895	65.228938	-0.576895	3.894802E+15	0.000235	4232.819116	19.527255	1.184683	0	0
11.366614	6.352764	6.146592	64.922401	-0.15523	64.96464	-0.15523	3.754496E+15	0.000241	4126.181878	19.563162	1.185119	0	0
14.039023	6.347211	5.817226	64.755052	0.263793	64.680716	0.263793	3.607762E+15	0.000247	4020.066766	19.548539	1.182898	0	0
16.78491	6.345594	5.407101	64.585662	0.662688	64.392417	0.662688	3.464377E+15	0.000254	3914.739414	19.51462	1.180267	0	0
19.620266	6.342081	5.007877	64.415945	1.039018	64.102747	1.039018	3.325731E+15	0.000261	3810.773556	19.516329	1.177676	0	0
22.500979	6.338859	4.594812	64.24435	1.38572	63.812873	1.38572	3.190486E+15	0.000268	3715.687557	19.515826	1.174106	0	0
25.489895	6.334188	4.174108	64.075858	1.702171	63.529237	1.702171	3.062359E+15	0.000275	3627.022545	19.471739	1.171647	0	0
29.028182	6.22987	4.188814	63.91341	1.998312	63.252889	1.998312	2.943068E+15	0.000282	3536.153106	19.471531	1.169915	0	0
31.9789	6.22754	3.723294	63.747164	2.274245	62.97354	2.274245	2.825162E+15	0.000289	3452.793642	19.525969	1.167654	0	0
34.900371	6.229711	3.246774	63.586105	2.530128	62.701838	2.530128	2.714833E+15	0.000296	3370.136408	19.53874	1.164401	0	0
37.803426	6.223499	2.800895	63.423902	2.765994	62.431218	2.765994	2.607478E+15	0.000302	3294.856792	19.491076	1.160448	0	0
40.225157	6.304731	2.071166	63.266069	2.984059	62.167848	2.984059	2.506525E+15	0.000309	3221.625934	19.479347	1.15619	0	0
43.071938	6.28375	1.729821	63.10946	3.186958	61.907662	3.186958	2.409671E+15	0.000316	3151.739678	19.502553	1.152436	0	0
45.936341	6.259387	1.375026	62.953383	3.376756	61.64949	3.376756	2.316335E+15	0.000323	3084.665759	19.501984	1.148919	0	0
46.88869	6.261594	1.214816	62.800695	3.550976	61.398129	3.550976	2.228015E+15	0.00033	3021.687505	19.483228	1.144793	0	0
47.799151	6.253388	1.099098	62.649109	3.715412	61.148978	3.715412	2.143173E+15	0.000337	2959.474684	19.49499	1.140219	0	0
48.739199	6.242559	0.985565	62.498137	3.871255	60.901235	3.871255	2.061405E+15	0.000344	2897.645632	19.515871	1.135591	0	0
49.667601	6.220162	0.904268	62.346143	4.015401	60.654435	4.015401	1.981758E+15	0.000351	2841.647991	19.501013	1.130911	0	0
50.605058	6.1876	0.836459	62.198682	4.149977	60.414836	4.149977	1.906979E+15	0.000358	2785.706796	19.470427	1.1259	0	0
51.531589	6.138187	0.790314	62.049302	4.274841	60.174802	4.274841	1.833658E+15	0.000365	2735.576948	19.480846	1.120505	0	0
52.474444	6.076463	0.742255	61.904209	4.389701	59.942459	4.389701	1.76472E+15	0.000371	2688.021927	19.510643	1.115296	0	0
53.40135	5.999194	0.697126	61.760056	4.498314	59.712213	4.498314	1.698391E+15	0.000378	2641.241467	19.497582	1.110549	0	0
54.324391	5.897208	0.657674	61.615127	4.600446	59.482176	4.600446	1.633819E+15	0.000384	2597.263296	19.471846	1.105591	0	0
55.236522	5.768001	0.621777	61.471505	4.696065	59.255161	4.696065	1.571863E+15	0.000391	2555.228148	19.493765	1.100726	0	0
56.143015	5.602422	0.589335	61.330537	4.785365	59.03298	4.785365	1.512969E+15	0.000397	2514.550286	19.517229	1.095873	0	0
57.043729	5.390945	0.561128	61.191692	4.869624	58.814525	4.869624	1.456769E+15	0.000404	2474.196643	19.497409	1.091233	0	0
57.938533	5.125117	0.537315	61.044803	4.948105	58.587232	4.948105	1.399214E+15	0.000409	2442.772642	19.477014	1.085957	0	0
58.819969	4.796186	0.515962	60.908532	5.02163	58.374813	5.02163	1.347521E+15	0.000415	2406.863068	19.500654	1.080523	0	0
59.673072	4.408103	0.495896	60.772668	5.091033	58.163874	5.091033	1.297571E+15	0.000421	2372.435313	19.513733	1.075525	0	0
60.521366	3.937678	0.477742	60.637458	5.157447	57.954247	5.157447	1.249395E+15	0.000427	2337.595239	19.486586	1.070779	0	0
61.336977	3.401775	0.461679	60.492284	5.220813	57.732212	5.220813	1.19933E+15	0.000433	2309.627262	19.489593	1.065398	0	0
62.120457	2.800272	0.447511	60.357605	5.280403	57.524844	5.280403	1.154382E+15	0.000439	2276.855034	19.514706	1.059897	0	0
62.855971	2.159944	0.438121	60.221864	5.335538	57.317582	5.335538	1.110501E+15	0.000444	2248.803136	19.515383	1.055058	0	0
63.530968	1.497569	0.450175	60.093964	5.385969	57.122336	5.385969	1.070428E+15	0.00045	2220.979928	19.486573	1.050325	0	0
64.122075	0.870429	0.450931	59.96439	5.433973	56.9255	5.433973	1.03106E+15	0.000455	2195.084191	19.492059	1.04501	0	0
53.248343	6.013268	0.704557	59.838817	5.478531	56.735168	5.478531	9.940599E+14	0.00046	2170.198251	19.529138	1.039681	0	0
64.889541	0	0	59.708998	5.522808	56.538743	5.522808	9.569723E+14	0.000466	2144.269128	19.53004	1.034631	0	0
0	0	0	59.585059	5.563652	56.351424	5.563652	9.226427E+14	0.000472	2118.761134	19.502926	1.029435	0	0
0	0	0	59.461487	5.60225	56.165327	5.60225	8.894385E+14	0.000477	2094.632982	19.501432	1.023908	0	0
0	0	0	59.328074	5.639361	55.966507	5.639361	8.5471E+14	0.000481	2076.462137	19.532595	1.018209	0	0
0	0	0	59.206381	5.673389	55.784547	5.673389	8.240225E+14	0.000486	2055.552594	19.52758	1.012908	0	0
0	0	0	59.083422	5.706069	55.601245	5.706069	7.939524E+14	0.000491	2035.474627	19.495422	1.007764	0	0
0	0	0	58.960463	5.736954	55.418586	5.736954	7.648018E+14	0.000496	2016.972464	19.510455	1.002092	0	0
0	0	0	58.837626	5.766577	55.236439	5.766577	7.365771E+14	0.0005	1998.562875	19.545739	0.9965	0	0
0	0	0	58.719159	5.793966	55.061116	5.793966	7.101857E+14	0.000505	1981.056534	19.526369	0.991383	0	0
0	0	0	58.597262	5.820692	54.881255	5.820692	6.838603E+14	0.000509	1964.31278	19.49302	0.986187	0	0
0	0	0	58.475855	5.845834	54.702695	5.845834	6.584582E+14	0.000513	1949.2219	19.521445	0.980435	0	0
0	0	0	58.360941	5.869559	54.533405	5.869559	6.351488E+14	0.000517	1931.850056	19.553591	0.974935	0	0
0	0	0	58.238799	5.89213	54.354866	5.89213	6.111376E+14	0.000521	1919.846095	19.525621	0.969686	0	0
0	0	0	58.12417	5.913207	54.18709	5.913207	5.893035E+14	0.000525	1905.843237	19.494478	0.96453	0	0
0	0	0	58.00652	5.933701	54.015365	5.933701	5.675821E+14	0.000528	1892.829306	19.529768	0.958739	0	0
0	0	0	57.891157	5.952472	53.847607	5.952472	5.469443E+14	0.000531	1882.550712	19.561342	0.953066	0	0
0	0	0	57.779469	5.971124	53.684627	5.971124	5.275734E+14	0.000535	1867.507546	19.520002	0.947897	0	0
0	0	0	57.662594	5.98851	53.515296	5.98851	5.079301E+14	0.000538	1858.238339	19.495431	0.942278	0	0
0	0	0	57.54911	6.004802	53.351063	6.004802	4.894557E+14	0.000541	1849.133579	19.541338	0.936791	0	0
0	0	0	57.434318	6.021023	53.184904	6.021023	4.713551E+14	0.000544	1838.208335	19.552353	0.931766	0	0
0	0	0	57.323651	6.036113	53.024901	6.036113	4.544501E+14	0.000547	1827.526897	19.518082	0.926676	0	0
0	0	0	57.207021	6.050371	52.857251	6.050371	4.371996E+14	0.000549	1821.985082	19.507682	0.921255	0	0
0	0	0	57.098968	6.063827	52.701578	6.063827	4.217231E+14	0.000552	1812.874794	19.558029	0.915596	0	0
0	0	0	56.981685	6.077228	52.5333	6.077228	4.054614E+14	0.000553	1806.880546	19.555629	0.910466	0	0
0	0	0	56.87306	6.089783	52.377175	6.089783	3.908865E+14	0.000556	1797.768908	19.51322	0.90535	0	0
0	0	0	56.759003	6.101698	52.214018	6.101698	3.760736E+14	0.000558	1793.137737	19.517281	0.900008	0	0
0	0	0	56.650215	6.113455	52.057956	6.113455	3.624019E+14	0.000561	1783.526364	19.555698	0.894614	0	0
0	0	0	56.539792	6.124006	51.900445	6.124006	3.489699E+14	0.000562	1780.172813	19.54596	0.889722	0	0
0	0	0	56.433168	6.134071	51.748319	6.134071	3.364148E+14	0.000563	1775.360876	19.522306	0.884539	0	0
0	0	0	56.321888	6.14398	51.589876	6.14398	3.237353E+14	0.000564	1772.003064	19.539342	0.879171	0	0
0	0	0	56.219634	6.153767	51.443642	6.153767	3.124563E+14	0.000568	1761.370586	19.561269	0.874041	0	0
0	0	0	56.106312	6.162226	51.283313	6.162226	3.003623E+14	0.000566	1765.215847	19.529697	0.869532	0	0
0	0	0	56.004384	6.171139	51.137982	6.171139	2.898396E+14	0.000569	1756.070026	19.517317	0.86468	0	0
0	0	0	55.894615	6.179873	50.98204	6.179873	2.788739E+14	0.000571	1750.527718	19.55789	0.859484	0	0
0	0	0	55.790359	6.186921	50.834826	6.186921	2.688017E+14	0.00057	1753.672382	19.565575	0.854856	0	0
0	0	0	55.686144	6.195062	50.686701	6.195062	2.590587E+14	0.000573	1744.779368	19.524902	0.850387	0	0
0	0	0	55.580827	6.201857	50.538073	6.201857	2.495343E+14	0.000573	1746.520434	19.52776	0.845548	0	0
0	0	0	55.481349	6.208994	50.397022	6.208994	2.408273E+14	0.000575	1739.076436	19.564935	0.840669	0	0
0	0	0	55.375868	6.21472	50.248889	6.21472	2.318938E+14	0.000572	1747.268249	19.55168	0.83624	0	0
0	0	0	55.273205	6.221831	50.103366	6.221831	2.234866E+14	0.000576	1737.200641	19.51354	0.831758	0	0
0	0	0	55.169521	6.227222	49.95781	6.227222	2.15276E+14	0.000573	1743.812077	19.522099	0.82717	0	0
0	0	0	55.067021	6.234183	49.812478	6.234183	2.074285E+14	0.000578	1729.851672	19.555799	0.822622	0	0
0	0	0	54.965256	6.238482	49.670324	6.238482	1.998949E+14	0.000573	1743.820467	19.531994	0.818378	0	0
0	0	0	54.861082	6.244146	49.523671	6.244146	1.924417E+14	0.000574	1741.25516	19.506482	0.813988	0	0
0	0	0	54.761972	6.249619	49.384012	6.249619	1.855868E+14	0.000576	1735.332374	19.544628	0.809281	0	0
0	0	0	54.6589	6.253715	49.240086	6.253715	1.786955E+14	0.000572	1747.653652	19.562829	0.804852	0	0
0	0	0	54.556196	6.259482	49.095154	6.259482	1.720627E+14	0.000576	1735.190706	19.510456	0.800766	0	0
0	0	0	54.456065	6.263611	48.955098	6.263611	1.658145E+14	0.000574	1741.260737	19.492774	0.796284	0	0
0	0	0	54.351646	6.267176	48.809649	6.267176	1.595219E+14	0.000569	1756.706429	19.539153	0.791617	0	0
0	0	0	54.253107	6.272205	48.670869	6.272205	1.537865E+14	0.000573	1744.322269	19.544224	0.787532	0	0
0	0	0	54.153874	6.276381	48.531851	6.276381	1.482041E+14	0.000574	1742.917732	19.49095	0.783459	0	0
0	0	0	54.046964	6.27946	48.383303	6.27946	1.424003E+14	0.000567	1762.444139	19.503127	0.778911	0	0
0	0	0	53.951651	6.283402	48.249752	6.283402	1.37405E+14	0.000569	1758.181608	19.544005	0.774336	0	0
0	0	0	53.850131	6.287933	48.107152	6.287933	1.322642E+14	0.000573	1744.910287	19.522739	0.770396	0	0
0	0	0	53.746202	6.290815	47.962727	6.290815	1.271877E+14	0.000568	1760.579402	19.483481	0.766099	0	0
0	0	0	53.65093	6.292979	47.830745	6.292979	1.226947E+14	0.000561	1783.03897	19.510122	0.761511	0	0
0	0	0	53.545205	6.296764	47.682964	6.296764	1.17883E+14	0.000562	1779.340953	19.531617	0.757228	0	0
0	0	0	53.44393	6.300728	47.541044	6.300728	1.134406E+14	0.000566	1765.78073	19.492629	0.75338	0	0
0	0	0	53.34972	6.303546	47.409802	6.303546	1.094498E+14	0.000565	1768.829647	19.476888	0.749229	0	0
0	0	0	53.244974	6.305561	47.264907	6.305561	1.051683E+14	0.000557	1795.199118	19.507801	0.744998	0	0
0	0	0	53.146027	6.30791	47.127586	6.30791	1.012695E+14	0.000553	1809.070304	19.504614	0.740912	0	0
0	0	0	53.050143	6.310928	46.993778	6.310928	9.762217E+13	0.000555	1803.001677	19.455005	0.737157	0	0
0	0	0	52.947969	6.31444	46.850872	6.31444	9.387279E+13	0.00056	1785.912761	19.475311	0.732754	0	0
0	0	0	52.850084	6.316766	46.714932	6.316766	9.040929E+13	0.000558	1793.044917	19.515022	0.728537	0	0
0	0	0	52.754322	6.318159	46.582777	6.318159	8.713878E+13	0.000549	1822.258286	19.470808	0.724914	0	0
0	0	0	52.650842	6.319724	46.439895	6.319724	8.373145E+13	0.00054	1851.869411	19.447086	0.720776	0	0
0	0	0	52.552059	6.321842	46.302864	6.321842	8.059763E+13	0.000537	1861.279074	19.483542	0.716584	0	0
0	0	0	52.454704	6.324708	46.167017	6.324708	7.761901E+13	0.000542	1844.757703	19.498798	0.712763	0	0
0	0	0	52.350775	6.326958	46.022771	6.326958	7.455558E+13	0.000541	1848.674545	19.440428	0.709061	0	0
0	0	0	52.250562	6.329116	45.883667	6.329116	7.171166E+13	0.00054	1850.283634	19.429686	0.705068	0	0
0	0	0	52.149206	6.330723	45.743534	6.330723	6.894135E+13	0.000535	1869.107538	19.48143	0.70089	0	0
0	0	0	52.046461	6.331888	45.601934	6.331888	6.623822E+13	0.000525	1903.503699	19.470801	0.69732	0	0
0	0	0	51.946534	6.333016	45.464209	6.333016	6.370725E+13	0.000516	1936.945903	19.419628	0.693698	0	0
0	0	0	51.842441	6.334985	45.319912	6.334985	6.116999E+13	0.000515	1940.586932	19.432006	0.689771	0	0
0	0	0	51.738349	6.337046	45.175496	6.337046	5.873039E+13	0.000516	1937.612075	19.458261	0.685923	0	0
0	0	0	51.624047	6.339107	45.017098	6.339107	5.615983E+13	0.000516	1938.8939	19.422689	0.682552	0	0
0	0	0	51.520445	6.341131	44.87334	6.341131	5.392421E+13	0.000518	1929.859593	19.406525	0.67881	0	0
0	0	0	51.411084	6.34247	44.722407	6.34247	5.165793E+13	0.000512	1952.776999	19.440082	0.675095	0	0
0	0	0	51.310341	6.343683	44.583372	6.343683	4.965215E+13	0.000507	1973.470832	19.428756	0.671631	0	0
0	0	0	51.203757	6.344676	44.436572	6.344676	4.761247E+13	0.000498	2008.29633	19.38316	0.668352	0	0
0	0	0	51.085862	6.345668	44.274294	6.345668	4.545117E+13	0.000487	2051.839023	19.402236	0.664531	0	0
0	0	0	50.980544	6.346509	44.129364	6.346509	4.360143E+13	0.000478	2092.92677	19.435348	0.660776	0	0
0	0	0	50.870898	6.347462	43.978383	6.347462	4.175363E+13	0.000469	2131.148453	19.39058	0.657589	0	0
0	0	0	50.763416	6.348533	43.830222	6.348533	4.001653E+13	0.000463	2159.958817	19.362132	0.654033	0	0
0	0	0	50.653117	6.349982	43.677777	6.349982	3.830729E+13	0.000462	2166.179361	19.393062	0.650185	0	0
0	0	0	50.537304	6.351395	43.517813	6.351395	3.658942E+13	0.00046	2175.880488	19.410617	0.646774	0	0
0	0	0	50.42729	6.35317	43.36536	6.35317	3.502748E+13	0.000465	2152.22499	19.358586	0.643522	0	0
0	0	0	50.311559	6.354357	43.205721	6.354357	3.345483E+13	0.000461	2168.864288	19.359436	0.639767	0	0
0	0	0	50.194685	6.355528	43.04452	6.355528	3.193691E+13	0.000458	2184.611634	19.401637	0.636065	0	0
0	0	0	50.076626	6.35631	42.882123	6.35631	3.047224E+13	0.000449	2228.5152	19.375907	0.632957	0	0
0	0	0	49.95183	6.356965	42.710641	6.356965	2.899567E+13	0.000437	2288.193348	19.338844	0.629533	0	0
0	0	0	49.830382	6.357859	42.543457	6.357859	2.762629E+13	0.00043	2324.515952	19.363985	0.625897	0	0
0	0	0	49.702441	6.35852	42.367646	6.35852	2.625247E+13	0.000419	2386.171673	19.369885	0.622618	0	0
0	0	0	49.574622	6.359002	42.192199	6.359002	2.494716E+13	0.000406	2464.979249	19.321443	0.619617	0	0
0	0	0	49.44807	6.359507	42.018451	6.359507	2.37178E+13	0.000393	2542.011018	19.319695	0.616179	0	0
0	0	0	49.31188	6.360121	41.83138	6.360121	2.246147E+13	0.000382	2619.055213	19.358425	0.612517	0	0
0	0	0	49.174995	6.361025	41.643007	6.361025	2.126493E+13	0.000375	2665.223492	19.323664	0.609714	0	0
0	0	0	49.03219	6.36164	41.44686	6.36164	2.008366E+13	0.000364	2748.94426	19.282818	0.606461	0	0
0	0	0	48.889588	6.362708	41.250439	6.362708	1.89688E+13	0.00036	2776.394727	19.316364	0.602918	0	0
0	0	0	48.738942	6.363634	41.043164	6.363634	1.785746E+13	0.000354	2825.731789	19.339491	0.599771	0	0
0	0	0	48.585478	6.364597	40.831969	6.364597	1.679156E+13	0.000349	2868.443129	19.282806	0.596928	0	0
0	0	0	48.426134	6.365358	40.612958	6.365358	1.575143E+13	0.00034	2942.790286	19.278209	0.593531	0	0
0	0	0	48.262951	6.366122	40.388675	6.366122	1.475238E+13	0.000331	3018.719203	19.314133	0.590133	0	0
0	0	0	48.092377	6.367063	40.154039	6.367063	1.377516E+13	0.000326	3070.123343	19.28212	0.587462	0	0
0	0	0	47.91143	6.36775	39.905507	6.36775	1.280862E+13	0.000315	3174.044099	19.239423	0.584275	0	0
0	0	0	47.730605	6.368619	39.656897	6.368619	1.190997E+13	0.000309	3239.653414	19.265739	0.580811	0	0
0	0	0	47.532425	6.369112	39.384993	6.369112	1.099683E+13	0.000294	3401.877488	19.267649	0.578022	0	0
0	0	0	47.326976	6.369725	39.102973	6.369725	1.012357E+13	0.000282	3551.190521	19.227341	0.575219	0	0
0	0	0	47.114095	6.370155	38.811001	6.370155	9.291368E+12	0.000266	3758.946622	19.220501	0.572032	0	0
0	0	0	46.888351	6.37073	38.501219	6.37073	8.483095E+12	0.000253	3955.607081	19.263232	0.568727	0	0
0	0	0	46.648231	6.370843	38.172358	6.370843	7.700007E+12	0.000231	4322.881237	19.223569	0.566016	0	0
0	0	0	46.391982	6.371312	37.820933	6.371312	6.943532E+12	0.000216	4632.888219	19.179138	0.5632	0	0
0	0	0	46.12393	6.371753	37.453376	6.371753	6.231313E+12	0.0002	4994.046932	19.213085	0.559842	0	0
0	0	0	45.836727	6.371932	37.059946	6.371932	5.54879E+12	0.000181	5531.518035	19.220331	0.556959	0	0
0	0	0	45.528574	6.372298	36.637569	6.372298	4.899134E+12	0.000164	6086.946382	19.162344	0.554527	0	0
0	0	0	45.202126	6.372564	36.190273	6.372564	4.293454E+12	0.000147	6798.073442	19.158624	0.551314	0	0
0	0	0	44.863591	6.372796	35.726467	6.372796	3.744126E+12	0.000131	7647.499189	19.201381	0.548207	0	0
0	0	0	44.511784	6.373276	35.244121	6.373276	3.247452E+12	0.000118	8465.081282	19.162949	0.545734	0	0
0	0	0	44.150584	6.373565	34.749178	6.373565	2.805859E+12	0.000105	9551.985371	19.125171	0.542839	0	0
0	0	0	43.78089	6.374029	34.242333	6.374029	2.415901E+12	9.401361E-5	10636.757589	19.160517	0.539692	0	0
0	0	0	43.391554	6.374353	33.708786	6.374353	2.06359E+12	8.278751E-5	12079.116925	19.155631	0.536955	0	0
0	0	0	42.985149	6.374676	33.151853	6.374676	1.750456E+12	7.246748E-5	13799.293612	19.08485	0.534549	0	0
0	0	0	42.557549	6.375134	32.565677	6.375134	1.472101E+12	6.382215E-5	15668.54189	19.110606	0.531376	0	0
0	0	0	42.098668	6.375428	31.936907	6.375428	1.222386E+12	5.465948E-5	18295.089717	19.137948	0.528493	0	0
0	0	0	41.630721	6.375829	31.295536	6.375829	1.011281E+12	4.723545E-5	21170.541548	19.081777	0.526074	0	0
0	0	0	41.149626	6.375985	30.636542	6.375985	8.321683E+11	3.955665E-5	25280.202379	19.047346	0.52339	0	0
0	0	0	40.653339	6.376348	29.956391	6.376348	6.805626E+11	3.373594E-5	29641.978563	19.101465	0.520296	0	0
0	0	0	40.142922	6.377044	29.256303	6.377044	5.533888E+11	2.988898E-5	33457.142803	19.09754	0.517876	0	0
0	0	0	39.617396	6.377357	28.53615	6.377357	4.472252E+11	2.516794E-5	39733.089884	19.034883	0.515311	0	0
0	0	0	39.074474	6.377772	27.791975	6.377772	3.588841E+11	2.138702E-5	46757.335468	19.04515	0.512574	0	0
0	0	0	38.516523	6.378107	27.02734	6.378107	2.862409E+11	1.790871E-5	55838.765644	19.058414	0.509877	0	0
0	0	0	37.941544	6.378234	26.239744	6.378234	2.26729E+11	1.446028E-5	69154.939647	19.001554	0.507643	0	0
0	0	0	37.355784	6.378929	25.436317	6.378929	1.788055E+11	1.274927E-5	78435.889101	19.011587	0.504774	0	0
0	0	0	36.758386	6.379171	24.617765	6.379171	1.403469E+11	1.04364E-5	95818.512189	19.05032	0.501944	0	0
0	0	0	36.143917	6.379433	23.775783	6.379433	1.094E+11	8.530383E-6	117228.02856	18.99985	0.499882	0	0
0	0	0	35.50605	6.379862	22.901407	6.379862	8.447142E+10	7.15691E-6	139725.110527	18.959074	0.497303	0	0
0	0	0	34.848418	6.379917	22.000684	6.379917	6.470246E+10	5.543477E-6	180392.19848	19.007261	0.494408	0	0
0	0	0	34.170612	6.380083	21.072101	6.380083	4.915622E+10	4.359809E-6	229367.850739	18.999707	0.492054	0	0
0	0	0	33.464302	6.380516	20.103911	6.380516	3.691614E+10	3.604061E-6	277464.744896	18.932785	0.489886	0	0
0	0	0	32.728876	6.380724	19.096291	6.380724	2.739849E+10	2.810364E-6	355825.811131	18.95026	0.486977	0	0
0	0	0	31.977034	6.380874	18.066296	6.380874	2.019974E+10	2.150933E-6	464914.470313	18.966249	0.484637	0	0
0	0	0	31.226743	6.381446	17.037476	6.381446	1.490176E+10	1.85592E-6	538816.244074	18.910506	0.482363	0	0
0	0	0	30.469102	6.38151	15.999688	6.38151	1.096061E+10	1.391798E-6	718495.180084	18.88867	0.479732	0	0
0	0	0	29.707214	6.38168	14.955834	6.38168	8.047927E+9	1.0773E-6	928246.378994	18.944001	0.476942	0	0
0	0	0	28.937975	6.381815	13.901982	6.381815	5.891673E+9	8.239885E-7	1213609.203066	18.904477	0.47484	0	0
0	0	0	28.161385	6.382047	12.837815	6.382047	4.300301E+9	6.519776E-7	1533795.045637	18.847009	0.472486	0	0
0	0	0	27.386634	6.382322	11.776041	6.382322	3.141105E+9	5.28699E-7	1891435.438966	18.895546	0.469644	0	0
0	0	0	26.60739	6.382442	10.708475	6.382442	2.290209E+9	4.049476E-7	2469455.376799	18.887611	0.467396	0	0
0	0	0	25.825941	6.382379	9.638342	6.382379	1.66832E+9	2.873513E-7	3480060.541278	18.821559	0.465281	0	0
0	0	0	25.04637	6.382689	8.569826	6.382689	1.216226E+9	2.399769E-7	4167068.323368	18.844057	0.462438	0	0
0	0	0	24.265248	6.383062	7.49899	6.383062	8.860864E+8	2.120017E-7	4716942.254804	18.863854	0.460045	0	0
0	0	0	23.469874	6.383104	6.409484	6.383104	6.418422E+8	1.573587E-7	6354906.521356	18.798701	0.458022	0	0
0	0	0	22.667067	6.383252	5.309506	6.383252	4.635236E+8	1.24377E-7	8040072.97253	18.780924	0.455576	0	0
0	0	0	21.87741	6.383224	4.228012	6.383224	3.365353E+8	8.87094E-8	1.127276E+7	18.834029	0.452786	0	0
0	0	0	21.090734	6.383217	3.150545	6.383217	2.446327E+8	6.4202E-8	1.557584E+7	18.772572	0.450962	0	0
0	0	0	20.309653	6.383519	2.079857	6.383519	1.78231E+8	5.76856E-8	1.733535E+7	18.727664	0.44878	0	0
0	0	0	19.53143	6.383625	1.013628	6.383625	1.300036E+8	4.580365E-8	2.183232E+7	18.77863	0.446149	0	0
0	0	0	18.753615	6.38392	-0.052611	6.38392	9.484173E+7	4.443475E-8	2.250491E+7	18.767748	0.444033	0	0
0	0	0	17.988746	6.383857	-1.100071	6.383857	6.955412E+7	3.04367E-8	3.285507E+7	18.700942	0.441944	0	0
0	0	0	17.235189	6.383836	-2.132161	6.383836	5.124341E+7	2.194142E-8	4.55759E+7	18.727248	0.439287	0	0
0	0	0	16.493065	6.383955	-3.14902	6.383955	3.792857E+7	1.849666E-8	5.406382E+7	18.7257	0.437132	0	0
0	0	0	15.772953	6.383822	-4.134951	6.383822	2.832505E+7	1.195674E-8	8.363487E+7	18.65656	0.435387	0	0
0	0	0	15.073422	6.383892	-5.093324	6.383892	2.133039E+7	9.68958E-9	1.032036E+8	18.672161	0.432822	0	0
0	0	0	14.385121	6.383998	-6.036434	6.383998	1.613631E+7	8.275045E-9	1.208453E+8	18.711811	0.430428	0	0
0	0	0	13.70899	6.383955	-6.962405	6.383955	1.226739E+7	5.982512E-9	1.671539E+8	18.640298	0.428696	0	0
0	0	0	13.059811	6.383913	-7.851456	6.383913	9428578.125	4.383164E-9	2.281457E+8	18.606301	0.426621	0	0
0	0	0	12.436032	6.384202	-8.706808	6.384202	7321709.875	5.001163E-9	1.999535E+8	18.662656	0.424294	0	0
0	0	0	11.828097	6.384202	-9.539512	6.384202	5722274.75	3.908657E-9	2.558424E+8	18.631468	0.422376	0	0
0	0	0	11.245237	6.384202	-10.337873	6.384202	4517933.375	3.086021E-9	3.240418E+8	18.579093	0.420393	0	0
0	0	0	10.684305	6.384244	-11.10634	6.384244	3598920	2.63957E-9	3.788496E+8	18.611702	0.417934	0	0
0	0	0	10.145344	6.384328	-11.844862	6.384328	2892497.625	2.48849E-9	4.018501E+8	18.590126	0.416043	0	0
0	0	0	9.624433	6.384399	-12.558617	6.384399	2341811.75	2.354128E-9	4.247857E+8	18.529712	0.414126	0	0
0	0	0	9.12688	6.384377	-13.240061	6.384377	1914008.625	1.831513E-9	5.459968E+8	18.568983	0.411799	0	0
0	0	0	8.649827	6.384279	-13.893151	6.384279	1577412.875	1.232684E-9	8.11238E+8	18.58164	0.409763	0	0
0	0	0	8.197357	6.384455	-14.513538	6.384455	1313032.625	1.525537E-9	6.555069E+8	18.491309	0.408084	0	0
0	0	0	7.760977	6.384476	-15.111342	6.384476	1100116.5	1.357453E-9	7.36674E+8	18.50523	0.405651	0	0
0	0	0	7.347793	6.384469	-15.677273	6.384469	930434.875	1.12482E-9	8.890309E+8	18.53098	0.40376	0	0
0	0	0	6.953883	6.384518	-16.217007	6.384518	793098.625	1.117233E-9	8.950688E+8	18.472351	0.402042	0	0
0	0	0	6.575124	6.384427	-16.735477	6.384427	680199	7.331829E-10	1.363916E+9	18.460833	0.399913	0	0
0	0	0	6.215966	6.384455	-17.227534	6.384455	588025.625	6.831934E-10	1.463714E+9	18.49587	0.397705	0	0
0	0	0	5.868977	6.38456	-17.703208	6.38456	510856.875	8.383933E-10	1.192758E+9	18.429857	0.396131	0	0
0	0	0	5.540529	6.384631	-18.153361	6.384631	447163.875	1.012264E-9	9.878848E+8	18.387935	0.394175	0	0
0	0	0	5.22625	6.384596	-18.583714	6.384596	393667.125	7.490754E-10	1.334979E+9	18.450334	0.391649	0	0
0	0	0	4.922018	6.384448	-18.999883	6.384448	347985	3.965823E-10	2.521544E+9	18.417645	0.390235	0	0
0	0	0	4.627545	6.384757	-19.404399	6.384757	308823.5	2.204329E-9	4.536529E+8	18.360399	0.388172	0	0
0	0	0	4.35688	6.384582	-19.774481	6.384582	276727.5	4.949927E-10	2.020232E+9	18.402944	0.385938	0	0
0	0	0	4.096384	6.384476	-20.130895	6.384476	248991.5	3.07235E-10	3.254837E+9	18.396595	0.384166	0	0
0	0	0	3.840297	6.384553	-20.481963	6.384553	224436.5	3.584752E-10	2.789593E+9	18.316917	0.382553	0	0
0	0	0	3.598667	6.384715	-20.813554	6.384715	203492.25	8.456017E-10	1.18259E+9	18.35442	0.380199	0	0
0	0	0	3.360753	6.384624	-21.139087	6.384624	184780.625	4.030072E-10	2.481345E+9	18.361592	0.378494	0	0
0	0	0	3.12582	6.384786	-21.46151	6.384786	167992.5	2.299194E-9	4.34935E+8	18.279216	0.376841	0	0
0	0	0	2.893134	6.384701	-21.779909	6.384701	152868.75	5.575809E-10	1.793462E+9	18.284564	0.374686	0	0
0	0	0	2.668247	6.38468	-22.087868	6.38468	139547.25	4.301188E-10	2.324939E+9	18.321278	0.372742	0	0
0	0	0	2.45169	6.384793	-22.384935	6.384793	127817.5	2.269987E-9	4.405311E+8	18.247943	0.371235	0	0
0	0	0	2.248406	6.384687	-22.662975	6.384687	117705.375	3.82557E-10	2.61399E+9	18.244831	0.369212	0	0
0	0	0	2.072155	6.384814	-22.904891	6.384814	109587.875	1.816486E-8	5.505135E+7	18.276691	0.367322	0	0
0	0	0	1.954464	6.384919	-23.066513	6.384919	104481.625	-4.258645E-10	-2.348165E+9	18.204505	0.365695	0	0
0	0	0	1.912198	6.384905	-23.124352	6.384905	102706.5	-4.848679E-10	-2.062418E+9	18.169554	0.363844	0	0
0	0	0	1.87275	6.384701	-23.177587	6.384701	101076.875	3.686727E-10	2.712433E+9	18.225328	0.361768	0	0
0	0	0	1.805614	6.384786	-23.269877	6.384786	98362.75	1.346222E-9	7.428196E+8	18.160873	0.360407	0	0
0	0	0	1.721369	6.384722	-23.385025	6.384722	95059.75	4.245831E-10	2.355251E+9	18.122996	0.358622	0	0
0	0	0	1.633407	6.384715	-23.505484	6.384715	91729.375	3.811768E-10	2.623454E+9	18.17443	0.35648	0	0
0	0	0	1.540381	6.384715	-23.632907	6.384715	88334.25	3.670686E-10	2.724287E+9	18.106391	0.355211	0	0
0	0	0	1.438003	6.384673	-23.772972	6.384673	84742.75	2.48369E-10	4.026268E+9	18.059804	0.35332	0	0
0	0	0	1.336974	6.384743	-23.911636	6.384743	81341.75	4.68518E-10	2.13439E+9	18.125802	0.351389	0	0
0	0	0	1.23868	6.384701	-24.046108	6.384701	78163.875	2.850987E-10	3.507557E+9	18.090204	0.349988	0	0
0	0	0	1.130218	6.384835	-24.195204	6.384835	74801.125	-1.69074E-9	-5.91457E+8	18.042498	0.348203	0	0
0	0	0	1.031884	6.384947	-24.330347	6.384947	71877.625	-2.30102E-10	-4.345899E+9	18.075328	0.346233	0	0
0	0	0	0.933304	6.384659	-24.464231	6.384659	69061.5	1.843048E-10	5.425794E+9	18.027786	0.344871	0	0
0	0	0	0.831335	6.384708	-24.604099	6.384708	66264.625	2.574323E-10	3.884516E+9	17.959968	0.343218	0	0
0	0	0	0.737983	6.384701	-24.731941	6.384701	63803.5	2.3272E-10	4.297009E+9	18.023272	0.341248	0	0
0	0	0	0.642793	6.384715	-24.862385	6.384715	61388	2.550948E-10	3.920112E+9	18.007138	0.339781	0	0
0	0	0	0.545479	6.384863	-24.996272	6.384863	59013.125	-5.303384E-10	-1.885588E+9	17.919196	0.338247	0	0
0	0	0	0.45327	6.384645	-25.121703	6.384645	56847.625	1.39254E-10	7.181124E+9	17.962091	0.336198	0	0
0	0	0	0.368166	6.384786	-25.238838	6.384786	54919.625	7.516464E-10	1.330413E+9	17.932956	0.334796	0	0
0	0	0	0.285268	6.384898	-25.352841	6.384898	53104.5	-2.722393E-10	-3.673238E+9	17.866266	0.333302	0	0
0	0	0	0.210456	6.38475	-25.454723	6.38475	51517.875	3.284389E-10	3.044706E+9	17.917608	0.331332	0	0
0	0	0	0.153815	6.384729	-25.532222	6.384729	50348.375	2.430746E-10	4.113964E+9	17.916134	0.329799	0	0
0	0	0	0.111182	6.384715	-25.590562	6.384715	49485.5	2.056345E-10	4.862996E+9	17.804222	0.328556	0	0
0	0	0	0.074306	6.384807	-25.641441	6.384807	48751.25	2.139042E-9	4.674989E+8	17.851999	0.326467	0	0
0	0	0	0.046252	6.384954	-25.680465	6.384954	48199.875	-1.464458E-10	-6.828464E+9	17.845474	0.325065	0	0
0	0	0	0.038289	6.384694	-25.690324	6.384694	48044.5	1.651454E-10	6.05527E+9	17.759388	0.323743	0	0
0	0	0	0.028406	6.384617	-25.703548	6.384617	47852.375	1.006862E-10	9.931851E+9	17.811272	0.32176	0	0
0	0	0	0.010315	6.384722	-25.728753	6.384722	47502.75	2.121704E-10	4.713192E+9	17.809604	0.320319	0	0
0	0	0	-0.008224	6.384919	-25.754943	6.384919	47147	-1.9217E-10	-5.203727E+9	17.723158	0.318957	0	0
0	0	0	-0.021292	6.384877	-25.772672	6.384877	46897.875	-3.239008E-10	-3.087365E+9	17.75138	0.317106	0	0
0	0	0	-0.028847	6.384835	-25.78285	6.384835	46754.375	-1.056795E-9	-9.462571E+8	17.723978	0.315678	0	0
0	0	0	-0.032522	6.384687	-25.787288	6.384687	46684.75	1.517312E-10	6.590602E+9	17.641185	0.314409	0	0
0	0	0	-0.034523	6.384778	-25.790398	6.384778	46646.875	5.193143E-10	1.925616E+9	17.69541	0.312544	0	0
0	0	0	-0.0373	6.384582	-25.793407	6.384582	46594.5	8.334531E-11	1.199828E+10	17.690428	0.311222	0	0
0	0	0	-0.042241	6.3848	-25.801055	6.3848	46501.125	1.175774E-9	8.505033E+8	17.588492	0.310032	0	0
0	0	0	-0.046243	6.384814	-25.806594	6.384814	46425.75	7.69536E-9	1.299484E+8	17.637185	0.308128	0	0
0	0	0	-0.050654	6.3848	-25.812578	6.3848	46342.875	1.171773E-9	8.534076E+8	17.619737	0.306806	0	0
0	0	0	-0.05437	6.384778	-25.817583	6.384778	46273.125	5.151534E-10	1.941169E+9	17.549415	0.305722	0	0
0	0	0	-0.06172	6.384807	-25.827765	6.384807	46135.375	2.024266E-9	4.940061E+8	17.603417	0.304003	0	0
0	0	0	-0.066825	6.384722	-25.834417	6.384722	46040	2.056371E-10	4.862937E+9	17.572849	0.302734	0	0
0	0	0	-0.071644	6.384856	-25.841557	6.384856	45950.125	-4.86161E-10	-2.056932E+9	17.486535	0.301584	0	0
0	0	0	-0.076462	6.384807	-25.847958	6.384807	45860.5	2.012206E-9	4.96967E+8	17.544653	0.299759	0	0
0	0	0	-0.079893	6.38475	-25.85243	6.38475	45796.75	2.919654E-10	3.425064E+9	17.508408	0.298714	0	0
0	0	0	-0.084425	6.38475	-25.858639	6.38475	45712.625	2.914291E-10	3.431367E+9	17.427917	0.297458	0	0
0	0	0	-0.086508	6.384821	-25.861776	6.384821	45674.125	-4.25856E-9	-2.348211E+8	17.503565	0.295726	0	0
0	0	0	-0.088346	6.384891	-25.864577	6.384891	45640	-2.559626E-10	-3.90682E+9	17.46542	0.294642	0	0
0	0	0	-0.092021	6.384757	-25.869071	6.384757	45572.125	3.252861E-10	3.074217E+9	17.396529	0.293294	0	0
0	0	0	-0.094226	6.384793	-25.872234	6.384793	45531.375	8.086192E-10	1.236676E+9	17.444244	0.291614	0	0
0	0	0	-0.095696	6.384919	-25.874759	6.384919	45504.25	-1.854742E-10	-5.391587E+9	17.384565	0.290464	0	0
0	0	0	-0.097411	6.384856	-25.876853	6.384856	45472.625	-4.81109E-10	-2.078531E+9	17.301915	0.289195	0	0
0	0	0	-0.099127	6.384835	-25.879117	6.384835	45441	-1.027109E-9	-9.736066E+8	17.374341	0.287476	0	0
0	0	0	-0.099372	6.38499	-25.880077	6.38499	45436.5	-1.100365E-10	-9.087895E+9	17.319946	0.286524	0	0
0	0	0	-0.100393	6.384982	-25.881447	6.384982	45417.625	-1.146435E-10	-8.722692E+9	17.279215	0.285043	0	0
0	0	0	-0.101332	6.384736	-25.88174	6.384736	45400.375	2.384809E-10	4.193208E+9	17.344731	0.283483	0	0
0	0	0	-0.100964	6.384997	-25.882287	6.384997	45407.125	-1.056765E-10	-9.46284E+9	17.27015	0.282425	0	0
0	0	0	-0.101291	6.384856	-25.882167	6.384856	45401.125	-4.803525E-10	-2.081805E+9	17.227071	0.28109	0	0
0	0	0	-0.102516	6.384912	-25.884072	6.384912	45378.625	-1.985224E-10	-5.037215E+9	17.287505	0.27957	0	0
0	0	0	-0.103006	6.385004	-25.885113	6.385004	45369.625	-1.016257E-10	-9.840032E+9	17.192045	0.278578	0	0
0	0	0	-0.102679	6.384961	-25.884495	6.384961	45375.625	-1.311854E-10	-7.6228E+9	17.189235	0.277137	0	0
0	0	0	-0.103169	6.384821	-25.884598	6.384821	45366.625	-4.22989E-9	-2.364128E+8	17.224299	0.275722	0	0
0	0	0	-0.104149	6.384877	-25.886167	6.384877	45348.5	-3.132E-10	-3.192848E+9	17.106636	0.274823	0	0
0	0	0	-0.10517	6.384898	-25.887651	6.384898	45329.75	-2.323822E-10	-4.303255E+9	17.10406	0.273342	0	0
0	0	0	-0.105579	6.384821	-25.887898	6.384821	45322.25	-4.225752E-9	-2.366443E+8	17.147712	0.271848	0	0
0	0	0	-0.106273	6.384687	-25.888309	6.384687	45309.5	1.472615E-10	6.790643E+9	17.055949	0.270896	0	0
0	0	0	-0.10615	6.384708	-25.888227	6.384708	45311.75	1.760322E-10	5.680778E+9	17.086712	0.269389	0	0
0	0	0	-0.106191	6.384828	-25.888765	6.384828	45311	-1.648665E-9	-6.065515E+8	17.105878	0.26804	0	0
0	0	0	-0.106559	6.384835	-25.889297	6.384835	45304.25	-1.024018E-9	-9.765454E+8	16.989626	0.267168	0	0
0	0	0	-0.106886	6.384729	-25.889319	6.384729	45298.25	2.186933E-10	4.572614E+9	17.03201	0.265607	0	0
0	0	0	-0.106886	6.38494	-25.890171	6.38494	45298.25	-1.532341E-10	-6.525963E+9	16.969996	0.264629	0	0
0	0	0	-0.107294	6.384786	-25.890105	6.384786	45290.75	6.198628E-10	1.61326E+9	16.909665	0.263347	0	0
0	0	0	-0.107743	6.38475	-25.890579	6.38475	45282.5	2.886869E-10	3.46396E+9	16.981905	0.261853	0	0
0	0	0	-0.107621	6.385018	-25.89149	6.385018	45284.75	-9.435208E-11	-1.05986E+10	16.948185	0.260808	0	0
0	0	0	-0.107661	6.38487	-25.89095	6.38487	45284	-3.53691E-10	-2.827327E+9	16.882792	0.259737	0	0
0	0	0	-0.108356	6.384814	-25.891673	6.384814	45271.25	7.503995E-9	1.332624E+8	16.934082	0.258058	0	0
0	0	0	-0.108642	6.384905	-25.892434	6.384905	45266	-2.136966E-10	-4.679532E+9	16.832757	0.257278	0	0
0	0	0	-0.108682	6.384778	-25.891979	6.384778	45265.25	5.039328E-10	1.984391E+9	16.832724	0.255823	0	0
0	0	0	-0.108601	6.384757	-25.891782	6.384757	45266.75	3.231064E-10	3.094956E+9	16.872053	0.25466	0	0
0	0	0	-0.109091	6.384771	-25.89251	6.384771	45257.75	4.246278E-10	2.355004E+9	16.772867	0.253853	0	0
0	0	0	-0.109213	6.38499	-25.893558	6.38499	45255.5	-1.095981E-10	-9.124242E+9	16.795321	0.252293	0	0
0	0	0	-0.110561	6.38475	-25.894438	6.38475	45230.875	2.883578E-10	3.467914E+9	16.794162	0.251183	0	0
0	0	0	-0.109785	6.384771	-25.893461	6.384771	45245	4.245081E-10	2.355667E+9	16.671594	0.250323	0	0
0	0	0	-0.110643	6.384842	-25.894919	6.384842	45229.375	-7.414668E-10	-1.348678E+9	16.710197	0.248803	0	0
0	0	0	-0.110193	6.384877	-25.894446	6.384877	45237.625	-3.124342E-10	-3.200674E+9	16.676555	0.247824	0	0
0	0	0	-0.109907	6.384947	-25.894339	6.384947	45242.75	-1.448357E-10	-6.904375E+9	16.605271	0.246727	0	0
0	0	0	-0.11003	6.384821	-25.893995	6.384821	45240.5	-4.21813E-9	-2.370719E+8	16.680037	0.245352	0	0
0	0	0	-0.110071	6.384736	-25.89371	6.384736	45239.75	2.376372E-10	4.208096E+9	16.630064	0.244506	0	0
0	0	0	-0.109132	6.384814	-25.892736	6.384814	45257	7.501633E-9	1.333043E+8	16.600715	0.24321	0	0
0	0	0	-0.110234	6.384828	-25.894303	6.384828	45236.875	-1.645968E-9	-6.075454E+8	16.61662	0.242073	0	0
0	0	0	-0.109417	6.384856	-25.893298	6.384856	45251.75	-4.787721E-10	-2.088677E+9	16.506277	0.241359	0	0
0	0	0	-0.109132	6.384814	-25.892736	6.384814	45257	7.501633E-9	1.333043E+8	16.544898	0.239825	0	0
0	0	0	-0.10905	6.384764	-25.892425	6.384764	45258.5	3.669398E-10	2.725242E+9	16.527132	0.238966	0	0
0	0	0	-0.108927	6.384778	-25.892314	6.384778	45260.75	5.038828E-10	1.984589E+9	16.433293	0.23804	0	0
0	0	0	-0.109009	6.384807	-25.89254	6.384807	45259.25	1.985825E-9	5.03569E+8	16.502958	0.236679	0	0
0	0	0	-0.108846	6.384884	-25.892629	6.384884	45262.25	-2.801765E-10	-3.569179E+9	16.453111	0.235819	0	0
0	0	0	-0.108723	6.384814	-25.892177	6.384814	45264.5	7.502876E-9	1.332822E+8	16.381892	0.234814	0	0
0	0	0	-0.109172	6.384905	-25.893161	6.384905	45256.25	-2.136506E-10	-4.68054E+9	16.438614	0.233532	0	0
0	0	0	-0.109336	6.384757	-25.892788	6.384757	45253.25	3.2301E-10	3.095879E+9	16.33348	0.232831	0	0
0	0	0	-0.109458	6.385018	-25.894007	6.385018	45251	-9.428176E-11	-1.06065E+10	16.323489	0.231456	0	0
0	0	0	-0.108927	6.384743	-25.892172	6.384743	45260.75	2.606961E-10	3.835884E+9	16.359908	0.230359	0	0
0	0	0	-0.108682	6.384905	-25.89249	6.384905	45265.25	-2.13693E-10	-4.67961E+9	16.254305	0.229631	0	0
0	0	0	-0.107906	6.384891	-25.89137	6.384891	45279.5	-2.539408E-10	-3.937925E+9	16.305751	0.228217	0	0
0	0	0	-0.107825	6.384743	-25.890662	6.384743	45281	2.608127E-10	3.834169E+9	16.277854	0.227423	0	0
0	0	0	-0.108437	6.384778	-25.891643	6.384778	45269.75	5.039829E-10	1.984194E+9	16.212525	0.226511	0	0
0	0	0	-0.108764	6.38494	-25.892744	6.38494	45263.75	-1.531174E-10	-6.530937E+9	16.269787	0.22507	0	0
0	0	0	-0.109091	6.38494	-25.893191	6.38494	45257.75	-1.530971E-10	-6.531803E+9	16.153417	0.224528	0	0
0	0	0	-0.108233	6.384793	-25.89142	6.384793	45273.5	8.040394E-10	1.24372E+9	16.144589	0.223298	0	0
0	0	0	-0.10856	6.384701	-25.891498	6.384701	45267.5	1.651109E-10	6.056535E+9	16.176169	0.222227	0	0
0	0	0	-0.108968	6.38494	-25.893024	6.38494	45260	-1.531047E-10	-6.531478E+9	16.051414	0.221659	0	0
0	0	0	-0.109213	6.384877	-25.893104	6.384877	45255.5	-3.125577E-10	-3.19941E+9	16.137282	0.220204	0	0
0	0	0	-0.109172	6.384814	-25.892792	6.384814	45256.25	7.501508E-9	1.333065E+8	16.088687	0.219477	0	0
0	0	0	-0.109581	6.38475	-25.893096	6.38475	45248.75	2.884717E-10	3.466544E+9	16.03516	0.218538	0	0
0	0	0	-0.109907	6.384708	-25.893373	6.384708	45242.75	1.757642E-10	5.689442E+9	16.080047	0.217256	0	0
0	0	0	-0.110438	6.38468	-25.893986	6.38468	45233.125	1.394196E-10	7.172594E+9	15.953594	0.216754	0	0
0	0	0	-0.109867	6.384926	-25.894197	6.384926	45243.625	-1.726208E-10	-5.793044E+9	15.961454	0.215471	0	0
0	0	0	-0.110643	6.384694	-25.894323	6.384694	45229.375	1.554689E-10	6.432156E+9	15.956355	0.214598	0	0
0	0	0	-0.110152	6.384849	-25.894276	6.384849	45238.25	-5.817821E-10	-1.718857E+9	15.858348	0.213765	0	0
0	0	0	-0.110888	6.384821	-25.89517	6.384821	45224.875	-4.216673E-9	-2.371538E+8	15.950536	0.212549	0	0
0	0	0	-0.111173	6.384701	-25.895078	6.384701	45219.625	1.649363E-10	6.062948E+9	15.865678	0.211981	0	0
0	0	0	-0.111133	6.384856	-25.895647	6.384856	45220.375	-4.784401E-10	-2.090126E+9	15.842124	0.21091	0	0
0	0	0	-0.111745	6.384638	-25.895606	6.384638	45209.125	1.063774E-10	9.400493E+9	15.880049	0.209812	0	0
0	0	0	-0.110602	6.384828	-25.894807	6.384828	45230.125	-1.645722E-9	-6.07636E+8	15.738404	0.209297	0	0
0	0	0	-0.111173	6.384842	-25.895646	6.384842	45219.625	-7.41307E-10	-1.348969E+9	15.79811	0.207908	0	0
0	0	0	-0.111173	6.384736	-25.89522	6.384736	45219.625	2.375315E-10	4.209968E+9	15.73475	0.207274	0	0
0	0	0	-0.113542	6.384905	-25.899147	6.384905	45176.125	-2.132723E-10	-4.688842E+9	15.68085	0.206308	0	0
0	0	0	-0.113583	6.3848	-25.898776	6.3848	45175.5	1.142256E-9	8.754604E+8	15.749394	0.205171	0	0
0	0	0	-0.113583	6.384793	-25.898748	6.384793	45175.5	8.02299E-10	1.246418E+9	15.654803	0.20459	0	0
0	0	0	-0.11346	6.384757	-25.898438	6.384757	45177.75	3.224711E-10	3.101053E+9	15.695113	0.203347	0	0
0	0	0	-0.113419	6.384708	-25.898183	6.384708	45178.375	1.755141E-10	5.697549E+9	15.658642	0.202659	0	0
0	0	0	-0.114195	6.384926	-25.900127	6.384926	45164.25	-1.72318E-10	-5.803225E+9	15.550188	0.201866	0	0
0	0	0	-0.112562	6.38487	-25.897662	6.38487	45194.125	-3.52989E-10	-2.83295E+9	15.632874	0.200729	0	0
0	0	0	-0.11248	6.384863	-25.897522	6.384863	45195.625	-4.061635E-10	-2.462063E+9	15.507237	0.200121	0	0
0	0	0	-0.112562	6.384708	-25.897009	6.384708	45194.125	1.755753E-10	5.695564E+9	15.521398	0.199063	0	0
0	0	0	-0.112398	6.3848	-25.897154	6.3848	45197.125	1.142803E-9	8.750415E+8	15.491666	0.198296	0	0
0	0	0	-0.111868	6.384835	-25.896569	6.384835	45206.875	-1.021817E-9	-9.786489E+8	15.422205	0.197397	0	0
0	0	0	-0.110724	6.384863	-25.895116	6.384863	45227.75	-4.064522E-10	-2.460314E+9	15.486533	0.196392	0	0
0	0	0	-0.110234	6.384849	-25.894388	6.384849	45236.875	-5.817644E-10	-1.718909E+9	15.398484	0.195784	0	0
0	0	0	-0.110561	6.384912	-25.895092	6.384912	45230.875	-1.97876E-10	-5.05367E+9	15.419368	0.194647	0	0
0	0	0	-0.110438	6.384912	-25.894924	6.384912	45233.125	-1.978859E-10	-5.053418E+9	15.404853	0.193893	0	0
0	0	0	-0.11003	6.384849	-25.894109	6.384849	45240.5	-5.81811E-10	-1.718771E+9	15.294465	0.193193	0	0
0	0	0	-0.110152	6.384947	-25.894674	6.384947	45238.25	-1.448213E-10	-6.905062E+9	15.353339	0.192003	0	0
0	0	0	-0.110847	6.384919	-25.895512	6.384919	45225.5	-1.84338E-10	-5.424818E+9	15.224424	0.19154	0	0
0	0	0	-0.110357	6.384807	-25.894386	6.384807	45234.625	1.984745E-9	5.038432E+8	15.259605	0.190271	0	0
0	0	0	-0.109907	6.384814	-25.893799	6.384814	45242.75	7.499271E-9	1.333463E+8	15.228192	0.189702	0	0
0	0	0	-0.109295	6.384814	-25.89296	6.384814	45254	7.501135E-9	1.333132E+8	15.149703	0.188975	0	0
0	0	0	-0.109417	6.384968	-25.893753	6.384968	45251.75	-1.247816E-10	-8.014E+9	15.234106	0.187811	0	0
0	0	0	-0.110275	6.38494	-25.894814	6.38494	45236	-1.530235E-10	-6.534944E+9	15.093715	0.187507	0	0
0	0	0	-0.108519	6.384729	-25.891556	6.384729	45268.25	2.185485E-10	4.575644E+9	15.150335	0.186304	0	0
0	0	0	-0.109213	6.384856	-25.893018	6.384856	45255.5	-4.788117E-10	-2.088503E+9	15.114718	0.185749	0	0
0	0	0	-0.109091	6.384589	-25.891771	6.384589	45257.75	8.345589E-11	1.198238E+10	15.055207	0.184797	0	0
0	0	0	-0.108437	6.385004	-25.892552	6.385004	45269.75	-1.01402E-10	-9.861741E+9	15.102394	0.183726	0	0
0	0	0	-0.108846	6.384764	-25.892146	6.384764	45262.25	3.669703E-10	2.725017E+9	14.954413	0.183448	0	0
0	0	0	-0.10856	6.384982	-25.892635	6.384982	45267.5	-1.142646E-10	-8.751619E+9	15.013243	0.182166	0	0
0	0	0	-0.109172	6.384912	-25.89319	6.384912	45256.25	-1.97987E-10	-5.050836E+9	14.931514	0.181677	0	0
0	0	0	-0.108887	6.384919	-25.892827	6.384919	45261.5	-1.844847E-10	-5.420503E+9	14.913897	0.180632	0	0
0	0	0	-0.110357	6.384722	-25.894045	6.384722	45234.625	2.020399E-10	4.949518E+9	14.939632	0.179971	0	0
0	0	0	-0.110397	6.384884	-25.894754	6.384884	45233.75	-2.8E-10	-3.571428E+9	14.826913	0.179429	0	0
0	0	0	-0.110561	6.384807	-25.894665	6.384807	45230.875	1.98458E-9	5.038849E+8	14.917254	0.178252	0	0
0	0	0	-0.110071	6.384715	-25.893625	6.384715	45239.75	1.879915E-10	5.319388E+9	14.797362	0.177842	0	0
0	0	0	-0.110847	6.384835	-25.895171	6.384835	45225.5	-1.022238E-9	-9.782459E+8	14.824695	0.176679	0	0
0	0	0	-0.110643	6.38487	-25.895033	6.38487	45229.375	-3.532643E-10	-2.830742E+9	14.800742	0.176123	0	0
0	0	0	-0.111418	6.384771	-25.895698	6.384771	45215.125	4.242278E-10	2.357224E+9	14.706172	0.175489	0	0
0	0	0	-0.112113	6.384715	-25.896422	6.384715	45202.375	1.878362E-10	5.323787E+9	14.762418	0.174563	0	0
0	0	0	-0.11199	6.384764	-25.896453	6.384764	45204.625	3.66503E-10	2.72849E+9	14.604671	0.174167	0	0
0	0	0	-0.111623	6.384814	-25.896148	6.384814	45211.375	7.49407E-9	1.334388E+8	14.660324	0.17295	0	0
0	0	0	-0.112194	6.384807	-25.896903	6.384807	45200.875	1.983264E-9	5.042194E+8	14.589985	0.172501	0	0
0	0	0	-0.11199	6.384778	-25.89651	6.384778	45204.625	5.032579E-10	1.987053E+9	14.565772	0.171628	0	0
0	0	0	-0.111459	6.38494	-25.896436	6.38494	45214.375	-1.529504E-10	-6.538069E+9	14.549605	0.170993	0	0
0	0	0	-0.111745	6.384821	-25.896344	6.384821	45209.125	-4.215205E-9	-2.372364E+8	14.456121	0.17024	0	0
0	0	0	-0.112317	6.38494	-25.89761	6.38494	45198.625	-1.528971E-10	-6.540347E+9	14.54033	0.169407	0	0
0	0	0	-0.115012	6.384961	-25.901388	6.384961	45149.25	-1.305309E-10	-7.66102E+9	14.410381	0.16905	0	0
0	0	0	-0.11493	6.384778	-25.900537	6.384778	45150.75	5.026581E-10	1.989424E+9	14.491948	0.167847	0	0
0	0	0	-0.114563	6.384884	-25.90046	6.384884	45157.5	-2.79528E-10	-3.577459E+9	14.406358	0.167516	0	0
0	0	0	-0.114522	6.384835	-25.900205	6.384835	45158.25	-1.020718E-9	-9.797027E+8	14.384161	0.166591	0	0
0	0	0	-0.11493	6.384786	-25.900565	6.384786	45150.75	6.179467E-10	1.618263E+9	14.387224	0.165956	0	0
0	0	0	-0.114685	6.384954	-25.900912	6.384954	45155.25	-1.371953E-10	-7.288878E+9	14.294334	0.165229	0	0
0	0	0	-0.114195	6.384905	-25.900041	6.384905	45164.25	-2.132162E-10	-4.690074E+9	14.335377	0.16433	0	0
0	0	0	-0.114073	6.384863	-25.899703	6.384863	45166.5	-4.059017E-10	-2.463651E+9	14.178032	0.164026	0	0
0	0	0	-0.114114	6.384835	-25.899646	6.384835	45165.75	-1.020887E-9	-9.7954E+8	14.253095	0.162902	0	0
0	0	0	-0.113256	6.384659	-25.897761	6.384659	45181.5	1.205761E-10	8.293515E+9	14.160473	0.162677	0	0
0	0	0	-0.1115	6.38475	-25.895725	6.38475	45213.625	2.882478E-10	3.469237E+9	14.182515	0.161566	0	0
0	0	0	-0.112358	6.38487	-25.897382	6.38487	45197.875	-3.530183E-10	-2.832715E+9	14.133602	0.161104	0	0
0	0	0	-0.112031	6.384638	-25.895997	6.384638	45203.875	1.063651E-10	9.401584E+9	14.080222	0.160363	0	0
0	0	0	-0.111582	6.384729	-25.895751	6.384729	45212.125	2.182775E-10	4.581324E+9	14.116882	0.159596	0	0
0	0	0	-0.111541	6.384975	-25.89669	6.384975	45212.875	-1.191676E-10	-8.391542E+9	14.022035	0.15916	0	0
0	0	0	-0.111459	6.38475	-25.895669	6.38475	45214.375	2.882526E-10	3.46918E+9	14.096429	0.158102	0	0
0	0	0	-0.110479	6.384736	-25.894269	6.384736	45232.375	2.375984E-10	4.208782E+9	13.974879	0.157772	0	0
0	0	0	-0.110193	6.384821	-25.894219	6.384821	45237.625	-4.217862E-9	-2.370869E+8	14.029912	0.15678	0	0
0	0	0	-0.110112	6.384729	-25.893738	6.384729	45239.125	2.184079E-10	4.57859E+9	13.92412	0.156555	0	0
0	0	0	-0.110152	6.384828	-25.894191	6.384828	45238.25	-1.646018E-9	-6.075269E+8	13.897919	0.155696	0	0
0	0	0	-0.110275	6.384842	-25.894416	6.384842	45236	-7.415755E-10	-1.34848E+9	13.863305	0.155127	0	0
0	0	0	-0.109703	6.38475	-25.893263	6.38475	45246.5	2.884574E-10	3.466716E+9	13.787251	0.154546	0	0
0	0	0	-0.109948	6.384835	-25.89394	6.384835	45242	-1.022611E-9	-9.778891E+8	13.843854	0.153686	0	0
0	0	0	-0.11003	6.384877	-25.894222	6.384877	45240.5	-3.124541E-10	-3.20047E+9	13.703186	0.153303	0	0
0	0	0	-0.109091	6.384905	-25.893049	6.384905	45257.75	-2.136576E-10	-4.680385E+9	13.766088	0.152404	0	0
0	0	0	-0.109009	6.384821	-25.892597	6.384821	45259.25	-4.219878E-9	-2.369737E+8	13.633812	0.151968	0	0
0	0	0	-0.109295	6.385011	-25.893755	6.385011	45254	-9.76993E-11	-1.023549E+10	13.712738	0.151002	0	0
0	0	0	-0.109336	6.38475	-25.89276	6.38475	45253.25	2.885004E-10	3.466199E+9	13.599853	0.150711	0	0
0	0	0	-0.108887	6.384863	-25.892599	6.384863	45261.5	-4.067555E-10	-2.45848E+9	13.635468	0.149759	0	0
0	0	0	-0.109458	6.384982	-25.893865	6.384982	45251	-1.142229E-10	-8.754811E+9	13.559413	0.149482	0	0
0	0	0	-0.109703	6.384814	-25.893519	6.384814	45246.5	7.499892E-9	1.333352E+8	13.532289	0.148662	0	0
0	0	0	-0.110275	6.3848	-25.894245	6.3848	45236	1.143786E-9	8.742895E+8	13.515022	0.14812	0	0
0	0	0	-0.109622	6.384877	-25.893663	6.384877	45248	-3.125059E-10	-3.19994E+9	13.434989	0.147499	0	0
0	0	0	-0.111214	6.38475	-25.895333	6.38475	45218.875	2.882813E-10	3.468834E+9	13.494753	0.146851	0	0
0	0	0	-0.110234	6.384821	-25.894275	6.384821	45236.875	-4.217792E-9	-2.370909E+8	13.392558	0.146401	0	0
0	0	0	-0.110397	6.384638	-25.89376	6.384638	45233.75	1.064353E-10	9.395375E+9	13.482192	0.145462	0	0
0	0	0	-0.111949	6.384821	-25.896624	6.384821	45205.375	-4.214855E-9	-2.372561E+8	13.336472	0.145185	0	0
0	0	0	-0.112398	6.38487	-25.897438	6.38487	45197.125	-3.530124E-10	-2.832762E+9	13.414231	0.144259	0	0
0	0	0	-0.112398	6.384757	-25.896984	6.384757	45197.125	3.226094E-10	3.099723E+9	13.270341	0.144048	0	0
0	0	0	-0.112644	6.38499	-25.898257	6.38499	45192.625	-1.094459E-10	-9.136936E+9	13.354041	0.14295	0	0
0	0	0	-0.112153	6.384778	-25.896733	6.384778	45201.625	5.032245E-10	1.987185E+9	13.225637	0.142831	0	0
0	0	0	-0.112603	6.384849	-25.897633	6.384849	45193.375	-5.81205E-10	-1.720563E+9	13.258584	0.141827	0	0
0	0	0	-0.111582	6.384764	-25.895893	6.384764	45212.125	3.665639E-10	2.728038E+9	13.184853	0.141496	0	0
0	0	0	-0.112766	6.384786	-25.897601	6.384786	45190.375	6.18489E-10	1.616844E+9	13.182922	0.140703	0	0
0	0	0	-0.113869	6.3848	-25.899168	6.3848	45170.125	1.14212E-9	8.755646E+8	13.113326	0.140319	0	0
0	0	0	-0.113501	6.384982	-25.899403	6.384982	45176.875	-1.140358E-10	-8.769175E+9	13.085148	0.139605	0	0
0	0	0	-0.114849	6.38475	-25.900311	6.38475	45152.25	2.878565E-10	3.473953E+9	13.057583	0.139103	0	0
0	0	0	-0.115094	6.384743	-25.900619	6.384743	45147.75	2.600452E-10	3.845485E+9	12.972855	0.138561	0	0
0	0	0	-0.114563	6.384764	-25.899977	6.384764	45157.5	3.66121E-10	2.731338E+9	12.991183	0.137886	0	0
0	0	0	-0.116115	6.384821	-25.90233	6.384821	45129.125	-4.207746E-9	-2.37657E+8	12.93117	0.137318	0	0
0	0	0	-0.115094	6.384743	-25.900619	6.384743	45147.75	2.600452E-10	3.845485E+9	12.976098	0.13671	0	0
0	0	0	-0.115747	6.384814	-25.901798	6.384814	45135.875	7.481556E-9	1.33662E+8	12.834637	0.136379	0	0
0	0	0	-0.116809	6.3848	-25.903195	6.3848	45116.375	1.140761E-9	8.766077E+8	12.903675	0.13544	0	0
0	0	0	-0.11493	6.384715	-25.900281	6.384715	45150.75	1.876217E-10	5.329874E+9	12.760403	0.135229	0	0
0	0	0	-0.114195	6.384736	-25.89936	6.384736	45164.25	2.372406E-10	4.21513E+9	12.843757	0.134462	0	0
0	0	0	-0.114236	6.384793	-25.899643	6.384793	45163.5	8.020858E-10	1.246749E+9	12.696094	0.134105	0	0
0	0	0	-0.11297	6.384997	-25.898733	6.384997	45186.625	-1.051634E-10	-9.509016E+9	12.786885	0.133272	0	0
0	0	0	-0.112725	6.384757	-25.897431	6.384757	45191.125	3.225666E-10	3.100135E+9	12.652862	0.132942	0	0
0	0	0	-0.111868	6.38475	-25.896228	6.38475	45206.875	2.882048E-10	3.469755E+9	12.712551	0.132188	0	0
0	0	0	-0.112725	6.384708	-25.897232	6.384708	45191.125	1.755636E-10	5.695942E+9	12.588128	0.131791	0	0
0	0	0	-0.112113	6.384982	-25.897501	6.384982	45202.375	-1.141002E-10	-8.764228E+9	12.672598	0.130892	0	0
0	0	0	-0.112235	6.384786	-25.896874	6.384786	45200.125	6.186225E-10	1.616495E+9	12.514265	0.130826	0	0
0	0	0	-0.110724	6.384933	-25.895401	6.384933	45227.75	-1.6219E-10	-6.165607E+9	12.597688	0.129848	0	0
0	0	0	-0.111255	6.384793	-25.89556	6.384793	45218.125	8.03056E-10	1.245243E+9	12.443307	0.129689	0	0
0	0	0	-0.110643	6.384786	-25.894692	6.384786	45229.375	6.190228E-10	1.615449E+9	12.507602	0.128711	0	0
0	0	0	-0.110602	6.384771	-25.894579	6.384771	45230.125	4.243686E-10	2.356442E+9	12.355113	0.128631	0	0
0	0	0	-0.111663	6.384814	-25.896204	6.384814	45210.625	7.493946E-9	1.334411E+8	12.440133	0.127693	0	0
0	0	0	-0.110928	6.384835	-25.895282	6.384835	45224.125	-1.022207E-9	-9.782756E+8	12.330193	0.127494	0	0
0	0	0	-0.109907	6.384856	-25.893969	6.384856	45242.75	-4.786769E-10	-2.089092E+9	12.375352	0.126635	0	0
0	0	0	-0.109336	6.384757	-25.892788	6.384757	45253.25	3.2301E-10	3.095879E+9	12.236927	0.126503	0	0
0	0	0	-0.108805	6.384771	-25.892118	6.384771	45263	4.24677E-10	2.354731E+9	12.338777	0.125485	0	0
0	0	0	-0.109295	6.384828	-25.893017	6.384828	45254	-1.646591E-9	-6.073155E+8	12.210763	0.125313	0	0
0	0	0	-0.109785	6.384912	-25.894029	6.384912	45245	-1.979378E-10	-5.052092E+9	12.268296	0.124453	0	0
0	0	0	-0.110928	6.384849	-25.895339	6.384849	45224.125	-5.816004E-10	-1.719393E+9	12.137305	0.124387	0	0
0	0	0	-0.109744	6.384933	-25.894058	6.384933	45245.875	-1.62255E-10	-6.163137E+9	12.220783	0.123541	0	0
0	0	0	-0.109662	6.384919	-25.893889	6.384919	45247.25	-1.844266E-10	-5.42221E+9	12.048008	0.12329	0	0
0	0	0	-0.10954	6.38475	-25.89304	6.38475	45249.5	2.884765E-10	3.466487E+9	0	0	0	0
0	0	0	-0.110438	6.384771	-25.894356	6.384771	45233.125	4.243967E-10	2.356286E+9	0	0	0	0
0	0	0	-0.110479	6.384933	-25.895065	6.384933	45232.375	-1.622066E-10	-6.164976E+9	0	0	0	0
0	0	0	-0.11101	6.384947	-25.895849	6.384947	45222.625	-1.447713E-10	-6.907448E+9	0	0	0	0
0	0	0	-0.110888	6.384828	-25.895198	6.384828	45224.875	-1.645531E-9	-6.077066E+8	0	0	0	0
0	0	0	-0.111868	6.384786	-25.89637	6.384786	45206.875	6.187148E-10	1.616253E+9	0	0	0	0
0	0	0	-0.112398	6.384961	-25.897808	6.384961	45197.125	-1.306693E-10	-7.652905E+9	0	0	0	0
0	0	0	-0.112113	6.38487	-25.897047	6.38487	45202.375	-3.530534E-10	-2.832433E+9	0	0	0	0
0	0	0	-0.112113	6.384729	-25.896478	6.384729	45202.375	2.182304E-10	4.582312E+9	0	0	0	0
0	0	0	-0.112603	6.384891	-25.897803	6.384891	45193.375	-2.534578E-10	-3.94543E+9	0	0	0	0
0	0	0	-0.112439	6.384715	-25.896869	6.384715	45196.375	1.878113E-10	5.324494E+9	0	0	0	0
0	0	0	-0.113134	6.384828	-25.898275	6.384828	45183.625	-1.64403E-9	-6.082614E+8	0	0	0	0
0	0	0	-0.112929	6.384807	-25.89791	6.384807	45187.375	1.982671E-9	5.0437E+8	0	0	0	0
0	0	0	-0.113787	6.384736	-25.8988	6.384736	45171.75	2.3728E-10	4.21443E+9	0	0	0	0
0	0	0	-0.113583	6.384898	-25.899174	6.384898	45175.5	-2.315915E-10	-4.317949E+9	0	0	0	0
0	0	0	-0.112766	6.384729	-25.897373	6.384729	45190.375	2.181725E-10	4.583529E+9	0	0	0	0
0	0	0	-0.114604	6.384856	-25.900402	6.384856	45156.75	-4.77767E-10	-2.093071E+9	0	0	0	0
0	0	0	-0.11493	0	-0.11493	0	45150.75	0	0	0	0	0	0
0	0	0	-0.115747	0	-0.115747	0	45135.875	0	0	0	0	0	0
