Vload_(V)	ILoad_(A)	RsLoad (ohm)	SunsVoc_Voltage_(V)	SunsVoc_Current_(A)	Model_Voltage_(V)	Model_Current_(A)	Carrier_Density_(cm-3)	Lifetime_(s)	Inverse_Lifetime_(s-1)	Efficiency_(%)	Intensity_(suns)	Dark_IV_Voltage_(V)	Dark_IV_Current_(A)
4.138671	6.382988	0	65.381493	-1.061826	65.722663	-1.061826	4.184345E+15	0.000236	4209.331234	19.911622	1.182609	0	0
3.974006	6.386983	-0.566713	65.86312	-1.139832	66.203406	-1.139832	4.681597E+15	0.000261	3791.527154	20.008455	1.182318	0	0
5.481491	6.381161	4.36853	65.869532	-1.151828	66.21305	-1.151828	4.688557E+15	0.000261	3791.831924	19.957396	1.180454	0	0
8.467281	6.373166	5.848854	65.767848	-0.75457	65.996516	-0.75457	4.579259E+15	0.000269	3678.230528	19.800947	1.181339	0	0
11.631667	6.356628	6.071546	65.588412	-0.259242	65.669173	-0.259242	4.39191E+15	0.000278	3570.743006	19.738995	1.182582	0	0
14.314519	6.355011	5.680466	65.413673	0.175941	65.35741	0.175941	4.216042E+15	0.000285	3477.650593	19.791403	1.182609	0	0
17.102333	6.350354	5.321379	65.23636	0.587044	65.043713	0.587044	4.043991E+15	0.000293	3387.054092	19.822804	1.181498	0	0
19.978645	6.349246	4.885007	65.059579	0.965514	64.734664	0.965514	3.878658E+15	0.000301	3302.315921	19.784585	1.179951	0	0
22.813623	6.348477	4.450015	64.889168	1.316652	64.435483	1.316652	3.724947E+15	0.000309	3216.997081	19.754029	1.177254	0	0
25.792325	6.33921	4.102226	64.710753	1.645356	64.12993	1.645356	3.569771E+15	0.000316	3140.36766	19.77851	1.172904	0	0
29.444685	6.235442	4.142457	64.540831	1.946181	63.838185	1.946181	3.427273E+15	0.000324	3064.378034	19.779757	1.169083	0	0
32.367853	6.238533	3.662126	64.370829	2.224811	63.549709	2.224811	3.289698E+15	0.000332	2993.113697	19.73015	1.166968	0	0
35.256911	6.232469	3.220584	64.199928	2.483966	63.263096	2.483966	3.156263E+15	0.00034	2926.241974	19.713793	1.163847	0	0
38.142256	6.229966	2.766311	64.034172	2.725456	62.984909	2.725456	3.031356E+15	0.000348	2859.008204	19.743871	1.159762	0	0
40.523909	6.32098	1.944974	63.868212	2.950373	62.709217	2.950373	2.9106E+15	0.000356	2795.364152	19.783082	1.154552	0	0
43.361778	6.315522	1.536505	63.704702	3.156057	62.440517	3.156057	2.795707E+15	0.000364	2736.649071	19.750606	1.149647	0	0
46.243518	6.302559	1.162084	63.540376	3.350131	62.172432	3.350131	2.68419E+15	0.000372	2679.660098	19.697714	1.145363	0	0
47.163144	6.294542	1.06049	63.380337	3.529109	61.912618	3.529109	2.579272E+15	0.000379	2624.76338	19.697919	1.141529	0	0
48.076525	6.277738	0.996364	63.221605	3.695964	61.656763	3.695964	2.478695E+15	0.000387	2572.201149	19.7399	1.137576	0	0
49.007675	6.258107	0.927038	63.065773	3.853537	61.405833	3.853537	2.383229E+15	0.000396	2518.912817	19.759098	1.133107	0	0
49.922887	6.229952	0.875394	62.908961	3.9987	61.156853	3.9987	2.290339E+15	0.000403	2471.191719	19.730719	1.127673	0	0
50.858345	6.19636	0.818269	62.754027	4.133303	60.912671	4.133303	2.201598E+15	0.000411	2426.168457	19.714014	1.12175	0	0
51.780177	6.150985	0.77242	62.601706	4.259612	60.673415	4.259612	2.117209E+15	0.000419	2381.680576	19.722783	1.116196	0	0
52.722399	6.093723	0.725686	62.447385	4.37664	60.434192	4.37664	2.034516E+15	0.000426	2342.331401	19.715975	1.111767	0	0
53.6416	6.02188	0.684146	62.298168	4.486606	60.20275	4.486606	1.957164E+15	0.000433	2301.844328	19.692331	1.107378	0	0
54.567603	5.924012	0.650365	62.146133	4.590219	59.969339	4.590219	1.880911E+15	0.00044	2264.678638	19.676472	1.103464	0	0
55.471485	5.80377	0.618003	61.994915	4.68764	59.738417	4.68764	1.807558E+15	0.000448	2228.878856	19.713162	1.099788	0	0
56.388005	5.649392	0.586517	61.845127	4.779138	59.510749	4.779138	1.737277E+15	0.000455	2194.216129	19.74235	1.096205	0	0
57.279446	5.457822	0.559832	61.698932	4.864953	59.289021	4.864953	1.670902E+15	0.000462	2159.608275	19.727307	1.092345	0	0
58.181105	5.210525	0.536675	61.546366	4.945385	59.060951	4.945385	1.603907E+15	0.000468	2130.911946	19.712709	1.087757	0	0
59.059582	4.909667	0.517532	61.401274	5.020023	58.843921	5.020023	1.542287E+15	0.000475	2101.25866	19.736876	1.082825	0	0
59.934126	4.544433	0.498124	61.256508	5.090419	58.628463	5.090419	1.482784E+15	0.000482	2072.941252	19.744463	1.078422	0	0
60.771813	4.115049	0.481405	61.115499	5.15694	58.418741	5.15694	1.426674E+15	0.000488	2043.810547	19.711463	1.074191	0	0
61.613784	3.600963	0.464419	60.96763	5.219893	58.201469	5.219893	1.369741E+15	0.000494	2019.681253	19.686902	1.069061	0	0
62.408468	3.03376	0.449616	60.824661	5.27818	57.991946	5.27818	1.316501E+15	0.0005	1996.252465	19.716163	1.063363	0	0
63.172948	2.40875	0.439195	60.685939	5.333082	57.788791	5.333082	1.266495E+15	0.000506	1972.132169	19.740149	1.058127	0	0
63.876899	1.756587	0.446867	60.549259	5.384672	57.589299	5.384672	1.218777E+15	0.000512	1948.812771	19.701117	1.053024	0	0
64.514971	1.109823	0.448471	60.412661	5.434137	57.390425	5.434137	1.172585E+15	0.000519	1925.370995	19.671382	1.047708	0	0
65.038171	0.54549	0.420251	60.274756	5.48032	57.191113	5.48032	1.127432E+15	0.000524	1905.16329	19.703869	1.042089	0	0
54.003417	5.985149	0.672092	60.14073	5.525551	56.996634	5.525551	1.084939E+15	0.000531	1880.706362	19.736402	1.036774	0	0
65.514444	0	0	60.004785	5.567359	56.801128	5.567359	1.043202E+15	0.000537	1860.707855	19.704822	1.031684	0	0
0	0	0	59.872393	5.607565	56.610509	5.607565	1.003843E+15	0.000543	1838.45467	19.676441	1.026051	0	0
0	0	0	59.731261	5.64488	56.410018	5.64488	9.632499E+14	0.000548	1823.853115	19.69857	1.020406	0	0
0	0	0	59.60038	5.67938	56.223705	5.67938	9.268304E+14	0.000553	1807.022484	19.726419	1.014919	0	0
0	0	0	59.469131	5.71171	56.037801	5.71171	8.914634E+14	0.000557	1792.481428	19.698268	1.009961	0	0
0	0	0	59.344784	5.742574	55.861161	5.742574	8.58997E+14	0.000563	1774.780413	19.670133	1.004632	0	0
0	0	0	59.21231	5.772411	55.674444	5.772411	8.254961E+14	0.000568	1760.848738	19.700075	0.998643	0	0
0	0	0	59.082899	5.800115	55.492576	5.800115	7.938265E+14	0.000572	1748.09174	19.725089	0.992733	0	0
0	0	0	58.956428	5.827166	55.314528	5.827166	7.638606E+14	0.000577	1732.424622	19.696104	0.987365	0	0
0	0	0	58.83106	5.852191	55.138841	5.852191	7.35093E+14	0.000581	1719.234145	19.663299	0.9816	0	0
0	0	0	58.70414	5.875712	54.961834	5.875712	7.068968E+14	0.000585	1708.65096	19.68034	0.975624	0	0
0	0	0	58.57579	5.898487	54.783196	5.898487	6.793088E+14	0.000589	1698.269958	19.712772	0.970058	0	0
0	0	0	58.458426	5.91934	54.619587	5.91934	6.548773E+14	0.000593	1685.856124	19.682965	0.964928	0	0
0	0	0	58.331996	5.940258	54.444094	5.940258	6.293881E+14	0.000597	1675.041577	19.649671	0.959613	0	0
0	0	0	58.208343	5.959329	54.27313	5.959329	6.052709E+14	0.0006	1666.802555	19.671635	0.95398	0	0
0	0	0	58.088528	5.978032	54.107111	5.978032	5.826501E+14	0.000604	1655.114883	19.705662	0.948692	0	0
0	0	0	57.964507	5.995563	53.936269	5.995563	5.599912E+14	0.000607	1647.575477	19.680153	0.943707	0	0
0	0	0	57.845264	6.011944	53.772136	6.011944	5.389131E+14	0.00061	1639.661583	19.641314	0.938894	0	0
0	0	0	57.725287	6.027336	53.607551	6.027336	5.18388E+14	0.000612	1633.906286	19.666938	0.933606	0	0
0	0	0	57.607146	6.042133	53.445563	6.042133	4.988307E+14	0.000614	1627.353577	19.705573	0.928502	0	0
0	0	0	57.491579	6.055661	53.2876	6.055661	4.803113E+14	0.000616	1623.054002	19.678108	0.923888	0	0
0	0	0	57.37352	6.069457	53.126096	6.069457	4.620024E+14	0.000619	1616.281934	19.643428	0.919181	0	0
0	0	0	57.254481	6.082432	52.963755	6.082432	4.441502E+14	0.00062	1611.693763	19.675041	0.913998	0	0
0	0	0	57.139812	6.095151	52.807079	6.095151	4.275169E+14	0.000623	1603.565441	19.695808	0.909238	0	0
0	0	0	57.022162	6.106697	52.647263	6.106697	4.110114E+14	0.000624	1601.077296	19.659144	0.90465	0	0
0	0	0	56.910025	6.11783	52.494725	6.11783	3.957945E+14	0.000627	1595.661707	19.629605	0.899851	0	0
0	0	0	56.792497	6.128361	52.335554	6.128361	3.803721E+14	0.000627	1594.431585	19.665137	0.894602	0	0
0	0	0	56.681871	6.138576	52.185401	6.138576	3.663348E+14	0.000629	1589.129697	19.689267	0.889908	0	0
0	0	0	56.567896	6.148892	52.030746	6.148892	3.523466E+14	0.000632	1582.49963	19.650351	0.885228	0	0
0	0	0	56.452737	6.157734	51.875545	6.157734	3.386889E+14	0.000631	1584.144032	19.629363	0.880362	0	0
0	0	0	56.342641	6.166618	51.726757	6.166618	3.260676E+14	0.000633	1580.578848	19.664032	0.875259	0	0
0	0	0	56.225195	6.175842	51.568124	6.175842	3.130607E+14	0.000634	1576.083595	19.683366	0.870657	0	0
0	0	0	56.120654	6.183287	51.427415	6.183287	3.018697E+14	0.000635	1575.780063	19.645016	0.866043	0	0
0	0	0	56.006352	6.191733	51.273252	6.191733	2.900396E+14	0.000637	1570.699032	19.608267	0.861416	0	0
0	0	0	55.898339	6.199155	51.127918	6.199155	2.792398E+14	0.000638	1568.147964	19.645712	0.856431	0	0
0	0	0	55.789755	6.205464	50.98263	6.205464	2.687443E+14	0.000635	1573.481858	19.671757	0.851698	0	0
0	0	0	55.682436	6.211849	50.838856	6.211849	2.587179E+14	0.000635	1575.682671	19.631954	0.847414	0	0
0	0	0	55.574505	6.218731	50.693835	6.218731	2.489727E+14	0.000636	1571.521844	19.601846	0.842601	0	0
0	0	0	55.466492	6.225251	50.548923	6.225251	2.395506E+14	0.000638	1568.502248	19.627833	0.837894	0	0
0	0	0	55.353538	6.231773	50.397548	6.231773	2.300413E+14	0.000639	1565.822142	19.647672	0.833372	0	0
0	0	0	55.246996	6.236574	50.255781	6.236574	2.213848E+14	0.000635	1575.393133	19.606021	0.829023	0	0
0	0	0	55.136778	6.243313	50.107645	6.243313	2.127404E+14	0.000639	1563.95784	19.589453	0.824474	0	0
0	0	0	55.027172	6.247833	49.962031	6.247833	2.044483E+14	0.000635	1574.725266	19.626519	0.819688	0	0
0	0	0	54.922876	6.25353	49.822289	6.25353	1.968316E+14	0.000638	1566.724264	19.637302	0.815259	0	0
0	0	0	54.812739	6.258453	49.675558	6.258453	1.890698E+14	0.000637	1569.02462	19.593358	0.811001	0	0
0	0	0	54.708851	6.262197	49.537847	6.262197	1.820054E+14	0.000633	1580.922715	19.573345	0.806546	0	0
0	0	0	54.603656	6.266952	49.397567	6.266952	1.750991E+14	0.000633	1578.602818	19.611578	0.801786	0	0
0	0	0	54.499686	6.271983	49.258595	6.271983	1.685104E+14	0.000637	1569.203374	19.604986	0.797476	0	0
0	0	0	54.393838	6.275039	49.1188	6.275039	1.620375E+14	0.00063	1586.974681	19.565068	0.79339	0	0
0	0	0	54.294033	6.27911	48.985952	6.27911	1.561451E+14	0.000631	1584.746511	19.56223	0.788816	0	0
0	0	0	54.189981	6.283712	48.847107	6.283712	1.502132E+14	0.000635	1574.362209	19.594561	0.784148	0	0
0	0	0	54.085685	6.286904	48.709105	6.286904	1.444775E+14	0.000631	1584.231924	19.587224	0.780063	0	0
0	0	0	53.986452	6.28906	48.578531	6.28906	1.392097E+14	0.000622	1607.29186	19.546755	0.775819	0	0
0	0	0	53.879419	6.293432	48.4359	6.293432	1.337285E+14	0.000627	1595.286647	19.562044	0.771218	0	0
0	0	0	53.779574	6.297077	48.303184	6.297077	1.287975E+14	0.000629	1588.946119	19.587526	0.766709	0	0
0	0	0	53.680667	6.29982	48.172443	6.29982	1.240809E+14	0.000626	1596.699416	19.545809	0.763007	0	0
0	0	0	53.571389	6.30205	48.028663	6.30205	1.190579E+14	0.000617	1619.440376	19.516954	0.758723	0	0
0	0	0	53.474484	6.304607	47.900632	6.304607	1.147639E+14	0.000615	1626.95417	19.541534	0.754188	0	0
0	0	0	53.369329	6.308399	47.760772	6.308399	1.102694E+14	0.000621	1611.357069	19.553814	0.750063	0	0
0	0	0	53.263603	6.311499	47.62075	6.311499	1.059181E+14	0.000622	1607.828448	19.518889	0.74611	0	0
0	0	0	53.166453	6.313562	47.492765	6.313562	1.02063E+14	0.000617	1620.415121	19.485238	0.742196	0	0
0	0	0	53.057746	6.315277	47.350069	6.315277	9.79068E+13	0.000607	1647.468795	19.524079	0.737714	0	0
0	0	0	52.9559	6.317443	47.215854	6.317443	9.415884E+13	0.000603	1658.27029	19.532748	0.733787	0	0
0	0	0	52.852583	6.320104	47.079257	6.320104	9.049618E+13	0.000604	1655.341606	19.486941	0.730045	0	0
0	0	0	52.746939	6.322836	46.939545	6.322836	8.689134E+13	0.000606	1649.104349	19.478262	0.725947	0	0
0	0	0	52.641621	6.325621	46.800182	6.325621	8.343407E+13	0.000611	1637.93899	19.519874	0.721584	0	0
0	0	0	52.534384	6.327139	46.659473	6.327139	8.004888E+13	0.000602	1662.007596	19.50621	0.717829	0	0
0	0	0	52.429271	6.328601	46.521561	6.328601	7.685838E+13	0.000593	1685.696402	19.454798	0.713902	0	0
0	0	0	52.319339	6.330173	46.37727	6.330173	7.365202E+13	0.000585	1708.250947	19.453642	0.709869	0	0
0	0	0	52.214838	6.332508	46.239299	6.332508	7.072325E+13	0.000588	1700.321839	19.496445	0.705638	0	0
0	0	0	52.098372	6.334739	46.085857	6.334739	6.759096E+13	0.000588	1700.512848	19.470254	0.702201	0	0
0	0	0	51.98697	6.337103	45.938843	6.337103	6.471999E+13	0.000592	1688.935103	19.416994	0.698459	0	0
0	0	0	51.874833	6.338831	45.791459	6.338831	6.19489E+13	0.000589	1698.014268	19.451975	0.694307	0	0
0	0	0	51.77025	6.340597	45.65384	6.340597	5.946789E+13	0.000589	1698.107381	19.477378	0.690513	0	0
0	0	0	51.661298	6.341652	45.511213	6.341652	5.698538E+13	0.000579	1727.994027	19.427821	0.687141	0	0
0	0	0	51.551489	6.342747	45.367422	6.342747	5.458489E+13	0.000569	1756.227477	19.397577	0.683426	0	0
0	0	0	51.448254	6.343341	45.232656	6.343341	5.241763E+13	0.000555	1801.825614	19.426916	0.679406	0	0
0	0	0	51.360904	6.344141	45.11833	6.344141	5.064922E+13	0.000547	1827.117659	19.440417	0.675797	0	0
0	0	0	51.274371	6.345106	45.004896	6.345106	4.89545E+13	0.000542	1843.394847	19.382748	0.672492	0	0
0	0	0	51.184449	6.346533	44.886591	6.346533	4.725179E+13	0.000544	1837.902899	19.373308	0.668591	0	0
0	0	0	51.091464	6.348145	44.764106	6.348145	4.555169E+13	0.000549	1822.194508	19.414709	0.664783	0	0
0	0	0	50.990353	6.349519	44.631281	6.349519	4.377056E+13	0.000549	1821.564042	19.387949	0.661544	0	0
0	0	0	50.889609	6.351073	44.498739	6.351073	4.206346E+13	0.000553	1807.485276	19.339798	0.658159	0	0
0	0	0	50.779963	6.352082	44.355157	6.352082	4.027929E+13	0.000547	1827.843303	19.353328	0.654312	0	0
0	0	0	50.668234	6.353272	44.208674	6.353272	3.853727E+13	0.000544	1836.919549	19.387603	0.65057	0	0
0	0	0	50.55234	6.354364	44.056862	6.354364	3.680812E+13	0.00054	1852.558619	19.345136	0.64737	0	0
0	0	0	50.431137	6.354982	43.898621	6.354982	3.508097E+13	0.000526	1901.75964	19.311004	0.643827	0	0
0	0	0	50.302542	6.355646	43.730715	6.355646	3.333524E+13	0.000512	1953.94147	19.340402	0.640112	0	0
0	0	0	50.179134	6.356383	43.569468	6.356383	3.174011E+13	0.000501	1996.786137	19.353759	0.636621	0	0
0	0	0	50.051111	6.35746	43.401857	6.35746	3.016447E+13	0.000496	2016.091286	19.30673	0.633501	0	0
0	0	0	49.92317	6.358585	43.234287	6.358585	2.866663E+13	0.000493	2027.921033	19.301328	0.629905	0	0
0	0	0	49.783346	6.359665	43.051297	6.359665	2.71132E+13	0.000488	2049.189773	19.335474	0.626163	0	0
0	0	0	49.645604	6.36119	42.870527	6.36119	2.566395E+13	0.000494	2023.350975	19.324076	0.623029	0	0
0	0	0	49.498429	6.362313	42.677898	6.362313	2.419968E+13	0.000491	2035.304401	19.255405	0.619896	0	0
0	0	0	49.354562	6.363587	42.489393	6.363587	2.284798E+13	0.000494	2022.835268	19.267288	0.616247	0	0
0	0	0	49.207387	6.364342	42.297131	6.364342	2.154226E+13	0.000485	2061.94966	19.30767	0.612743	0	0
0	0	0	49.061518	6.365518	42.106099	6.365518	2.032085E+13	0.000488	2048.030805	19.264368	0.609676	0	0
0	0	0	48.908014	6.366006	41.905873	6.366006	1.910934E+13	0.000472	2117.06407	19.220246	0.606291	0	0
0	0	0	48.758103	6.36649	41.710319	6.36649	1.799515E+13	0.000458	2183.991189	19.247383	0.602827	0	0
0	0	0	48.597615	6.367162	41.50079	6.367162	1.687351E+13	0.000448	2234.357025	19.25917	0.59964	0	0
0	0	0	48.4368	6.367615	41.29107	6.367615	1.581902E+13	0.000432	2315.019707	19.2028	0.596745	0	0
0	0	0	48.268921	6.367982	41.072251	6.367982	1.478779E+13	0.000414	2417.488156	19.182837	0.593479	0	0
0	0	0	48.098469	6.368515	40.849889	6.368515	1.380893E+13	0.0004	2496.89915	19.226177	0.589922	0	0
0	0	0	47.922014	6.368726	40.620078	6.368726	1.286325E+13	0.000379	2641.358429	19.20693	0.587027	0	0
0	0	0	47.740496	6.369148	40.38343	6.369148	1.195747E+13	0.000363	2757.241862	19.162296	0.584092	0	0
0	0	0	47.564041	6.36942	40.15354	6.36942	1.11377E+13	0.000345	2902.144023	19.171419	0.580733	0	0
0	0	0	47.384727	6.369932	39.919644	6.369932	1.036183E+13	0.000333	3001.78441	19.185049	0.577679	0	0
0	0	0	47.200554	6.370265	39.679627	6.370265	9.620822E+12	0.000317	3150.444431	19.141814	0.574863	0	0
0	0	0	46.999802	6.370678	39.417938	6.370678	8.873003E+12	0.000303	3305.025792	19.106702	0.571782	0	0
0	0	0	46.784062	6.371202	39.136608	6.371202	8.133697E+12	0.00029	3452.136536	19.148318	0.568345	0	0
0	0	0	46.553825	6.371448	38.83674	6.371448	7.412212E+12	0.00027	3708.896045	19.132302	0.565608	0	0
0	0	0	46.307989	6.371963	38.516241	6.371963	6.71205E+12	0.000256	3913.110125	19.069866	0.562977	0	0
0	0	0	46.052066	6.372655	38.182387	6.372655	6.053063E+12	0.000246	4066.722335	19.085708	0.559724	0	0
0	0	0	45.782667	6.373087	37.831304	6.373087	5.428911E+12	0.00023	4344.535156	19.117195	0.55663	0	0
0	0	0	45.504121	6.373567	37.468248	6.373567	4.850952E+12	0.000216	4626.740164	19.074862	0.553986	0	0
0	0	0	45.213323	6.374132	37.089129	6.374132	4.312936E+12	0.000204	4891.775006	19.017416	0.551262	0	0
0	0	0	44.911255	6.374488	36.695596	6.374488	3.817007E+12	0.000189	5304.912463	19.047096	0.548182	0	0
0	0	0	44.59322	6.375315	36.280661	6.375315	3.35623E+12	0.000184	5446.544352	19.072111	0.545339	0	0
0	0	0	44.262076	6.375646	35.849297	6.375646	2.935359E+12	0.000168	5958.868035	19.006927	0.542814	0	0
0	0	0	43.919947	6.375992	35.403606	6.375992	2.55579E+12	0.000153	6520.86103	18.990055	0.539879	0	0
0	0	0	43.570263	6.376366	34.948035	6.376366	2.218437E+12	0.000141	7110.765011	19.03228	0.536811	0	0
0	0	0	43.198977	6.376856	34.464179	6.376856	1.908788E+12	0.000131	7652.770881	18.992419	0.534431	0	0
0	0	0	42.812704	6.377345	33.960804	6.377345	1.632376E+12	0.000121	8236.362405	18.955382	0.531734	0	0
0	0	0	42.403398	6.377486	33.427924	6.377486	1.382993E+12	0.000106	9477.22203	18.990261	0.528561	0	0
0	0	0	41.992909	6.377826	32.893216	6.377826	1.171118E+12	9.521963E-5	10502.036402	18.989928	0.525983	0	0
0	0	0	41.57413	6.378301	32.347508	6.378301	9.883565E+11	8.851074E-5	11298.064406	18.921033	0.523708	0	0
0	0	0	41.140364	6.378738	31.782333	6.378738	8.290509E+11	8.18708E-5	12214.367325	18.919739	0.520734	0	0
0	0	0	40.698879	6.378909	31.207489	6.378909	6.932395E+11	7.134263E-5	14016.865	18.962708	0.517732	0	0
0	0	0	40.246206	6.379007	30.618187	6.379007	5.770451E+11	6.08421E-5	16435.98787	18.911488	0.515604	0	0
0	0	0	39.780015	6.379553	30.010602	6.379553	4.776959E+11	5.836394E-5	17133.868341	18.850734	0.512986	0	0
0	0	0	39.295162	6.37964	29.379415	6.37964	3.924671E+11	4.920082E-5	20324.864059	18.877254	0.51017	0	0
0	0	0	38.786706	6.379776	28.717428	6.379776	3.193711E+11	4.172822E-5	23964.596473	18.914165	0.50738	0	0
0	0	0	38.2475	6.380058	28.015176	6.380058	2.566674E+11	3.676518E-5	27199.646238	18.844043	0.505211	0	0
0	0	0	37.689672	6.379979	27.28926	6.379979	2.047218E+11	2.855973E-5	35014.335689	18.827593	0.502342	0	0
0	0	0	37.119144	6.380229	26.546275	6.380229	1.624495E+11	2.471533E-5	40460.72151	18.867328	0.499592	0	0
0	0	0	36.537304	6.380428	25.788639	6.380428	1.283154E+11	2.103909E-5	47530.56316	18.834349	0.497437	0	0
0	0	0	35.940641	6.380668	25.011628	6.380668	1.007458E+11	1.822392E-5	54872.927259	18.77376	0.494991	0	0
0	0	0	35.333809	6.380716	24.221702	6.380716	7.877413E+10	1.455148E-5	68721.550117	18.808014	0.491977	0	0
0	0	0	34.713501	6.381066	23.413699	6.381066	6.125844E+10	1.337264E-5	74779.57397	18.81862	0.489544	0	0
0	0	0	34.090253	6.381168	22.602294	6.381168	4.758056E+10	1.097083E-5	91150.824873	18.742384	0.487389	0	0
0	0	0	33.449691	6.381171	21.768527	6.381171	3.66981E+10	8.476686E-6	117970.632852	18.734239	0.484731	0	0
0	0	0	32.786259	6.381357	20.904655	6.381357	2.804339E+10	7.213857E-6	138622.10347	18.783801	0.481981	0	0
0	0	0	32.123727	6.38145	20.042114	6.38145	2.143754E+10	5.849456E-6	170956.07336	18.731733	0.479932	0	0
0	0	0	31.44976	6.381402	19.164957	6.381402	1.631194E+10	4.317113E-6	231636.274257	18.667556	0.477565	0	0
0	0	0	30.767503	6.381432	18.276861	6.381432	1.237019E+10	3.335684E-6	299788.582625	18.709056	0.474841	0	0
0	0	0	30.073689	6.381742	17.373162	6.381742	9.337097E+9	3.144959E-6	317969.213392	18.722649	0.472475	0	0
0	0	0	29.362438	6.381736	16.447386	6.381736	6.998049E+9	2.345359E-6	426373.910736	18.643978	0.470478	0	0
0	0	0	28.630034	6.381758	15.494019	6.381758	5.200167E+9	1.773561E-6	563837.392118	18.631534	0.467768	0	0
0	0	0	27.914944	6.381906	14.562924	6.381906	3.891402E+9	1.508797E-6	662779.496087	18.666106	0.465242	0	0
0	0	0	27.194464	6.381864	13.625206	6.381864	2.905667E+9	1.084683E-6	921927.973721	18.611481	0.463259	0	0
0	0	0	26.464102	6.381991	12.674263	6.381991	2.160953E+9	9.092535E-7	1099803.314757	18.579326	0.460879	0	0
0	0	0	25.749993	6.382125	11.744452	6.382125	1.617732E+9	7.86117E-7	1272075.249396	18.622969	0.458261	0	0
0	0	0	25.057077	6.382033	10.84272	6.382033	1.221517E+9	5.368437E-7	1862739.54862	18.603393	0.456159	0	0
0	0	0	24.396995	6.382104	9.983366	6.382104	9.347032E+8	4.434875E-7	2254854.980177	18.533475	0.453938	0	0
0	0	0	23.729235	6.382139	9.114095	6.382139	7.130107E+8	3.523335E-7	2838220.275991	18.548345	0.451452	0	0
0	0	0	23.041914	6.382237	8.219213	6.382237	5.396027E+8	3.016232E-7	3315394.997376	18.595098	0.44898	0	0
0	0	0	22.368601	6.382202	7.342872	6.382202	4.106941E+8	2.193105E-7	4559745.552995	18.522641	0.447155	0	0
0	0	0	21.696594	6.382385	6.467714	6.382385	3.127468E+8	2.176397E-7	4594750.397764	18.480354	0.444908	0	0
0	0	0	21.040023	6.382364	5.61313	6.382364	2.396544E+8	1.611452E-7	6205583.661436	18.532795	0.442237	0	0
0	0	0	20.396398	6.382287	4.775535	6.382287	1.846108E+8	1.104502E-7	9053851.283963	18.499061	0.440346	0	0
0	0	0	19.777682	6.382512	3.969621	6.382512	1.436531E+8	1.265333E-7	7903056.806291	18.438151	0.438112	0	0
0	0	0	19.184572	6.38247	3.197692	6.38247	1.129487E+8	9.139743E-8	1.094123E+7	18.467088	0.435626	0	0
0	0	0	18.630501	6.382554	2.476262	6.382554	9.022393E+7	8.719461E-8	1.14686E+7	18.457107	0.433563	0	0
0	0	0	18.110815	6.382575	1.799746	6.382575	7.308301E+7	7.423581E-8	1.347059E+7	18.381366	0.431712	0	0
0	0	0	17.598642	6.382547	1.133137	6.382547	5.937918E+7	5.64722E-8	1.770783E+7	18.388451	0.429319	0	0
0	0	0	17.091737	6.382526	0.473368	6.382526	4.834811E+7	4.388381E-8	2.278745E+7	18.432151	0.426966	0	0
0	0	0	16.600514	6.38254	-0.16608	6.38254	3.961739E+7	3.708737E-8	2.696336E+7	18.364797	0.42526	0	0
0	0	0	16.124196	6.382589	-0.78622	6.382589	3.266005E+7	3.434501E-8	2.911631E+7	18.314964	0.42292	0	0
0	0	0	15.65433	6.382709	-1.398152	6.382709	2.699503E+7	4.052523E-8	2.467598E+7	18.360043	0.420527	0	0
0	0	0	15.190059	6.382779	-2.002674	6.382779	2.23633E+7	4.485289E-8	2.229511E+7	18.336621	0.418676	0	0
0	0	0	14.742409	6.382631	-2.584972	6.382631	1.865153E+7	2.193236E-8	4.559474E+7	18.270947	0.416785	0	0
0	0	0	14.30366	6.382716	-3.156311	6.382716	1.561208E+7	2.404191E-8	4.159404E+7	18.311863	0.414247	0	0
0	0	0	13.87655	6.382617	-3.712	6.382617	1.312974E+7	1.485406E-8	6.732166E+7	18.308007	0.412343	0	0
0	0	0	13.467613	6.382681	-4.24448	6.382681	1.112375E+7	1.517287E-8	6.590711E+7	18.219359	0.410571	0	0
0	0	0	13.068517	6.38299	-4.764839	6.38299	9461917.5	-2.355679E-6	-424506.060476	18.226978	0.408297	0	0
0	0	0	12.663295	6.382828	-5.291858	6.382828	8028392.625	2.105471E-8	4.749531E+7	18.270448	0.406102	0	0
0	0	0	12.26375	6.382842	-5.81198	6.382842	6827748.625	1.963105E-8	5.093972E+7	18.207708	0.404423	0	0
0	0	0	11.87813	6.382758	-6.313696	6.382758	5839536.375	1.06397E-8	9.39876E+7	18.145762	0.402466	0	0
0	0	0	11.501535	6.382885	-6.804266	6.382885	5012660.625	2.0271E-8	4.933155E+7	18.199985	0.400033	0	0
0	0	0	11.133067	6.382758	-7.283532	6.382758	4317070.375	7.865762E-9	1.271333E+8	18.171217	0.398341	0	0
0	0	0	10.766313	6.382906	-7.761357	6.382906	3720591.25	1.88842E-8	5.295433E+7	18.100084	0.39645	0	0
0	0	0	10.414465	6.382955	-8.219498	6.382955	3225962.25	4.04523E-8	2.472048E+7	18.121475	0.39407	0	0
0	0	0	10.075971	6.382814	-8.6597	6.382814	2812275.625	6.779586E-9	1.475016E+8	18.111275	0.392153	0	0
0	0	0	9.766144	6.382892	-9.063226	6.382892	2480299.625	1.075923E-8	9.294346E+7	18.039324	0.390421	0	0
0	0	0	9.472733	6.382941	-9.445301	6.382941	2202120	1.944414E-8	5.142939E+7	18.060222	0.388319	0	0
0	0	0	9.191573	6.382927	-9.811243	6.382927	1964875	1.338832E-8	7.469199E+7	18.107791	0.38627	0	0
0	0	0	8.931607	6.383075	-10.150079	6.383075	1768319.375	-8.623375E-9	-1.159639E+8	18.041339	0.38467	0	0
0	0	0	8.667803	6.382842	-10.492776	6.382842	1588951.25	4.568562E-9	2.188873E+8	18.013576	0.382541	0	0
0	0	0	8.40604	6.38299	-10.833954	6.38299	1428959.625	-3.554283E-7	-2813506.650148	18.051313	0.38036	0	0
0	0	0	8.137703	6.382997	-11.183268	6.382997	1281656.625	-6.16957E-8	-1.620859E+7	17.990384	0.378971	0	0
0	0	0	7.87545	6.382976	-11.524576	6.382976	1152377.625	3.908175E-8	2.558739E+7	17.948541	0.377081	0	0
0	0	0	7.602335	6.382821	-11.879616	6.382821	1031585.625	2.591525E-9	3.858732E+8	17.985122	0.374886	0	0
0	0	0	7.337224	6.383075	-12.225483	6.383075	926456.625	-4.517946E-9	-2.213395E+8	17.953765	0.373365	0	0
0	0	0	7.081505	6.382885	-12.557767	6.382885	835215.75	3.377605E-9	2.960678E+8	17.873422	0.371699	0	0
0	0	0	6.83085	6.38292	-12.88415	6.38292	754508	4.614349E-9	2.167153E+8	17.911214	0.369452	0	0
0	0	0	6.610905	6.382997	-13.170691	6.382997	690138.5	-3.322115E-8	-3.010131E+7	17.914773	0.367759	0	0
0	0	0	6.407293	6.383131	-13.436146	6.383131	635455	-1.874008E-9	-5.336158E+8	17.826425	0.366358	0	0
0	0	0	6.200742	6.383032	-13.704707	6.383032	584407.25	-5.590214E-9	-1.78884E+8	17.833966	0.364308	0	0
0	0	0	6.009259	6.383082	-13.954113	6.383082	540754	-2.43786E-9	-4.101958E+8	17.858911	0.362312	0	0
0	0	0	5.825862	6.383004	-14.192598	6.383004	502004.375	-1.337693E-8	-7.475556E+7	17.765647	0.361096	0	0
0	0	0	5.558627	6.382976	-14.540368	6.382976	450457.125	1.527701E-8	6.545784E+7	17.768135	0.359099	0	0
0	0	0	5.431217	6.383011	-14.706327	6.383011	427778.875	-7.880807E-9	-1.268906E+8	17.821725	0.357169	0	0
0	0	0	5.50411	6.382969	-14.61131	6.382969	440609.875	9.528893E-9	1.04944E+8	17.732395	0.355833	0	0
0	0	0	5.738104	6.383025	-14.306898	6.383025	484457.125	-5.518498E-9	-1.812087E+8	17.687073	0.354115	0	0
0	0	0	5.849915	6.383025	-14.161355	6.383025	506923.875	-5.77442E-9	-1.731776E+8	17.737252	0.352078	0	0
0	0	0	5.88532	6.382913	-14.114916	6.382913	514253	2.852735E-9	3.505408E+8	17.702329	0.350664	0	0
0	0	0	5.878745	6.382955	-14.123606	6.382955	512884	6.43145E-9	1.554859E+8	17.649743	0.349024	0	0
0	0	0	5.83746	6.383046	-14.177634	6.383046	504370.5	-3.653587E-9	-2.737036E+8	17.686285	0.347015	0	0
0	0	0	5.802381	6.383025	-14.22323	6.383025	497248	-5.664203E-9	-1.765473E+8	17.640692	0.345626	0	0
0	0	0	5.739493	6.382955	-14.30487	6.382955	484729.875	6.078403E-9	1.645169E+8	17.562203	0.344132	0	0
0	0	0	5.67738	6.383025	-14.385943	6.383025	472675.625	-5.384296E-9	-1.857253E+8	17.603174	0.342109	0	0
0	0	0	5.616493	6.38311	-14.465465	6.38311	461150	-1.596621E-9	-6.263227E+8	17.60221	0.340655	0	0
0	0	0	5.556463	6.383145	-14.543716	6.383145	450062	-1.20791E-9	-8.278764E+8	17.519652	0.339214	0	0
0	0	0	5.489654	6.383089	-14.630504	6.383089	438035	-1.836098E-9	-5.446334E+8	17.537997	0.337257	0	0
0	0	0	5.416148	6.382955	-14.725765	6.382955	425173.375	5.331578E-9	1.875617E+8	17.54046	0.335591	0	0
0	0	0	5.339131	6.382962	-14.82604	6.382962	412102.125	6.542046E-9	1.528574E+8	17.431725	0.334282	0	0
0	0	0	5.253823	6.382885	-14.93684	6.382885	398092.625	1.609884E-9	6.211628E+8	17.458047	0.332444	0	0
0	0	0	5.168311	6.382871	-15.048105	6.382871	384527.5	1.369463E-9	7.302134E+8	17.499475	0.330686	0	0
0	0	0	5.087373	6.383131	-15.154286	6.383131	372114	-1.097394E-9	-9.112501E+8	17.412807	0.329403	0	0
0	0	0	4.998758	6.383025	-15.269302	6.383025	358982.125	-4.089202E-9	-2.445465E+8	17.40099	0.327618	0	0
0	0	0	4.906508	6.382913	-15.389025	6.382913	345803.625	1.918289E-9	5.212979E+8	17.439298	0.32586	0	0
0	0	0	4.810869	6.383166	-15.514324	6.383166	332651.625	-7.866784E-10	-1.271168E+9	17.338397	0.324749	0	0
0	0	0	4.712493	6.383053	-15.642021	6.383053	319645	-2.064871E-9	-4.842918E+8	17.327682	0.322964	0	0
0	0	0	4.616527	6.383011	-15.766805	6.383011	307447.125	-5.663991E-9	-1.765539E+8	17.387613	0.321127	0	0
0	0	0	4.516192	6.382941	-15.897186	6.382941	295191.25	2.606475E-9	3.836599E+8	17.298119	0.31999	0	0
0	0	0	4.409812	6.383187	-16.036447	6.383187	282730.375	-5.975919E-10	-1.673383E+9	17.256293	0.318429	0	0
0	0	0	4.320339	6.383103	-16.152644	6.383103	272658	-1.002142E-9	-9.978629E+8	17.323471	0.316552	0	0
0	0	0	4.23834	6.383025	-16.259134	6.383025	263742.375	-3.004316E-9	-3.328545E+8	17.252128	0.315468	0	0
0	0	0	4.152869	6.383075	-16.37055	6.383075	254759.5	-1.242356E-9	-8.049226E+8	17.192469	0.313974	0	0
0	0	0	4.074217	6.383004	-16.472704	6.383004	246763.875	-6.575529E-9	-1.52079E+8	17.246336	0.311977	0	0
0	0	0	3.992871	6.383032	-16.578682	6.383032	238758.125	-2.283866E-9	-4.378541E+8	17.160502	0.311038	0	0
0	0	0	3.917527	6.383046	-16.676802	6.383046	231575.125	-1.677497E-9	-5.961264E+8	17.105913	0.309544	0	0
0	0	0	3.83128	6.383075	-16.78916	6.383075	223617.5	-1.090489E-9	-9.170198E+8	17.162934	0.307839	0	0
0	0	0	3.751486	6.382864	-16.892346	6.382864	216498.875	7.276282E-10	1.374328E+9	17.129791	0.306398	0	0
0	0	0	3.672508	6.383061	-16.995789	6.383061	209676.375	-1.222212E-9	-8.181888E+8	17.070055	0.305102	0	0
0	0	0	3.588629	6.382927	-17.10454	6.382927	202665.75	1.380934E-9	7.241473E+8	17.120895	0.303277	0	0
0	0	0	3.506099	6.383131	-17.212631	6.383131	195996.625	-5.780095E-10	-1.730075E+9	17.072393	0.302021	0	0
0	0	0	3.426386	6.383025	-17.316051	6.383025	189763.5	-2.161615E-9	-4.626171E+8	16.981404	0.300845	0	0
0	0	0	3.345529	6.383293	-17.422171	6.383293	183643.5	-2.535051E-10	-3.944693E+9	17.030562	0.298994	0	0
0	0	0	3.258588	6.383236	-17.535159	6.383236	177283.125	-3.002814E-10	-3.33021E+9	17.002301	0.297883	0	0
0	0	0	3.179855	6.383173	-17.63744	6.383173	171713.375	-3.906044E-10	-2.560135E+9	16.923261	0.296574	0	0
0	0	0	3.092506	6.383124	-17.750982	6.383124	165738.625	-5.141805E-10	-1.944843E+9	16.967122	0.294829	0	0
0	0	0	2.991231	6.383075	-17.88265	6.383075	159071.25	-7.757239E-10	-1.289118E+9	16.914925	0.293731	0	0
0	0	0	2.897634	6.383229	-18.004992	6.383229	153147.875	-2.669772E-10	-3.745639E+9	16.82872	0.292422	0	0
0	0	0	2.802484	6.383194	-18.128733	6.383194	147352.5	-3.007994E-10	-3.324474E+9	16.901661	0.290585	0	0
0	0	0	2.704191	6.383075	-18.25629	6.383075	141595.75	-6.905032E-10	-1.448219E+9	16.878825	0.289567	0	0
0	0	0	2.613901	6.383166	-18.37412	6.383166	136506.125	-3.228194E-10	-3.097707E+9	16.804135	0.288297	0	0
0	0	0	2.519568	6.383194	-18.497006	6.383194	131383.875	-2.682017E-10	-3.728537E+9	16.849437	0.286526	0	0
0	0	0	2.41813	6.383075	-18.628654	6.383075	126090.125	-6.148888E-10	-1.62631E+9	16.790064	0.285481	0	0
0	0	0	2.323022	6.383166	-18.752758	6.383166	121320.625	-2.869077E-10	-3.485442E+9	16.689511	0.284331	0	0
0	0	0	2.224116	6.383075	-18.881202	6.383075	116552	-5.683753E-10	-1.759401E+9	16.743501	0.282652	0	0
0	0	0	2.118022	6.383335	-19.020165	6.383335	111644.875	-1.353373E-10	-7.388944E+9	16.714098	0.281567	0	0
0	0	0	2.023118	6.383103	-19.142934	6.383103	107430.625	-3.948562E-10	-2.532568E+9	16.641611	0.280377	0	0
0	0	0	1.918413	6.383138	-19.279345	6.383138	102965.625	-2.893574E-10	-3.455933E+9	16.715299	0.278579	0	0
0	0	0	1.819262	6.383173	-19.408527	6.383173	98908.5	-2.249918E-10	-4.444607E+9	16.656383	0.277641	0	0
0	0	0	1.727747	6.383229	-19.527839	6.383229	95305.875	-1.661433E-10	-6.018901E+9	16.565177	0.276292	0	0
0	0	0	1.624063	6.383208	-19.662735	6.383208	91382.625	-1.746021E-10	-5.727308E+9	16.634701	0.274758	0	0
0	0	0	1.517153	6.383236	-19.801994	6.383236	87506.25	-1.482177E-10	-6.746833E+9	16.589459	0.27378	0	0
0	0	0	1.413999	6.383046	-19.935634	6.383046	83922	-6.079187E-10	-1.644957E+9	16.532288	0.272511	0	0
0	0	0	1.301617	6.383194	-20.082416	6.383194	80184	-1.636844E-10	-6.109319E+9	16.58469	0.270911	0	0
0	0	0	1.196749	6.38311	-20.218641	6.38311	76846.25	-2.660617E-10	-3.758527E+9	16.501255	0.269985	0	0
0	0	0	1.086082	6.383279	-20.363263	6.383279	73474.5	-1.063445E-10	-9.403405E+9	16.433213	0.268703	0	0
0	0	0	0.976517	6.383236	-20.505742	6.383236	70282.125	-1.190435E-10	-8.400287E+9	16.498108	0.266997	0	0
0	0	0	0.859194	6.383405	-20.659032	6.383405	67017.25	-6.75256E-11	-1.48092E+10	16.423112	0.26627	0	0
0	0	0	0.750037	6.383159	-20.800291	6.383159	64116	-1.578813E-10	-6.333873E+9	16.38864	0.264935	0	0
0	0	0	0.655664	6.382997	-20.92259	6.382997	61709.125	-2.970466E-9	-3.366475E+8	16.439839	0.26348	0	0
0	0	0	0.591183	6.383053	-21.006715	6.383053	60116.875	-3.883482E-10	-2.575009E+9	16.337449	0.262687	0	0
0	0	0	0.538381	6.382969	-21.075161	6.382969	58843.625	1.272586E-9	7.858014E+8	16.302213	0.261365	0	0
0	0	0	0.514655	6.383131	-21.106593	6.383131	58280.25	-1.71873E-10	-5.818248E+9	16.357863	0.259884	0	0
0	0	0	0.481333	6.383229	-21.150302	6.383229	57498.125	-1.002344E-10	-9.976615E+9	16.253241	0.259117	0	0
0	0	0	0.455606	6.38325	-21.183863	6.38325	56901.5	-9.120338E-11	-1.096451E+10	16.251288	0.257623	0	0
0	0	0	0.44703	6.383117	-21.194573	6.383117	56704	-1.855606E-10	-5.389075E+9	16.288412	0.256314	0	0
0	0	0	0.439843	6.382983	-21.203475	6.382983	56539	4.440495E-9	2.252001E+8	16.169011	0.255534	0	0
0	0	0	0.423222	6.383032	-21.225277	6.383032	56159.25	-5.37197E-10	-1.861514E+9	16.178825	0.253934	0	0
0	0	0	0.407173	6.383145	-21.24655	6.383145	55795.125	-1.497471E-10	-6.677927E+9	16.196416	0.252744	0	0
0	0	0	0.391247	6.383243	-21.267615	6.383243	55436	-9.130626E-11	-1.095215E+10	16.093552	0.251872	0	0
0	0	0	0.382957	6.38318	-21.278191	6.38318	55250	-1.21066E-10	-8.25996E+9	16.126103	0.250457	0	0
0	0	0	0.377812	6.383117	-21.284674	6.383117	55134.875	-1.804257E-10	-5.542447E+9	16.110014	0.249531	0	0
0	0	0	0.374708	6.383173	-21.288905	6.383173	55065.5	-1.252601E-10	-7.98339E+9	16.026509	0.248553	0	0
0	0	0	0.372381	6.383068	-21.291577	6.383068	55013.625	-2.921466E-10	-3.422939E+9	16.075647	0.247006	0	0
0	0	0	0.370339	6.383194	-21.294664	6.383194	54968	-1.122095E-10	-8.911905E+9	15.981895	0.246266	0	0
0	0	0	0.367684	6.383011	-21.297499	6.383011	54908.875	-1.011566E-9	-9.885658E+8	15.912352	0.244944	0	0
0	0	0	0.364132	6.383075	-21.302338	6.383075	54829.875	-2.673823E-10	-3.739963E+9	15.971573	0.243595	0	0
0	0	0	0.360252	6.383342	-21.308295	6.383342	54743.75	-6.504019E-11	-1.537511E+10	15.896243	0.242775	0	0
0	0	0	0.355229	6.383152	-21.314189	6.383152	54632.375	-1.403172E-10	-7.126711E+9	15.888799	0.241559	0	0
0	0	0	0.352166	6.383166	-21.318224	6.383166	54564.5	-1.29038E-10	-7.749654E+9	15.942503	0.240369	0	0
0	0	0	0.348736	6.383046	-21.322283	6.383046	54488.75	-3.947085E-10	-2.533515E+9	15.817684	0.239655	0	0
0	0	0	0.343917	6.383321	-21.329487	6.383321	54382.375	-6.871399E-11	-1.455308E+10	15.803785	0.238306	0	0
0	0	0	0.339425	6.383166	-21.334809	6.383166	54283.375	-1.283732E-10	-7.789788E+9	15.835988	0.237143	0	0
0	0	0	0.335832	6.383187	-21.339558	6.383187	54204.375	-1.145688E-10	-8.728377E+9	15.728508	0.236442	0	0
0	0	0	0.333994	6.383215	-21.342046	6.383215	54164	-1.002796E-10	-9.972119E+9	15.770874	0.234922	0	0
0	0	0	0.332402	6.38311	-21.343761	6.38311	54129	-1.874086E-10	-5.335933E+9	15.757523	0.234168	0	0
0	0	0	0.327991	6.38299	-21.349096	6.38299	54032.375	-1.343816E-8	-7.441497E+7	15.67059	0.23311	0	0
0	0	0	0.324969	6.383032	-21.353172	6.383032	53966.25	-5.162196E-10	-1.93716E+9	15.707377	0.231801	0	0
0	0	0	0.323009	6.383236	-21.356417	6.383236	53923.375	-9.133517E-11	-1.094869E+10	15.622508	0.231034	0	0
0	0	0	0.31917	6.383236	-21.361413	6.383236	53839.5	-9.11931E-11	-1.096574E+10	15.536001	0.230162	0	0
0	0	0	0.319906	6.383286	-21.360624	6.383286	53855.5	-7.610322E-11	-1.314005E+10	15.638115	0.228602	0	0
0	0	0	0.315822	6.38311	-21.365342	6.38311	53766.375	-1.861531E-10	-5.371921E+9	15.514863	0.228073	0	0
0	0	0	0.315618	6.38318	-21.365847	6.38318	53762	-1.178054E-10	-8.488575E+9	15.515249	0.22683	0	0
0	0	0	0.314801	6.383222	-21.367053	6.383222	53744.125	-9.650879E-11	-1.036175E+10	15.557767	0.225732	0	0
0	0	0	0.315209	6.383293	-21.366761	6.383293	53753	-7.420171E-11	-1.347678E+10	15.430189	0.225071	0	0
0	0	0	0.313372	6.383243	-21.368986	6.383243	53713	-8.846838E-11	-1.130347E+10	15.460108	0.223643	0	0
0	0	0	0.314107	6.383363	-21.368435	6.383363	53729	-6.023759E-11	-1.660093E+10	15.441548	0.222771	0	0
0	0	0	0.310717	6.382983	-21.371557	6.382983	53655.25	4.214009E-9	2.373037E+8	15.324459	0.222149	0	0
0	0	0	0.310513	6.383194	-21.372539	6.383194	53650.875	-1.095207E-10	-9.130692E+9	15.410561	0.220669	0	0
0	0	0	0.30843	6.383061	-21.374797	6.383061	53605.5	-3.124685E-10	-3.200322E+9	15.323468	0.22006	0	0
0	0	0	0.307818	6.383328	-21.376502	6.383328	53592.25	-6.631191E-11	-1.508025E+10	15.280711	0.218923	0	0
0	0	0	0.306756	6.383075	-21.377024	6.383075	53569.125	-2.612342E-10	-3.827983E+9	15.335374	0.217667	0	0
0	0	0	0.305041	6.383096	-21.379328	6.383096	53531.875	-2.096642E-10	-4.769531E+9	15.189318	0.217244	0	0
0	0	0	0.304755	6.383201	-21.380058	6.383201	53525.75	-1.05652E-10	-9.465033E+9	15.248162	0.215829	0	0
0	0	0	0.303326	6.383293	-21.38223	6.383293	53494.75	-7.384521E-11	-1.354184E+10	15.220213	0.21493	0	0
0	0	0	0.302713	6.383117	-21.38243	6.383117	53481.5	-1.750151E-10	-5.713791E+9	15.100835	0.214269	0	0
0	0	0	0.302468	6.38318	-21.382964	6.38318	53476.125	-1.17179E-10	-8.533954E+9	15.181726	0.212894	0	0
0	0	0	0.301815	6.383271	-21.384125	6.383271	53462	-7.930199E-11	-1.261002E+10	15.128199	0.212246	0	0
0	0	0	0.301774	6.383243	-21.384082	6.383243	53461	-8.805333E-11	-1.135675E+10	15.062269	0.211242	0	0
0	0	0	0.301121	6.383124	-21.384527	6.383124	53446.875	-1.658113E-10	-6.030952E+9	15.104416	0.210065	0	0
0	0	0	0.300835	6.383236	-21.385281	6.383236	53440.75	-9.05177E-11	-1.104756E+10	14.966631	0.209589	0	0
0	0	0	0.300386	6.383215	-21.385794	6.383215	53431	-9.892251E-11	-1.010892E+10	14.982111	0.208227	0	0
0	0	0	0.300141	6.383018	-21.385444	6.383018	53425.625	-7.521087E-10	-1.329595E+9	14.962586	0.20754	0	0
0	0	0	0.300059	6.383032	-21.385598	6.383032	53423.875	-5.110315E-10	-1.956827E+9	14.886425	0.206667	0	0
0	0	0	0.299446	6.383061	-21.386491	6.383061	53410.625	-3.113326E-10	-3.211999E+9	14.962194	0.205398	0	0
0	0	0	0.298875	6.383243	-21.387856	6.383243	53398.25	-8.794997E-11	-1.13701E+10	14.86166	0.204908	0	0
0	0	0	0.29863	6.383236	-21.388151	6.383236	53392.875	-9.043661E-11	-1.105747E+10	14.83822	0.203956	0	0
0	0	0	0.296874	6.383131	-21.390079	6.383131	53354.875	-1.573477E-10	-6.355351E+9	14.885886	0.202952	0	0
0	0	0	0.296915	6.383152	-21.390097	6.383152	53355.875	-1.370386E-10	-7.297213E+9	14.756737	0.202304	0	0
0	0	0	0.29622	6.383271	-21.391407	6.383271	53340.875	-7.912232E-11	-1.263866E+10	14.798085	0.201061	0	0
0	0	0	0.295567	6.383173	-21.391923	6.383173	53326.75	-1.213048E-10	-8.243694E+9	14.737733	0.200466	0	0
0	0	0	0.29524	6.383187	-21.392396	6.383187	53319.625	-1.126988E-10	-8.873209E+9	14.660329	0.19958	0	0
0	0	0	0.294505	6.383194	-21.393377	6.383194	53303.75	-1.088121E-10	-9.190153E+9	14.737082	0.19839	0	0
0	0	0	0.295485	6.383117	-21.391838	6.383117	53325	-1.74503E-10	-5.73056E+9	14.617294	0.198046	0	0
0	0	0	0.294179	6.383229	-21.393922	6.383229	53296.625	-9.291008E-11	-1.07631E+10	14.642067	0.196751	0	0
0	0	0	0.294832	6.383117	-21.392689	6.383117	53310.75	-1.744564E-10	-5.732092E+9	14.611481	0.19605	0	0
0	0	0	0.294342	6.383257	-21.393805	6.383257	53300.25	-8.319711E-11	-1.201965E+10	14.493242	0.195376	0	0
0	0	0	0.296098	6.383166	-21.391208	6.383166	53338.125	-1.261378E-10	-7.927837E+9	14.587925	0.19404	0	0
0	0	0	0.296179	6.383068	-21.390767	6.383068	53339.875	-2.832582E-10	-3.530347E+9	14.467547	0.193617	0	0
0	0	0	0.295934	6.383236	-21.39166	6.383236	53334.625	-9.033795E-11	-1.106955E+10	14.461652	0.192546	0	0
0	0	0	0.295975	6.383243	-21.391631	6.383243	53335.5	-8.784662E-11	-1.138348E+10	14.473608	0.191845	0	0
0	0	0	0.295894	6.383194	-21.39157	6.383194	53333.75	-1.088734E-10	-9.184983E+9	14.341701	0.191158	0	0
0	0	0	0.29667	6.383166	-21.390464	6.383166	53350.5	-1.261671E-10	-7.925998E+9	14.421358	0.189889	0	0
0	0	0	0.296792	6.383068	-21.38997	6.383068	53353.125	-2.833286E-10	-3.529471E+9	14.335876	0.189532	0	0
0	0	0	0.296751	6.383384	-21.391099	6.383384	53352.375	-5.662462E-11	-1.766016E+10	14.303269	0.188487	0	0
0	0	0	0.297445	6.383243	-21.389717	6.383243	53367.25	-8.789891E-11	-1.13767E+10	14.334133	0.187562	0	0
0	0	0	0.296057	6.383138	-21.391166	6.383138	53337.25	-1.498901E-10	-6.671554E+9	14.188521	0.187178	0	0
0	0	0	0.297078	6.383053	-21.38955	6.383053	53359.375	-3.446955E-10	-2.901111E+9	14.262607	0.185896	0	0
0	0	0	0.296588	6.383166	-21.39057	6.383166	53348.75	-1.261629E-10	-7.926258E+9	14.173774	0.185446	0	0
0	0	0	0.296547	6.38318	-21.390671	6.38318	53347.875	-1.168979E-10	-8.55447E+9	14.134755	0.184481	0	0
0	0	0	0.296915	6.38311	-21.389954	6.38311	53355.875	-1.847319E-10	-5.413251E+9	14.176971	0.183569	0	0
0	0	0	0.298344	6.383243	-21.388547	6.383243	53386.75	-8.793103E-11	-1.137255E+10	14.058399	0.183	0	0
0	0	0	0.298262	6.38325	-21.388678	6.38325	53385	-8.556703E-11	-1.168674E+10	14.09542	0.181837	0	0
0	0	0	0.298834	6.383243	-21.38791	6.383243	53397.375	-8.794853E-11	-1.137029E+10	13.991682	0.181585	0	0
0	0	0	0.298058	6.383201	-21.388776	6.383201	53380.625	-1.053656E-10	-9.490766E+9	13.982086	0.180475	0	0
0	0	0	0.297241	6.383089	-21.389457	6.383089	53362.875	-2.236795E-10	-4.470683E+9	14.012406	0.179642	0	0
0	0	0	0.296874	6.383264	-21.390533	6.383264	53354.875	-8.115999E-11	-1.232134E+10	13.851534	0.179232	0	0
0	0	0	0.296261	6.383236	-21.391235	6.383236	53341.75	-9.035002E-11	-1.106807E+10	13.924931	0.178068	0	0
0	0	0	0.295567	6.383103	-21.391684	6.383103	53326.75	-1.96E-10	-5.102042E+9	13.831177	0.177685	0	0
0	0	0	0.295812	6.383215	-21.391748	6.383215	53332	-9.873922E-11	-1.012769E+10	13.822385	0.17668	0	0
0	0	0	0.294097	6.383271	-21.394171	6.383271	53294.875	-7.905409E-11	-1.264957E+10	13.809134	0.176046	0	0
0	0	0	0.292382	6.383321	-21.396571	6.383321	53257.875	-6.729314E-11	-1.486035E+10	13.701378	0.175398	0	0
0	0	0	0.292708	6.383293	-21.39605	6.383293	53264.875	-7.352789E-11	-1.360028E+10	13.806069	0.174287	0	0
0	0	0	0.290217	6.38318	-21.398911	6.38318	53211.125	-1.165983E-10	-8.576455E+9	13.664144	0.17397	0	0
0	0	0	0.289237	6.3833	-21.400593	6.3833	53190	-7.176484E-11	-1.39344E+10	13.714986	0.172872	0	0
0	0	0	0.289196	6.383131	-21.400072	6.383131	53189.125	-1.568589E-10	-6.375156E+9	13.675483	0.172238	0	0
0	0	0	0.288216	6.383117	-21.4013	6.383117	53168	-1.739892E-10	-5.747482E+9	13.581185	0.171616	0	0
0	0	0	0.288502	6.383096	-21.400857	6.383096	53174.125	-2.082631E-10	-4.80162E+9	13.634863	0.170611	0	0
0	0	0	0.28789	6.383236	-21.402132	6.383236	53161	-9.004386E-11	-1.11057E+10	13.493531	0.170122	0	0
0	0	0	0.286624	6.383328	-21.40409	6.383328	53133.75	-6.574459E-11	-1.521038E+10	13.528583	0.16925	0	0
0	0	0	0.285072	6.383236	-21.4058	6.383236	53100.25	-8.994096E-11	-1.11184E+10	13.435977	0.168866	0	0
0	0	0	0.284092	6.383145	-21.406765	6.383145	53079.125	-1.424577E-10	-7.019629E+9	13.411249	0.167861	0	0
0	0	0	0.283684	6.383152	-21.40732	6.383152	53070.375	-1.363054E-10	-7.336469E+9	13.436072	0.167161	0	0
0	0	0	0.282254	6.383194	-21.409324	6.383194	53039.625	-1.082729E-10	-9.235918E+9	13.287483	0.166764	0	0
0	0	0	0.279682	6.383075	-21.412267	6.383075	52984.375	-2.583826E-10	-3.87023E+9	13.384366	0.16568	0	0
0	0	0	0.278701	6.383032	-21.413399	6.383032	52963.25	-5.066253E-10	-1.973845E+9	13.260529	0.165455	0	0
0	0	0	0.276333	6.383236	-21.417175	6.383236	52912.5	-8.962295E-11	-1.115786E+10	13.295522	0.164252	0	0
0	0	0	0.275312	6.383089	-21.418002	6.383089	52890.625	-2.216999E-10	-4.510601E+9	13.233196	0.163948	0	0
0	0	0	0.275516	6.383215	-21.418167	6.383215	52894.875	-9.792993E-11	-1.021138E+10	13.179518	0.163154	0	0
0	0	0	0.276864	6.3833	-21.416699	6.3833	52923.875	-7.140578E-11	-1.400447E+10	13.213912	0.162269	0	0
0	0	0	0.27813	6.383307	-21.415075	6.383307	52951	-6.986319E-11	-1.431369E+10	13.062798	0.161779	0	0
0	0	0	0.278456	6.383131	-21.414053	6.383131	52958	-1.561773E-10	-6.402979E+9	13.150964	0.160788	0	0
0	0	0	0.280008	6.383264	-21.412487	6.383264	52991.375	-8.060706E-11	-1.240586E+10	13.009995	0.160589	0	0
0	0	0	0.281642	6.383243	-21.410289	6.383243	53026.5	-8.733768E-11	-1.144981E+10	13.038583	0.15936	0	0
0	0	0	0.281764	6.383222	-21.410058	6.383222	53029.125	-9.522485E-11	-1.050146E+10	12.960868	0.159135	0	0
0	0	0	0.283153	6.38325	-21.408346	6.38325	53059	-8.504451E-11	-1.175855E+10	12.917064	0.158408	0	0
0	0	0	0.283438	6.383222	-21.407878	6.383222	53065.125	-9.52895E-11	-1.049434E+10	12.936796	0.157575	0	0
0	0	0	0.284868	6.383405	-21.406639	6.383405	53095.875	-5.349862E-11	-1.869207E+10	12.790846	0.157165	0	0
0	0	0	0.285684	6.383187	-21.404835	6.383187	53113.5	-1.122631E-10	-8.907645E+9	12.887966	0.15616	0	0
0	0	0	0.287114	6.38325	-21.40319	6.38325	53144.25	-8.518115E-11	-1.173969E+10	12.767055	0.15583	0	0
0	0	0	0.286869	6.383229	-21.403437	6.383229	53139	-9.26353E-11	-1.079502E+10	12.852926	0.154653	0	0
0	0	0	0.28646	6.383257	-21.404064	6.383257	53130.125	-8.293156E-11	-1.205814E+10	12.726728	0.154521	0	0
0	0	0	0.287195	6.383039	-21.402366	6.383039	53146	-4.381561E-10	-2.282291E+9	12.728958	0.153608	0	0
0	0	0	0.286501	6.383173	-21.403724	6.383173	53131	-1.208596E-10	-8.274066E+9	12.730581	0.15304	0	0
0	0	0	0.286746	6.38318	-21.403429	6.38318	53136.25	-1.164342E-10	-8.58854E+9	12.628182	0.152471	0	0
0	0	0	0.288461	6.383152	-21.401101	6.383152	53173.25	-1.365696E-10	-7.322275E+9	12.670314	0.151691	0	0
0	0	0	0.288747	6.383145	-21.400705	6.383145	53179.375	-1.427267E-10	-7.006396E+9	12.549133	0.151268	0	0
0	0	0	0.291197	6.383335	-21.398161	6.383335	53232.25	-6.452881E-11	-1.549695E+10	12.622958	0.15021	0	0
0	0	0	0.291442	6.383257	-21.397579	6.383257	53237.625	-8.309936E-11	-1.203379E+10	12.450183	0.150131	0	0
0	0	0	0.292382	6.383215	-21.396213	6.383215	53257.875	-9.860199E-11	-1.014178E+10	12.498161	0.14914	0	0
0	0	0	0.29181	6.383194	-21.396885	6.383194	53245.5	-1.086932E-10	-9.200207E+9	12.3971	0.148822	0	0
0	0	0	0.291442	6.382976	-21.396623	6.382976	53237.625	1.805522E-9	5.538563E+8	12.392729	0.14787	0	0
0	0	0	0.290013	6.383117	-21.398961	6.383117	53206.75	-1.74116E-10	-5.743296E+9	12.37201	0.147447	0	0
0	0	0	0.290993	6.383138	-21.397757	6.383138	53227.875	-1.495827E-10	-6.685263E+9	12.301165	0.146786	0	0
0	0	0	0.289482	6.383075	-21.399509	6.383075	53195.25	-2.59411E-10	-3.854887E+9	12.317414	0.146099	0	0
0	0	0	0.287726	6.383082	-21.401819	6.383082	53157.5	-2.396478E-10	-4.17279E+9	12.214769	0.145649	0	0
0	0	0	0.286991	6.383279	-21.403445	6.383279	53141.625	-7.691535E-11	-1.300131E+10	12.294097	0.144856	0	0
0	0	0	0.284133	6.383082	-21.406497	6.383082	53080.125	-2.39299E-10	-4.178873E+9	12.129411	0.144591	0	0
0	0	0	0.283643	6.383138	-21.407326	6.383138	53069.5	-1.491377E-10	-6.705214E+9	12.231951	0.14356	0	0
0	0	0	0.28352	6.383243	-21.407844	6.383243	53066.875	-8.740418E-11	-1.14411E+10	12.093744	0.143494	0	0
0	0	0	0.280131	6.383159	-21.411969	6.383159	52994	-1.304941E-10	-7.66318E+9	12.138905	0.142449	0	0
0	0	0	0.281683	6.383222	-21.410164	6.383222	53027.375	-9.522171E-11	-1.050181E+10	12.057984	0.142145	0	0
0	0	0	0.280008	6.383159	-21.412128	6.383159	52991.375	-1.304877E-10	-7.66356E+9	12.031394	0.141378	0	0
0	0	0	0.277926	6.383194	-21.414959	6.383194	52946.625	-1.080831E-10	-9.25214E+9	11.992756	0.140982	0	0
0	0	0	0.278089	6.383103	-21.414435	6.383103	52950.125	-1.946157E-10	-5.138332E+9	11.942749	0.140281	0	0
0	0	0	0.27764	6.383131	-21.415116	6.383131	52940.5	-1.561257E-10	-6.405095E+9	11.970154	0.139699	0	0
0	0	0	0.275843	6.383201	-21.417694	6.383201	52902	-1.044208E-10	-9.576633E+9	11.843084	0.13921	0	0
0	0	0	0.275884	6.383208	-21.417664	6.383208	52902.875	-1.0108E-10	-9.893156E+9	11.886331	0.138443	0	0
0	0	0	0.275475	6.383349	-21.418674	6.383349	52894.125	-6.161624E-11	-1.622949E+10	11.72898	0.138179	0	0
0	0	0	0.272698	6.383321	-21.422193	6.383321	52834.5	-6.675819E-11	-1.497943E+10	11.779467	0.137293	0	0
0	0	0	0.270412	6.383236	-21.424883	6.383236	52785.625	-8.940805E-11	-1.118467E+10	11.632181	0.137161	0	0
0	0	0	0.268941	6.383314	-21.42706	6.383314	52754.125	-6.809817E-11	-1.468468E+10	11.697043	0.136209	0	0
0	0	0	0.267594	6.383194	-21.428408	6.383194	52725.25	-1.076312E-10	-9.290987E+9	11.58933	0.135891	0	0
0	0	0	0.267349	6.383257	-21.428942	6.383257	52720.125	-8.229158E-11	-1.215191E+10	11.634611	0.134926	0	0
0	0	0	0.268002	6.383152	-21.427733	6.383152	52734	-1.354414E-10	-7.383266E+9	11.508263	0.134821	0	0
0	0	0	0.268125	6.383314	-21.428123	6.383314	52736.625	-6.807558E-11	-1.468955E+10	11.555493	0.133908	0	0
0	0	0	0.269105	6.383075	-21.426034	6.383075	52757.625	-2.572768E-10	-3.886864E+9	11.474036	0.133525	0	0
0	0	0	0.269717	6.383068	-21.425213	6.383068	52770.75	-2.802359E-10	-3.568422E+9	11.476865	0.132877	0	0
0	0	0	0.273964	6.383187	-21.420091	6.383187	52861.625	-1.117307E-10	-8.950088E+9	11.391634	0.132599	0	0
0	0	0	0.273025	6.383377	-21.421959	6.383377	52841.5	-5.709766E-11	-1.751385E+10	11.432751	0.131793	0	0
0	0	0	0.275149	6.383286	-21.418884	6.383286	52887	-7.473463E-11	-1.338068E+10	11.348736	0.131502	0	0
0	0	0	0.276088	6.383201	-21.417375	6.383201	52907.125	-1.04431E-10	-9.575705E+9	11.346749	0.130682	0	0
0	0	0	0.277476	6.383293	-21.415878	6.383293	52937	-7.307528E-11	-1.368452E+10	11.285759	0.130431	0	0
0	0	0	0.279151	6.383194	-21.413364	6.383194	52973	-1.081369E-10	-9.247534E+9	11.2383	0.129638	0	0
0	0	0	0.279845	6.383286	-21.412771	6.383286	52987.875	-7.487718E-11	-1.33552E+10	11.196381	0.129294	0	0
0	0	0	0.281519	6.383307	-21.410663	6.383307	53023.875	-6.995935E-11	-1.429402E+10	11.154419	0.128567	0	0
0	0	0	0.281928	6.383187	-21.409725	6.383187	53032.625	-1.120922E-10	-8.921229E+9	11.138762	0.128196	0	0
0	0	0	0.280498	6.383194	-21.41161	6.383194	53001.875	-1.081959E-10	-9.242496E+9	11.059688	0.127601	0	0
0	0	0	0.282377	6.383335	-21.409643	6.383335	53042.25	-6.429849E-11	-1.555247E+10	11.057744	0.127086	0	0
0	0	0	0.282581	6.383215	-21.408971	6.383215	53046.625	-9.821088E-11	-1.018217E+10	11.018489	0.126531	0	0
0	0	0	0.28352	6.383321	-21.408106	6.383321	53066.875	-6.705181E-11	-1.491384E+10	11.001792	0.126028	0	0
0	0	0	0.284174	6.383096	-21.406491	6.383096	53080.875	-2.078978E-10	-4.810055E+9	10.930045	0.125486	0	0
0	0	0	0.28597	6.383363	-21.40506	6.383363	53119.625	-5.95544E-11	-1.679137E+10	10.918632	0.125089	0	0
0	0	0	0.2874	6.383166	-21.402531	6.383166	53150.375	-1.256938E-10	-7.955842E+9	10.832056	0.124627	0	0
0	0	0	0.288584	6.383236	-21.401228	6.383236	53175.875	-9.006906E-11	-1.110259E+10	10.858469	0.123886	0	0
0	0	0	0.2874	6.383349	-21.403152	6.383349	53150.375	-6.191474E-11	-1.615124E+10	0	0	0	0
0	0	0	0.287931	6.383187	-21.401911	6.383187	53161.875	-1.123654E-10	-8.899539E+9	0	0	0	0
0	0	0	0.288053	6.383314	-21.402182	6.383314	53164.5	-6.862791E-11	-1.457133E+10	0	0	0	0
0	0	0	0.288502	6.383173	-21.401119	6.383173	53174.125	-1.209577E-10	-8.267355E+9	0	0	0	0
0	0	0	0.287563	6.383173	-21.402342	6.383173	53153.875	-1.209116E-10	-8.270505E+9	0	0	0	0
0	0	0	0.287277	6.383342	-21.403288	6.383342	53147.75	-6.314401E-11	-1.583682E+10	0	0	0	0
0	0	0	0.285644	6.383222	-21.405008	6.383222	53112.625	-9.53748E-11	-1.048495E+10	0	0	0	0
0	0	0	0.28303	6.383131	-21.408099	6.383131	53056.375	-1.564674E-10	-6.391107E+9	0	0	0	0
0	0	0	0.282132	6.383279	-21.40977	6.383279	53037	-7.676392E-11	-1.302695E+10	0	0	0	0
0	0	0	0.280702	6.383222	-21.41144	6.383222	53006.25	-9.518378E-11	-1.050599E+10	0	0	0	0
0	0	0	0.279722	6.383159	-21.4125	6.383159	52985.25	-1.304726E-10	-7.664446E+9	0	0	0	0
0	0	0	0.27813	6.383068	-21.414263	6.383068	52951	-2.811931E-10	-3.556274E+9	0	0	0	0
0	0	0	0.277272	6.383187	-21.415785	6.383187	52932.625	-1.118808E-10	-8.938083E+9	0	0	0	0
0	0	0	0.276333	6.383138	-21.416841	6.383138	52912.5	-1.486965E-10	-6.725109E+9	0	0	0	0
0	0	0	0.274169	6.38318	-21.419801	6.38318	52866	-1.15842E-10	-8.632444E+9	0	0	0	0
0	0	0	0.274291	6.383103	-21.419379	6.383103	52868.75	-1.943166E-10	-5.146241E+9	0	0	0	0
0	0	0	0.273148	0	0.273148	0	52844.125	0	0	0	0	0	0
0	0	0	0.272903	0	0.272903	0	52838.875	0	0	0	0	0	0
