Vload_(V)	ILoad_(A)	RsLoad (ohm)	SunsVoc_Voltage_(V)	SunsVoc_Current_(A)	Model_Voltage_(V)	Model_Current_(A)	Carrier_Density_(cm-3)	Lifetime_(s)	Inverse_Lifetime_(s-1)	Efficiency_(%)	Intensity_(suns)	Dark_IV_Voltage_(V)	Dark_IV_Current_(A)
3.944606	6.385822	0	65.88762	-1.263833	66.275808	-1.263833	4.708242E+15	0.000258	3833.622505	20.034259	1.188098	0	0
3.979303	6.388296	-0.569241	65.854502	-0.998224	66.162627	-0.998224	4.672256E+15	0.000266	3728.570694	20.013234	1.187027	0	0
5.491143	6.383558	4.652746	65.717372	-0.613236	65.910529	-0.613236	4.525851E+15	0.000271	3649.954257	19.852952	1.186921	0	0
8.464843	6.374083	5.988436	65.56154	-0.190881	65.623031	-0.190881	4.364447E+15	0.000279	3558.046407	19.760622	1.187252	0	0
11.626974	6.35821	6.089368	65.391251	0.232653	65.314482	0.232653	4.193934E+15	0.000286	3465.843436	19.795244	1.186882	0	0
14.293449	6.356643	5.700535	65.223617	0.626388	65.012099	0.626388	4.031869E+15	0.000294	3375.910143	19.805789	1.186379	0	0
17.089439	6.355624	5.279057	65.049653	0.989374	64.707649	0.989374	3.869555E+15	0.000301	3297.316021	19.76995	1.184436	0	0
19.926002	6.349527	4.927022	64.880345	1.331707	64.409637	1.331707	3.717137E+15	0.000309	3216.069543	19.755291	1.181395	0	0
22.791644	6.348904	4.484477	64.711649	1.650916	64.115308	1.650916	3.570536E+15	0.000317	3137.861727	19.78688	1.177203	0	0
25.774744	6.345708	4.05553	64.540462	1.948196	63.821405	1.948196	3.426968E+15	0.000324	3065.224473	19.785644	1.17284	0	0
28.834851	6.343443	3.599998	64.372828	2.224422	63.534675	2.224422	3.291287E+15	0.000332	2993.975109	19.724982	1.169746	0	0
32.338128	6.236464	3.682015	64.20454	2.481665	63.250259	2.481665	3.159802E+15	0.00034	2926.780614	19.703424	1.166838	0	0
35.226429	6.240201	3.205722	64.040826	2.719558	62.974597	2.719558	3.036286E+15	0.000348	2861.142169	19.743917	1.164021	0	0
38.124633	6.231662	2.770514	63.876786	2.94017	62.701889	2.94017	2.916735E+15	0.000355	2800.042525	19.785938	1.159923	0	0
40.498139	6.32302	1.952099	63.715073	3.145794	62.434619	3.145794	2.802876E+15	0.000363	2740.680031	19.762243	1.155665	0	0
43.343981	6.322401	1.506913	63.554503	3.336821	62.171661	3.336821	2.693625E+15	0.000371	2684.424991	19.721393	1.151183	0	0
46.219659	6.30198	1.183308	63.396057	3.515141	61.913709	3.515141	2.58942E+15	0.000379	2629.803566	19.73574	1.146661	0	0
47.145994	6.293741	1.080196	63.239939	3.682291	61.660673	3.682291	2.490138E+15	0.000387	2576.031549	19.753038	1.142629	0	0
48.05691	6.279265	1.002981	63.084352	3.838594	61.410592	3.838594	2.394444E+15	0.000395	2524.668058	19.733669	1.13935	0	0
48.989555	6.256277	0.945211	62.929499	3.98506	61.163503	3.98506	2.302327E+15	0.000403	2475.233223	19.714076	1.135635	0	0
49.90919	6.23114	0.881062	62.772891	4.121165	60.916906	4.121165	2.212244E+15	0.00041	2430.497851	19.737929	1.131113	0	0
50.847291	6.1969	0.824797	62.622572	4.247061	60.680537	4.247061	2.128605E+15	0.000418	2386.028357	19.778374	1.126089	0	0
51.768064	6.154139	0.773003	62.470088	4.363964	60.444003	4.363964	2.046507E+15	0.000425	2346.53814	19.756204	1.121157	0	0
52.707587	6.094264	0.731188	62.325812	4.472521	60.21966	4.472521	1.971304E+15	0.000433	2305.63978	19.709037	1.116014	0	0
53.630812	6.024222	0.685994	62.175043	4.575187	59.988831	4.575187	1.895215E+15	0.000439	2269.908582	19.713744	1.110818	0	0
54.553469	5.928263	0.650889	62.029624	4.670385	59.766696	4.670385	1.824179E+15	0.000446	2234.653738	19.746701	1.105674	0	0
55.457108	5.806451	0.620655	61.883266	4.760068	59.544854	4.760068	1.754951E+15	0.000453	2201.697911	19.733248	1.100769	0	0
56.381074	5.649958	0.589978	61.742339	4.843966	59.331326	4.843966	1.690385E+15	0.00046	2168.124784	19.697841	1.095943	0	0
57.273217	5.458393	0.562137	61.593326	4.924485	59.108498	4.924485	1.624285E+15	0.000467	2138.822956	19.702748	1.090694	0	0
58.166508	5.21276	0.539551	61.448724	4.998899	58.893114	4.998899	1.562218E+15	0.000473	2110.82967	19.739634	1.08526	0	0
59.050018	4.913043	0.519016	61.306245	5.069456	58.681356	5.069456	1.503008E+15	0.000479	2082.616881	19.734538	1.080672	0	0
59.921165	4.547238	0.500969	61.165645	5.135853	58.473176	5.135853	1.446422E+15	0.000486	2055.162856	19.697684	1.076322	0	0
60.764632	4.117668	0.483207	61.024677	5.199289	58.265255	5.199289	1.391477E+15	0.000492	2028.109389	19.695296	1.071801	0	0
61.607525	3.602444	0.469066	60.877461	5.259768	58.05034	5.259768	1.335959E+15	0.000498	2004.933359	19.740057	1.066353	0	0
62.400989	3.03661	0.452251	60.740168	5.316758	57.848855	5.316758	1.285853E+15	0.000505	1977.814741	19.752545	1.061276	0	0
63.15881	2.413195	0.443848	60.599976	5.370381	57.644888	5.370381	1.236306E+15	0.000511	1954.071644	19.712414	1.055948	0	0
63.868566	1.760076	0.444479	60.464358	5.419399	57.448506	5.419399	1.189893E+15	0.000517	1932.443553	19.695776	1.050196	0	0
64.513926	1.108129	0.453962	60.330822	5.465133	57.255967	5.465133	1.145612E+15	0.000522	1912.300401	19.728306	1.044392	0	0
65.032273	0.547604	0.46535	60.200717	5.509643	57.067862	5.509643	1.103791E+15	0.000529	1888.933269	19.735414	1.039064	0	0
54.007499	5.984134	0.675989	60.066364	5.55207	56.875089	5.55207	1.06194E+15	0.000535	1868.430799	19.702574	1.033907	0	0
65.546642	0	0	59.937198	5.591139	56.690264	5.591139	1.022953E+15	0.00054	1848.868315	19.684098	1.028526	0	0
0	0	0	59.803132	5.62825	56.499954	5.62825	9.837483E+14	0.000545	1832.883671	19.726319	1.022444	0	0
0	0	0	59.676089	5.662121	56.31996	5.662121	9.477554E+14	0.00055	1817.531488	19.737758	1.016732	0	0
0	0	0	59.546106	5.695995	56.13586	5.695995	9.120669E+14	0.000555	1800.34641	19.695154	1.011312	0	0
0	0	0	59.420166	5.726868	55.958275	5.726868	8.785594E+14	0.00056	1785.449928	19.675386	1.005732	0	0
0	0	0	59.293083	5.757214	55.779209	5.757214	8.457905E+14	0.000565	1769.297779	19.704287	1.000351	0	0
0	0	0	59.166204	5.785306	55.601436	5.785306	8.140945E+14	0.000569	1756.116305	19.724956	0.995247	0	0
0	0	0	59.042264	5.812132	55.427849	5.812132	7.840937E+14	0.000574	1741.928312	19.687124	0.99021	0	0
0	0	0	58.915916	5.837734	55.251668	5.837734	7.544636E+14	0.000578	1729.617001	19.666751	0.984895	0	0
0	0	0	58.797367	5.861433	55.086296	5.861433	7.27518E+14	0.000582	1716.178742	19.712318	0.978852	0	0
0	0	0	58.671999	5.884314	54.912525	5.884314	6.999019E+14	0.000586	1706.118957	19.725637	0.973656	0	0
0	0	0	58.552389	5.905873	54.746662	5.905873	6.743774E+14	0.00059	1694.627404	19.686091	0.968791	0	0
0	0	0	58.432983	5.926333	54.581537	5.926333	6.496793E+14	0.000594	1684.112929	19.667523	0.963515	0	0
0	0	0	58.311698	5.945753	54.414477	5.945753	6.253746E+14	0.000597	1675.66537	19.702401	0.958187	0	0
0	0	0	58.1976	5.963773	54.257284	5.963773	6.032131E+14	0.0006	1666.135139	19.720864	0.952978	0	0
0	0	0	58.076234	5.982084	54.090439	5.982084	5.803699E+14	0.000603	1656.623237	19.679808	0.948218	0	0
0	0	0	57.958421	5.99857	53.929149	5.99857	5.588987E+14	0.000606	1650.057818	19.659339	0.94289	0	0
0	0	0	57.843915	6.014706	53.772141	6.014706	5.386784E+14	0.000609	1640.697615	19.687384	0.937522	0	0
0	0	0	57.721528	6.029945	53.605507	6.029945	5.177559E+14	0.000611	1636.940678	19.702894	0.932365	0	0
0	0	0	57.612575	6.044299	53.45648	6.044299	4.997155E+14	0.000614	1627.653529	19.668803	0.927605	0	0
0	0	0	57.491332	6.058417	53.291756	6.058417	4.802723E+14	0.000616	1623.567655	19.641443	0.922581	0	0
0	0	0	57.375519	6.071703	53.134405	6.071703	4.623074E+14	0.000618	1618.243773	19.68077	0.91724	0	0
0	0	0	57.263137	6.084242	52.981828	6.084242	4.45428E+14	0.00062	1612.547544	19.699517	0.912215	0	0
0	0	0	57.145609	6.096575	52.822679	6.096575	4.283447E+14	0.000622	1608.304951	19.661619	0.907429	0	0
0	0	0	57.038046	6.107805	52.676947	6.107805	4.132071E+14	0.000624	1602.514782	19.634827	0.902431	0	0
0	0	0	56.921988	6.118576	52.520551	6.118576	3.973943E+14	0.000624	1601.746586	19.678388	0.897103	0	0
0	0	0	56.812383	6.129083	52.372501	6.129083	3.829443E+14	0.000626	1596.854292	19.691024	0.892264	0	0
0	0	0	56.70196	6.139474	52.223383	6.139474	3.6885E+14	0.000629	1590.790464	19.654183	0.887583	0	0
0	0	0	56.593008	6.148985	52.076692	6.148985	3.55388E+14	0.00063	1587.32586	19.638107	0.88252	0	0
0	0	0	56.481198	6.157715	51.926814	6.157715	3.420205E+14	0.000629	1588.579587	19.678359	0.877376	0	0
0	0	0	56.375104	6.166844	51.783889	6.166844	3.297455E+14	0.000632	1581.789814	19.684264	0.87263	0	0
0	0	0	56.26117	6.175628	51.631065	6.175628	3.169955E+14	0.000633	1579.415905	19.642502	0.867923	0	0
0	0	0	56.158425	6.182933	51.493636	6.182933	3.058717E+14	0.000633	1579.98169	19.63144	0.862885	0	0
0	0	0	56.052781	6.19137	51.351555	6.19137	2.947946E+14	0.000636	1571.189454	19.665622	0.857742	0	0
0	0	0	55.945054	6.197473	51.208498	6.197473	2.838661E+14	0.000633	1580.478021	19.663636	0.853062	0	0
0	0	0	55.842636	6.20578	51.070509	6.20578	2.73811E+14	0.000638	1566.258515	19.623502	0.848593	0	0
0	0	0	55.732867	6.211085	50.925316	6.211085	2.633872E+14	0.000633	1580.28294	19.621665	0.843635	0	0
0	0	0	55.63147	6.218482	50.789204	6.218482	2.540744E+14	0.000637	1568.867397	19.658533	0.838597	0	0
0	0	0	55.526275	6.223893	50.649693	6.223893	2.447252E+14	0.000634	1576.14028	19.652539	0.834115	0	0
0	0	0	55.422509	6.230192	50.511269	6.230192	2.358066E+14	0.000636	1572.123323	19.605858	0.829633	0	0
0	0	0	55.32005	6.235822	50.374997	6.235822	2.272881E+14	0.000636	1572.049691	19.606657	0.82482	0	0
0	0	0	55.216162	6.240594	50.237517	6.240594	2.189351E+14	0.000633	1580.117749	19.633337	0.820061	0	0
0	0	0	55.114071	6.246772	50.101176	6.246772	2.109979E+14	0.000637	1569.818443	19.623012	0.815658	0	0
0	0	0	55.010264	6.250876	49.964243	6.250876	2.031956E+14	0.000632	1581.985153	19.58753	0.811361	0	0
0	0	0	54.90854	6.256336	49.828851	6.256336	1.958051E+14	0.000635	1575.275585	19.602385	0.806363	0	0
0	0	0	54.803263	6.261658	49.688946	6.261658	1.884151E+14	0.000637	1569.788475	19.62843	0.801841	0	0
0	0	0	54.702152	6.264865	49.556092	6.264865	1.815582E+14	0.00063	1587.001239	19.606045	0.797663	0	0
0	0	0	54.603531	6.269333	49.425375	6.269333	1.750911E+14	0.000631	1584.838333	19.569437	0.793525	0	0
0	0	0	54.496213	6.274282	49.283011	6.274282	1.682943E+14	0.000633	1578.790711	19.594101	0.788778	0	0
0	0	0	54.397756	6.277628	49.153357	6.277628	1.62273E+14	0.00063	1588.261102	19.613877	0.784428	0	0
0	0	0	54.297502	6.281438	49.020967	6.281438	1.563465E+14	0.000629	1590.423355	19.576697	0.780554	0	0
0	0	0	54.192225	6.285973	48.881455	6.285973	1.503389E+14	0.000632	1582.115617	19.547767	0.776284	0	0
0	0	0	54.09679	6.289324	48.755594	6.289324	1.450785E+14	0.000631	1584.469775	19.584637	0.771802	0	0
0	0	0	53.995107	6.291622	48.622545	6.291622	1.39662E+14	0.000622	1606.718455	19.596215	0.767571	0	0
0	0	0	53.891301	6.294975	48.485832	6.294975	1.343269E+14	0.000621	1611.072141	19.550744	0.763803	0	0
0	0	0	53.800439	6.298767	48.365401	6.298767	1.298138E+14	0.000626	1597.505325	19.524212	0.759677	0	0
0	0	0	53.697572	6.301851	48.230069	6.301851	1.248754E+14	0.000624	1601.849194	19.567934	0.755129	0	0
0	0	0	53.595235	6.304168	48.096061	6.304168	1.201375E+14	0.000618	1619.087493	19.559193	0.751202	0	0
0	0	0	53.50127	6.306462	47.972849	6.306462	1.159361E+14	0.000613	1630.617968	19.516824	0.747394	0	0
0	0	0	53.397341	6.309594	47.836026	6.309594	1.114502E+14	0.000614	1629.306602	19.511222	0.74319	0	0
0	0	0	53.297455	6.31303	47.704119	6.31303	1.072933E+14	0.000619	1616.150917	19.553939	0.738761	0	0
0	0	0	53.201734	6.315507	47.57841	6.315507	1.034474E+14	0.000618	1619.208644	19.535301	0.734979	0	0
0	0	0	53.097192	6.317365	47.44185	6.317365	9.939607E+13	0.00061	1640.667586	19.478104	0.731066	0	0
0	0	0	52.998082	6.31893	47.312545	6.31893	9.569433E+13	0.000601	1665.17283	19.493173	0.726927	0	0
0	0	0	52.90036	6.321448	47.184156	6.321448	9.217275E+13	0.000601	1663.729851	19.535971	0.722564	0	0
0	0	0	52.795941	6.324195	47.046892	6.324195	8.854607E+13	0.000603	1657.968623	19.493994	0.719021	0	0
0	0	0	52.698545	6.326792	46.918805	6.326792	8.52861E+13	0.000606	1648.797499	19.455935	0.714935	0	0
0	0	0	52.599435	6.328588	46.789217	6.328588	8.208636E+13	0.000602	1660.966261	19.486363	0.710771	0	0
0	0	0	52.498691	6.33021	46.657663	6.33021	7.895154E+13	0.000596	1677.954242	19.509498	0.706804	0	0
0	0	0	52.405216	6.331428	46.535854	6.331428	7.614555E+13	0.000588	1701.688992	19.457901	0.703274	0	0
0	0	0	52.31023	6.332876	46.41187	6.332876	7.339218E+13	0.000582	1718.538023	19.431526	0.699387	0	0
0	0	0	52.209405	6.334871	46.27982	6.334871	7.057407E+13	0.000581	1719.814371	19.468761	0.695169	0	0
0	0	0	52.105476	6.336905	46.143708	6.336905	6.777812E+13	0.000582	1719.266607	19.469881	0.691454	0	0
0	0	0	52.001302	6.33925	46.006965	6.33925	6.508265E+13	0.000587	1704.636312	19.421705	0.68791	0	0
0	0	0	51.901211	6.340905	45.876131	6.340905	6.259027E+13	0.000585	1709.564232	19.406086	0.684023	0	0
0	0	0	51.804755	6.342496	45.750036	6.342496	6.027565E+13	0.000584	1712.299837	19.449884	0.680043	0	0
0	0	0	51.705604	6.34351	45.620999	6.34351	5.798257E+13	0.000575	1738.356912	19.438932	0.676738	0	0
0	0	0	51.606453	6.344364	45.492108	6.344364	5.577393E+13	0.000565	1770.743694	19.39276	0.673076	0	0
0	0	0	51.500032	6.345461	45.353583	6.345461	5.349401E+13	0.000556	1797.344807	19.39133	0.669321	0	0
0	0	0	51.399248	6.346552	45.222333	6.346552	5.141824E+13	0.00055	1819.349035	19.417499	0.665447	0	0
0	0	0	51.301607	6.347695	45.095086	6.347695	4.948188E+13	0.000545	1835.551835	19.382728	0.662274	0	0
0	0	0	51.198373	6.349278	44.960167	6.349278	4.751161E+13	0.000546	1832.303438	19.358545	0.658691	0	0
0	0	0	51.098078	6.350573	44.829316	6.350573	4.567061E+13	0.000544	1838.589513	19.391975	0.654698	0	0
0	0	0	50.998518	6.352079	44.699195	6.352079	4.391184E+13	0.000546	1830.55758	19.402665	0.651167	0	0
0	0	0	50.892915	6.353727	44.561108	6.353727	4.211843E+13	0.000551	1815.292358	19.349581	0.648034	0	0
0	0	0	50.792784	6.354801	44.430651	6.354801	4.048403E+13	0.000548	1825.377562	19.326928	0.644438	0	0
0	0	0	50.686486	6.355842	44.29225	6.355842	3.881673E+13	0.000544	1839.918762	19.370268	0.640775	0	0
0	0	0	50.582843	6.356715	44.157437	6.356715	3.725573E+13	0.000537	1861.162012	19.363468	0.637496	0	0
0	0	0	50.479649	6.357391	44.023397	6.357391	3.576253E+13	0.000528	1893.835197	19.301957	0.634376	0	0
0	0	0	50.36257	6.357891	43.871588	6.357891	3.413929E+13	0.000513	1949.022408	19.315434	0.630647	0	0
0	0	0	50.26007	6.35858	43.738419	6.35858	3.277759E+13	0.000505	1979.860398	19.35551	0.627078	0	0
0	0	0	50.146667	6.359305	43.591116	6.359305	3.133304E+13	0.000496	2016.01945	19.309412	0.624182	0	0
0	0	0	50.040819	6.360102	43.453495	6.360102	3.004118E+13	0.00049	2039.54669	19.264508	0.62085	0	0
0	0	0	49.928926	6.360809	43.308147	6.360809	2.873242E+13	0.000482	2073.813717	19.297449	0.617254	0	0
0	0	0	49.815237	6.361862	43.16011	6.361862	2.746005E+13	0.000481	2078.611691	19.319879	0.614147	0	0
0	0	0	49.700201	6.362956	43.010275	6.362956	2.622903E+13	0.000482	2076.819798	19.265014	0.611132	0	0
0	0	0	49.588023	6.363721	42.864471	6.363721	2.508095E+13	0.000476	2099.132394	19.234904	0.607814	0	0
0	0	0	49.467187	6.364958	42.706968	6.364958	2.38996E+13	0.000481	2079.600636	19.273463	0.604416	0	0
0	0	0	49.348312	6.365761	42.552448	6.365761	2.279097E+13	0.000477	2096.847514	19.264938	0.601375	0	0
0	0	0	49.225475	6.366488	42.39288	6.366488	2.169868E+13	0.000471	2122.578533	19.208197	0.5984	0	0
0	0	0	49.10219	6.367586	42.232324	6.367586	2.065436E+13	0.000475	2103.28513	19.218599	0.59483	0	0
0	0	0	48.97237	6.368317	42.063706	6.368317	1.960832E+13	0.00047	2126.71623	19.253335	0.591551	0	0
0	0	0	48.844266	6.368823	41.897542	6.368823	1.862745E+13	0.00046	2173.952101	19.202572	0.588827	0	0
0	0	0	48.711098	6.369445	41.724698	6.369445	1.765921E+13	0.000453	2209.216518	19.163186	0.585879	0	0
0	0	0	48.57209	6.369737	41.544661	6.369737	1.670161E+13	0.000436	2294.327309	19.21403	0.582349	0	0
0	0	0	48.431571	6.370179	41.3625	6.370179	1.578585E+13	0.000424	2360.723467	19.201844	0.579453	0	0
0	0	0	48.283906	6.370677	41.171031	6.370677	1.487707E+13	0.000412	2425.071622	19.132216	0.576677	0	0
0	0	0	48.135996	6.371056	40.979373	6.371056	1.401877E+13	0.000399	2509.266875	19.136216	0.573451	0	0
0	0	0	47.979755	6.371399	40.776979	6.371399	1.316541E+13	0.000383	2609.835489	19.184707	0.570225	0	0
0	0	0	47.819227	6.371684	40.569102	6.371684	1.234229E+13	0.000366	2728.911352	19.138211	0.567699	0	0
0	0	0	47.656289	6.371977	40.358096	6.371977	1.155905E+13	0.00035	2853.31587	19.076768	0.56483	0	0
0	0	0	47.484203	6.372406	40.135102	6.372406	1.078537E+13	0.000337	2963.308734	19.108807	0.561604	0	0
0	0	0	47.308606	6.372701	39.907715	6.372701	1.004892E+13	0.000321	3110.49963	19.129879	0.558735	0	0
0	0	0	47.120104	6.373057	39.663568	6.373057	9.313898E+12	0.000306	3265.060447	19.072905	0.556276	0	0
0	0	0	46.924374	6.373586	39.409864	6.373586	8.607222E+12	0.000295	3386.685164	19.052809	0.55338	0	0
0	0	0	46.717619	6.373753	39.142323	6.373753	7.918597E+12	0.000275	3630.728809	19.105081	0.550075	0	0
0	0	0	46.50339	6.374285	38.86468	6.374285	7.262876E+12	0.000264	3784.216298	19.084512	0.547629	0	0
0	0	0	46.281525	6.374658	38.577343	6.374658	6.64072E+12	0.00025	4005.030591	19.024014	0.545011	0	0
0	0	0	46.052962	6.375402	38.280885	6.375402	6.055255E+12	0.000244	4099.247256	19.043766	0.541838	0	0
0	0	0	45.814354	6.375655	37.972026	6.375655	5.498862E+12	0.000227	4404.554411	19.053895	0.539048	0	0
0	0	0	45.564067	6.376189	37.647709	6.376189	4.969918E+12	0.000217	4617.25431	18.986228	0.536708	0	0
0	0	0	45.299732	6.376605	37.305362	6.376605	4.466271E+12	0.000203	4916.148946	18.967903	0.533931	0	0
0	0	0	45.025922	6.377197	36.950531	6.377197	3.998187E+12	0.000195	5139.386271	19.011953	0.53085	0	0
0	0	0	44.73635	6.377292	36.575934	6.377292	3.556299E+12	0.000175	5714.147598	18.986831	0.528537	0	0
0	0	0	44.429871	6.377848	36.178876	6.377848	3.141587E+12	0.000165	6046.913311	18.934265	0.525906	0	0
0	0	0	44.107875	6.378606	35.761468	6.378606	2.757777E+12	0.00016	6233.381562	18.961042	0.522984	0	0
0	0	0	43.770442	6.378971	35.324596	6.378971	2.405705E+12	0.000147	6784.215547	18.981457	0.520353	0	0
0	0	0	43.418063	6.378935	34.868919	6.378935	2.085859E+12	0.000127	7865.359321	18.930933	0.517986	0	0
0	0	0	43.052412	6.379814	34.394838	6.379814	1.798794E+12	0.000126	7956.824719	18.877471	0.515421	0	0
0	0	0	42.66177	6.379947	33.889429	6.379947	1.535575E+12	0.00011	9114.617021	18.924389	0.512446	0	0
0	0	0	42.261734	6.380391	33.371434	6.380391	1.305862E+12	0.000101	9907.234424	18.912419	0.509987	0	0
0	0	0	41.848999	6.380706	32.837181	6.380706	1.10479E+12	9.064178E-5	11032.439843	18.845298	0.507488	0	0
0	0	0	41.425442	6.381221	32.288631	6.381221	9.305699E+11	8.489945E-5	11778.639561	18.854327	0.504645	0	0
0	0	0	40.983835	6.38108	31.717669	6.38108	7.780977E+11	6.887353E-5	14519.366435	18.891761	0.501935	0	0
0	0	0	40.524423	6.381625	31.122673	6.381625	6.459198E+11	6.459457E-5	15481.17747	18.831663	0.499819	0	0
0	0	0	40.050801	6.381934	30.509626	6.381934	5.331083E+11	5.755273E-5	17375.370492	18.808196	0.497228	0	0
0	0	0	39.562354	6.382016	29.877737	6.382016	4.373583E+11	4.823199E-5	20733.12937	18.849819	0.494478	0	0
0	0	0	39.053653	6.382512	29.219008	6.382512	3.55868E+11	4.512309E-5	22161.603977	18.829911	0.492164	0	0
0	0	0	38.514569	6.382802	28.521279	6.382802	2.860142E+11	3.975553E-5	25153.731602	18.754681	0.489916	0	0
0	0	0	37.947635	6.382789	27.787996	6.382789	2.272895E+11	3.145066E-5	31795.832959	18.75845	0.487246	0	0
0	0	0	37.363181	6.382991	27.031703	6.382991	1.793425E+11	2.659066E-5	37607.184487	18.787949	0.484614	0	0
0	0	0	36.764517	6.383142	26.257103	6.383142	1.406962E+11	2.203833E-5	45375.487244	18.72401	0.482631	0	0
0	0	0	36.141187	6.383412	25.450392	6.383412	1.09279E+11	1.902969E-5	52549.475494	18.702672	0.480079	0	0
0	0	0	35.501972	6.383489	24.623445	6.383489	8.433189E+10	1.51739E-5	65902.621616	18.736898	0.477422	0	0
0	0	0	34.857203	6.383713	23.789055	6.383713	6.493333E+10	1.292347E-5	77378.608238	18.718403	0.475187	0	0
0	0	0	34.202593	6.383788	22.942186	6.383788	4.979772E+10	1.027619E-5	97312.376538	18.659351	0.473006	0	0
0	0	0	33.537691	6.383961	22.081825	6.383961	3.803104E+10	8.575248E-6	116614.705199	18.684917	0.470229	0	0
0	0	0	32.854495	6.384055	21.197931	6.384055	2.883003E+10	6.84772E-6	146034.016661	18.695579	0.467783	0	0
0	0	0	32.169788	6.384226	20.311935	6.384226	2.184164E+10	5.743757E-6	174102.08034	18.624344	0.465879	0	0
0	0	0	31.475975	6.384101	19.414708	6.384101	1.648623E+10	4.020691E-6	248713.480263	18.62694	0.463169	0	0
0	0	0	30.77624	6.384391	18.509033	6.384391	1.241408E+10	3.640424E-6	274693.30093	18.666065	0.460657	0	0
0	0	0	30.065479	6.384462	17.589503	6.384462	9.306069E+9	2.872197E-6	348165.53496	18.613565	0.458502	0	0
0	0	0	29.337036	6.38447	16.647222	6.38447	6.926346E+9	2.150106E-6	465093.31365	18.559703	0.456228	0	0
0	0	0	28.591278	6.384379	15.682743	6.384379	5.119095E+9	1.489065E-6	671562.327656	18.59403	0.453477	0	0
0	0	0	27.831105	6.384682	14.698814	6.384682	3.761351E+9	1.384931E-6	722057.576485	18.592353	0.451349	0	0
0	0	0	27.05374	6.384788	13.693037	6.384788	2.744526E+9	1.114027E-6	897644.474241	18.516866	0.449352	0	0
0	0	0	26.261918	6.384634	12.669107	6.384634	1.990881E+9	7.030741E-7	1422325.163791	18.512363	0.446853	0	0
0	0	0	25.472996	6.384718	11.648421	6.384718	1.445885E+9	5.497531E-7	1818998.48944	18.551241	0.444487	0	0
0	0	0	24.682563	6.384782	10.62582	6.384782	1.049436E+9	4.233548E-7	2362084.689726	18.482998	0.442596	0	0
0	0	0	23.886699	6.384789	9.596316	6.384789	7.600146E+8	3.08719E-7	3239191.297324	18.46048	0.440243	0	0
0	0	0	23.088343	6.384852	8.563461	6.384852	5.498563E+8	2.379512E-7	4202542.800121	18.51003	0.437664	0	0
0	0	0	22.305629	6.385113	7.550378	6.385113	4.003414E+8	2.368169E-7	4222671.901562	18.468913	0.435866	0	0
0	0	0	21.524139	6.384852	6.540082	6.384852	2.916268E+8	1.262145E-7	7923018.72986	18.388926	0.433817	0	0
0	0	0	20.754165	6.385056	5.543596	6.385056	2.134283E+8	1.169835E-7	8548211.979354	18.428296	0.431371	0	0
0	0	0	19.988806	6.385289	4.552996	6.385289	1.564909E+8	1.230979E-7	8123616.341455	18.45324	0.429084	0	0
0	0	0	19.228959	6.385035	3.570702	6.385035	1.149998E+8	6.134544E-8	1.630113E+7	18.369551	0.427352	0	0
0	0	0	18.486958	6.385183	2.610512	6.385183	8.512302E+7	5.590553E-8	1.788732E+7	18.364741	0.425064	0	0
0	0	0	17.758801	6.385359	1.668149	6.385359	6.336284E+7	5.741556E-8	1.741688E+7	18.390181	0.422671	0	0
0	0	0	17.041956	6.385345	0.740893	6.385345	4.738207E+7	4.166953E-8	2.399835E+7	18.329771	0.421045	0	0
0	0	0	16.344998	6.385451	-0.160947	6.385451	3.571865E+7	4.032955E-8	2.479571E+7	18.294746	0.41889	0	0
0	0	0	15.669928	6.385345	-1.033926	6.385345	2.716628E+7	2.389137E-8	4.185612E+7	18.345677	0.416497	0	0
0	0	0	15.008498	6.385387	-1.889647	6.385387	2.077624E+7	2.004451E-8	4.988897E+7	18.310535	0.414738	0	0
0	0	0	14.357358	6.385282	-2.731662	6.385282	1.595569E+7	1.238879E-8	8.071815E+7	18.219064	0.412966	0	0
0	0	0	13.721083	6.385683	-3.555814	6.385683	1.232769E+7	3.707094E-8	2.697531E+7	18.257117	0.410428	0	0
0	0	0	13.112741	6.385429	-4.342067	6.385429	9633099	1.029252E-8	9.71579E+7	18.262639	0.408497	0	0
0	0	0	12.515955	6.38557	-5.114444	6.38557	7562845.125	1.258977E-8	7.942954E+7	18.189834	0.406818	0	0
0	0	0	11.94265	6.385556	-5.856023	6.385556	5994305.625	9.451253E-9	1.058061E+8	18.191153	0.404531	0	0
0	0	0	11.386905	6.385472	-6.574688	6.385472	4785027.375	5.72808E-9	1.745786E+8	18.23896	0.402283	0	0
0	0	0	10.848964	6.385598	-7.270916	6.385598	3847379.375	7.20932E-9	1.387093E+8	18.172429	0.40075	0	0
0	0	0	10.321846	6.385556	-7.952668	6.385556	3107070.125	4.898949E-9	2.041254E+8	18.137519	0.398713	0	0
0	0	0	9.811756	6.385683	-8.612877	6.385683	2526594.25	7.597946E-9	1.316145E+8	18.188522	0.396241	0	0
0	0	0	9.321594	6.385662	-9.246884	6.385662	2071232.5	5.410479E-9	1.848265E+8	18.139783	0.394668	0	0
0	0	0	8.855526	6.385704	-9.849907	6.385704	1714607	6.074707E-9	1.64617E+8	18.058763	0.392724	0	0
0	0	0	8.406855	6.385634	-10.430097	6.385634	1429431.75	3.177491E-9	3.147137E+8	18.108224	0.390423	0	0
0	0	0	7.971169	6.385739	-10.994007	6.385739	1197977.875	6.036706E-9	1.656533E+8	18.11259	0.388586	0	0
0	0	0	7.548633	6.385605	-11.540197	6.385605	1009368	1.952715E-9	5.121075E+8	18.030817	0.386946	0	0
0	0	0	7.143371	6.385669	-12.064629	6.385669	856429.875	2.339607E-9	4.274223E+8	18.057265	0.384672	0	0
0	0	0	6.754116	6.385739	-12.568377	6.385739	731396.125	3.685568E-9	2.713286E+8	18.07593	0.382742	0	0
0	0	0	6.377481	6.385732	-13.055568	6.385732	627820.375	2.917252E-9	3.427883E+8	17.987483	0.381234	0	0
0	0	0	6.008236	6.385767	-13.533327	6.385767	540529.75	4.113457E-9	2.431045E+8	17.981787	0.379159	0	0
0	0	0	5.644015	6.385725	-14.004352	6.385725	466324.5	2.010277E-9	4.974439E+8	18.032904	0.377123	0	0
0	0	0	5.278323	6.385704	-14.477342	6.385704	402066.625	1.424491E-9	7.02005E+8	17.956004	0.375536	0	0
0	0	0	4.926761	6.385619	-14.931857	6.385619	348654.875	7.21281E-10	1.386422E+9	17.903192	0.373711	0	0
0	0	0	4.5899	6.385795	-15.368165	6.385795	304145.875	4.72557E-9	2.116147E+8	17.962188	0.371517	0	0
0	0	0	4.256183	6.385859	-15.800058	6.385859	265657.25	-3.071683E-9	-3.255544E+8	17.916483	0.370049	0	0
0	0	0	3.956769	6.385725	-16.186957	6.385725	235289	1.014307E-9	9.858945E+8	17.839907	0.368436	0	0
0	0	0	3.684593	6.385704	-16.538975	6.385704	210706.25	7.465165E-10	1.339555E+9	17.88054	0.366254	0	0
0	0	0	3.506015	6.385929	-16.770697	6.385929	195989.875	-7.713271E-10	-1.296467E+9	17.859971	0.364681	0	0
0	0	0	3.414949	6.385838	-16.888209	6.385838	188885.75	-5.217348E-9	-1.916683E+8	17.772204	0.363187	0	0
0	0	0	3.332582	6.385887	-16.994916	6.385887	182682.125	-1.189884E-9	-8.404178E+8	17.815954	0.360979	0	0
0	0	0	3.237555	6.385598	-17.116923	6.385598	175777.75	3.293783E-10	3.036023E+9	17.843296	0.359194	0	0
0	0	0	3.114923	6.385964	-17.276726	6.385964	167251.875	-4.949765E-10	-2.020298E+9	17.753224	0.357859	0	0
0	0	0	2.983838	6.385866	-17.445983	6.385866	158595.125	-1.536078E-9	-6.510085E+8	17.744173	0.355902	0	0
0	0	0	2.844666	6.38595	-17.626285	6.38595	149894.25	-4.924626E-10	-2.030611E+9	17.776534	0.354011	0	0
0	0	0	2.699942	6.385816	-17.813072	6.385816	141352	1.003982E-8	9.960335E+7	17.708922	0.352649	0	0
0	0	0	2.55097	6.38569	-18.005374	6.38569	133067.25	4.213998E-10	2.373043E+9	17.686659	0.350772	0	0
0	0	0	2.401712	6.385894	-18.19911	6.385894	125253.625	-7.355306E-10	-1.359563E+9	17.721815	0.348855	0	0
0	0	0	2.252332	6.38576	-18.391916	6.38576	117893	7.956825E-10	1.256783E+9	17.650433	0.347533	0	0
0	0	0	2.104095	6.38588	-18.584062	6.38588	111016.25	-8.117094E-10	-1.231968E+9	17.587898	0.345761	0	0
0	0	0	1.957982	6.385978	-18.773394	6.385978	104630.75	-2.817044E-10	-3.54982E+9	17.656051	0.343751	0	0
0	0	0	1.813298	6.385746	-18.959802	6.385746	98669.625	5.430731E-10	1.841373E+9	17.620462	0.342469	0	0
0	0	0	1.673922	6.385971	-19.14083	6.385971	93248.625	-2.629244E-10	-3.803375E+9	17.551854	0.340948	0	0
0	0	0	1.533771	6.385957	-19.322084	6.385957	88097.75	-2.743301E-10	-3.645244E+9	17.596742	0.338912	0	0
0	0	0	1.398806	6.386077	-19.497067	6.386077	83406.625	-1.376183E-10	-7.266475E+9	17.559945	0.337444	0	0
0	0	0	1.261759	6.38576	-19.673314	6.38576	78898.625	5.32502E-10	1.877927E+9	17.465853	0.336083	0	0
0	0	0	1.13345	6.38576	-19.839293	6.38576	74899.25	5.055095E-10	1.978202E+9	17.519652	0.334113	0	0
0	0	0	1.012288	6.38614	-19.997278	6.38614	71308.875	-9.42093E-11	-1.061466E+10	17.533614	0.332552	0	0
0	0	0	0.894433	6.385978	-20.149202	6.385978	67981.625	-1.830315E-10	-5.46354E+9	17.448225	0.33123	0	0
0	0	0	0.800591	6.385915	-20.270388	6.385915	65443.75	-2.966992E-10	-3.370417E+9	17.461821	0.329353	0	0
0	0	0	0.718836	6.386077	-20.376681	6.386077	63310.125	-1.044597E-10	-9.573068E+9	17.458307	0.327753	0	0
0	0	0	0.658602	6.385838	-20.453809	6.385838	61782.75	-1.706544E-9	-5.859795E+8	17.359424	0.326484	0	0
0	0	0	0.622053	6.385887	-20.501251	6.385887	60874	-3.964975E-10	-2.522084E+9	17.378339	0.324738	0	0
0	0	0	0.584892	6.385887	-20.549323	6.385887	59963.75	-3.905687E-10	-2.560369E+9	17.409867	0.323086	0	0
0	0	0	0.557491	6.385831	-20.584583	6.385831	59301.25	-3.050071E-9	-3.278612E+8	17.318336	0.321764	0	0
0	0	0	0.549854	6.385922	-20.594764	6.385922	59117.875	-2.490919E-10	-4.014582E+9	17.299508	0.320098	0	0
0	0	0	0.534459	6.385908	-20.614633	6.385908	58750	-2.88256E-10	-3.469138E+9	17.336836	0.318405	0	0
0	0	0	0.508854	6.385964	-20.647942	6.385964	58143.375	-1.720734E-10	-5.811473E+9	17.246231	0.317281	0	0
0	0	0	0.492397	6.385908	-20.669044	6.385908	57756.625	-2.83382E-10	-3.528805E+9	17.255761	0.31547	0	0
0	0	0	0.484434	6.386035	-20.679765	6.386035	57570.5	-1.138866E-10	-8.780661E+9	17.291912	0.313778	0	0
0	0	0	0.48031	6.385901	-20.684657	6.385901	57474.25	-3.072651E-10	-3.254519E+9	17.186329	0.312733	0	0
0	0	0	0.477369	6.385774	-20.688041	6.385774	57405.875	5.007308E-10	1.997081E+9	17.169537	0.311014	0	0
0	0	0	0.468998	6.385999	-20.699617	6.385999	57211.375	-1.356675E-10	-7.370962E+9	17.217886	0.309296	0	0
0	0	0	0.458095	6.385936	-20.713512	6.385936	56959	-2.102931E-10	-4.755267E+9	17.129578	0.308185	0	0
0	0	0	0.444414	6.385852	-20.730928	6.385852	56643.875	-8.123884E-10	-1.230938E+9	17.10007	0.306651	0	0
0	0	0	0.431714	6.385873	-20.747427	6.385873	56353	-4.695784E-10	-2.12957E+9	17.154431	0.304893	0	0
0	0	0	0.423955	6.38588	-20.757488	6.38588	56176	-4.107379E-10	-2.434643E+9	17.066688	0.303888	0	0
0	0	0	0.416931	6.385915	-20.76669	6.385915	56016.25	-2.539582E-10	-3.937656E+9	17.021857	0.302275	0	0
0	0	0	0.412603	6.385795	-20.771893	6.385795	55918	8.688094E-10	1.151E+9	17.081964	0.300516	0	0
0	0	0	0.410438	6.385964	-20.775253	6.385964	55869	-1.653425E-10	-6.048052E+9	17.012309	0.299538	0	0
0	0	0	0.40856	6.385852	-20.77731	6.385852	55826.5	-8.006656E-10	-1.248961E+9	16.964619	0.298031	0	0
0	0	0	0.407049	6.385859	-20.779288	6.385859	55792.25	-6.451018E-10	-1.550143E+9	17.029639	0.296233	0	0
0	0	0	0.405987	6.385866	-20.780684	6.385866	55768.25	-5.401451E-10	-1.851355E+9	16.927725	0.295333	0	0
0	0	0	0.403414	6.385873	-20.784036	6.385873	55710.125	-4.642215E-10	-2.154144E+9	16.877856	0.293892	0	0
0	0	0	0.400964	6.385852	-20.787135	6.385852	55654.875	-7.982042E-10	-1.252812E+9	16.952909	0.292147	0	0
0	0	0	0.39929	6.385767	-20.789021	6.385767	55617	4.232487E-10	2.362677E+9	16.886576	0.291169	0	0
0	0	0	0.396554	6.385894	-20.792981	6.385894	55555.375	-3.262395E-10	-3.065233E+9	16.846274	0.289899	0	0
0	0	0	0.39198	6.385964	-20.799131	6.385964	55452.5	-1.641099E-10	-6.093479E+9	16.902987	0.288088	0	0
0	0	0	0.3861	6.385788	-20.806154	6.385788	55320.375	6.819364E-10	1.466412E+9	16.812748	0.287163	0	0
0	0	0	0.380954	6.385816	-20.812903	6.385816	55205.125	3.921066E-9	2.550327E+8	16.753671	0.28584	0	0
0	0	0	0.374257	6.385964	-20.822057	6.385964	55055.5	-1.62935E-10	-6.137418E+9	16.808621	0.284122	0	0
0	0	0	0.369152	6.386042	-20.828917	6.386042	54941.625	-1.051982E-10	-9.505869E+9	16.748739	0.283209	0	0
0	0	0	0.365886	6.385612	-20.831719	6.385612	54868.875	1.097062E-10	9.115252E+9	16.718788	0.281781	0	0
0	0	0	0.361884	6.38569	-20.837153	6.38569	54779.875	1.734779E-10	5.764422E+9	16.770777	0.280234	0	0
0	0	0	0.358086	6.385957	-20.842953	6.385957	54695.625	-1.703182E-10	-5.871361E+9	16.672127	0.279454	0	0
0	0	0	0.356983	6.385816	-20.843912	6.385816	54671.25	3.883147E-9	2.575231E+8	16.625213	0.277973	0	0
0	0	0	0.355595	6.385781	-20.845591	6.385781	54640.5	5.582207E-10	1.791406E+9	16.680894	0.27636	0	0
0	0	0	0.355758	6.385823	-20.84552	6.385823	54644	-2.037636E-8	-4.907648E+7	16.577615	0.275527	0	0
0	0	0	0.352287	6.386006	-20.850618	6.386006	54567.25	-1.24451E-10	-8.03529E+9	16.55008	0.274166	0	0
0	0	0	0.352124	6.385957	-20.850666	6.385957	54563.625	-1.699072E-10	-5.885565E+9	16.624076	0.272579	0	0
0	0	0	0.351184	6.385957	-20.851881	6.385957	54542.875	-1.698426E-10	-5.887804E+9	16.518826	0.271773	0	0
0	0	0	0.350694	6.38602	-20.852725	6.38602	54532	-1.155375E-10	-8.6552E+9	16.494278	0.270239	0	0
0	0	0	0.35	6.385901	-20.853226	6.385901	54516.625	-2.914532E-10	-3.431082E+9	16.539289	0.268864	0	0
0	0	0	0.347754	6.386049	-20.856622	6.386049	54467	-1.010466E-10	-9.896428E+9	16.428754	0.268057	0	0
0	0	0	0.347672	6.385838	-20.856027	6.385838	54465.25	-1.504423E-9	-6.647068E+8	16.432222	0.26655	0	0
0	0	0	0.347346	6.386098	-20.857314	6.386098	54458	-8.297039E-11	-1.205249E+10	16.471516	0.265228	0	0
0	0	0	0.344814	6.385887	-20.859888	6.385887	54402.125	-3.543435E-10	-2.82212E+9	16.364404	0.264474	0	0
0	0	0	0.345222	6.385838	-20.859196	6.385838	54411.125	-1.502928E-9	-6.653681E+8	16.381012	0.262755	0	0
0	0	0	0.343956	6.386035	-20.861488	6.386035	54383.25	-1.075816E-10	-9.295271E+9	16.39468	0.261552	0	0
0	0	0	0.343099	6.385809	-20.86185	6.385809	54364.375	1.76279E-9	5.672824E+8	16.283719	0.260772	0	0
0	0	0	0.34318	6.385845	-20.861861	6.385845	54366.125	-1.026468E-9	-9.742145E+8	16.317726	0.259225	0	0
0	0	0	0.342895	6.38595	-20.862581	6.38595	54359.875	-1.785939E-10	-5.599294E+9	16.321333	0.258075	0	0
0	0	0	0.343466	6.385978	-20.861935	6.385978	54372.375	-1.463904E-10	-6.831048E+9	16.207892	0.257202	0	0
0	0	0	0.343466	6.385936	-20.861795	6.385936	54372.375	-2.007433E-10	-4.981486E+9	16.241724	0.255536	0	0
0	0	0	0.344569	6.385894	-20.860228	6.385894	54396.75	-3.194356E-10	-3.130521E+9	16.193233	0.254598	0	0
0	0	0	0.343466	6.385866	-20.861561	6.385866	54372.375	-5.266253E-10	-1.898883E+9	16.10148	0.25358	0	0
0	0	0	0.342568	6.385823	-20.862583	6.385823	54352.625	-2.026771E-8	-4.933957E+7	16.180275	0.25194	0	0
0	0	0	0.341016	6.385725	-20.864263	6.385725	54318.5	2.341617E-10	4.270554E+9	16.125115	0.251081	0	0
0	0	0	0.339464	6.38602	-20.867252	6.38602	54284.25	-1.150126E-10	-8.694702E+9	16.077639	0.250023	0	0
0	0	0	0.339423	6.385795	-20.866557	6.385795	54283.375	8.434119E-10	1.18566E+9	16.133711	0.248555	0	0
0	0	0	0.339342	6.385978	-20.86727	6.385978	54281.625	-1.461461E-10	-6.842469E+9	16.047923	0.247736	0	0
0	0	0	0.338076	6.38602	-20.869048	6.38602	54253.75	-1.149479E-10	-8.69959E+9	15.986731	0.246612	0	0
0	0	0	0.337259	6.385943	-20.869848	6.385943	54235.75	-1.885699E-10	-5.303072E+9	16.054132	0.245157	0	0
0	0	0	0.335952	6.385795	-20.871047	6.385795	54207	8.422252E-10	1.187331E+9	15.947132	0.244496	0	0
0	0	0	0.336156	6.385767	-20.87069	6.385767	54211.5	4.125527E-10	2.423933E+9	15.951276	0.243201	0	0
0	0	0	0.335136	6.38588	-20.872384	6.38588	54189.125	-3.962106E-10	-2.52391E+9	16.004819	0.241892	0	0
0	0	0	0.335054	6.385887	-20.872513	6.385887	54187.25	-3.529439E-10	-2.833311E+9	15.868626	0.241085	0	0
0	0	0	0.334972	6.385852	-20.872502	6.385852	54185.5	-7.771303E-10	-1.286785E+9	15.884975	0.239816	0	0
0	0	0	0.334523	6.385809	-20.872943	6.385809	54175.625	1.75667E-9	5.692589E+8	15.863497	0.238732	0	0
0	0	0	0.334115	6.385809	-20.873471	6.385809	54166.625	1.756378E-9	5.693534E+8	15.747091	0.237885	0	0
0	0	0	0.333584	6.385985	-20.874742	6.385985	54155	-1.395096E-10	-7.167965E+9	15.837726	0.236325	0	0
0	0	0	0.333829	6.38607	-20.874706	6.38607	54160.375	-9.190453E-11	-1.088086E+10	15.781697	0.235625	0	0
0	0	0	0.333706	6.385957	-20.87449	6.385957	54157.625	-1.68643E-10	-5.929687E+9	15.718314	0.23458	0	0
0	0	0	0.33338	6.385964	-20.874936	6.385964	54150.5	-1.602566E-10	-6.239991E+9	15.767762	0.233205	0	0
0	0	0	0.333135	6.386013	-20.875417	6.386013	54145.125	-1.189416E-10	-8.407489E+9	15.66244	0.232438	0	0
0	0	0	0.332359	6.385943	-20.876187	6.385943	54128.125	-1.881957E-10	-5.313616E+9	15.61455	0.231367	0	0
0	0	0	0.331542	6.38588	-20.877033	6.38588	54110.125	-3.95633E-10	-2.527595E+9	15.669427	0.230032	0	0
0	0	0	0.331256	6.385887	-20.877426	6.385887	54103.875	-3.524009E-10	-2.837677E+9	15.545365	0.229503	0	0
0	0	0	0.331134	6.385999	-20.877959	6.385999	54101.25	-1.282924E-10	-7.794697E+9	15.562847	0.228035	0	0
0	0	0	0.330276	6.385852	-20.878577	6.385852	54082.5	-7.756531E-10	-1.289236E+9	15.588984	0.227031	0	0
0	0	0	0.330603	6.386133	-20.879089	6.386133	54089.625	-7.30784E-11	-1.368393E+10	15.473908	0.22633	0	0
0	0	0	0.330521	6.385957	-20.878611	6.385957	54087.75	-1.684254E-10	-5.937348E+9	15.522927	0.224928	0	0
0	0	0	0.330766	6.385781	-20.87771	6.385781	54093.125	5.526286E-10	1.809534E+9	15.462521	0.224188	0	0
0	0	0	0.330603	6.386084	-20.878926	6.386084	54089.625	-8.684451E-11	-1.151483E+10	15.393092	0.223183	0	0
0	0	0	0.330439	6.385915	-20.878576	6.385915	54086	-2.452071E-10	-4.078185E+9	15.462703	0.221834	0	0
0	0	0	0.331501	6.386133	-20.877927	6.386133	54109.25	-7.310491E-11	-1.367897E+10	15.338578	0.221332	0	0
0	0	0	0.331052	6.385873	-20.877644	6.385873	54099.5	-4.508004E-10	-2.218276E+9	15.346297	0.220089	0	0
0	0	0	0.332073	6.385957	-20.876603	6.385957	54121.875	-1.685316E-10	-5.933604E+9	15.35505	0.21915	0	0
0	0	0	0.332604	6.385809	-20.875426	6.385809	54133.5	1.755304E-9	5.697018E+8	15.230961	0.218436	0	0
0	0	0	0.331746	6.385992	-20.877143	6.385992	54114.625	-1.336355E-10	-7.483042E+9	15.296612	0.216903	0	0
0	0	0	0.332726	6.385929	-20.875665	6.385929	54136.125	-2.130552E-10	-4.69362E+9	15.240332	0.216268	0	0
0	0	0	0.331583	6.385992	-20.877354	6.385992	54111.125	-1.336269E-10	-7.483526E+9	15.158579	0.215369	0	0
0	0	0	0.332849	6.386084	-20.87602	6.386084	54138.875	-8.692358E-11	-1.150436E+10	15.233684	0.214179	0	0
0	0	0	0.332481	6.385985	-20.876169	6.385985	54130.75	-1.394471E-10	-7.171176E+9	15.13963	0.213558	0	0
0	0	0	0.333012	6.385767	-20.874757	6.385767	54142.5	4.120276E-10	2.427022E+9	15.128	0.212447	0	0
0	0	0	0.332481	6.385894	-20.875865	6.385894	54130.75	-3.178736E-10	-3.145905E+9	15.159543	0.211389	0	0
0	0	0	0.332808	6.38595	-20.875629	6.38595	54138	-1.77865E-10	-5.622242E+9	15.055762	0.210636	0	0
0	0	0	0.3324	6.385964	-20.876204	6.385964	54129	-1.60193E-10	-6.242469E+9	15.087633	0.209393	0	0
0	0	0	0.332849	6.386028	-20.875833	6.386028	54138.875	-1.107709E-10	-9.027639E+9	15.028694	0.208719	0	0
0	0	0	0.333829	6.385915	-20.874192	6.385915	54160.375	-2.455443E-10	-4.072585E+9	14.9337	0.207938	0	0
0	0	0	0.333543	6.386056	-20.875029	6.386056	54154.125	-9.743638E-11	-1.026311E+10	14.994952	0.206537	0	0
0	0	0	0.333625	6.385929	-20.874503	6.385929	54155.875	-2.131329E-10	-4.691908E+9	14.895622	0.206087	0	0
0	0	0	0.333584	6.385894	-20.874439	6.385894	54155	-3.18016E-10	-3.144496E+9	14.892816	0.204937	0	0
0	0	0	0.333175	6.386028	-20.875411	6.386028	54146	-1.107855E-10	-9.026451E+9	14.92318	0.204091	0	0
0	0	0	0.332971	6.385922	-20.875324	6.385922	54141.5	-2.281241E-10	-4.383579E+9	14.80195	0.203351	0	0
0	0	0	0.332359	6.385957	-20.876234	6.385957	54128.125	-1.685511E-10	-5.932919E+9	14.849621	0.202081	0	0
0	0	0	0.332073	6.38588	-20.876346	6.38588	54121.875	-3.957189E-10	-2.527046E+9	14.77004	0.201513	0	0
0	0	0	0.331828	6.38602	-20.877131	6.38602	54116.5	-1.146572E-10	-8.721654E+9	14.704837	0.20064	0	0
0	0	0	0.331828	6.385866	-20.876617	6.385866	54116.5	-5.24147E-10	-1.907862E+9	14.748086	0.19953	0	0
0	0	0	0.330521	6.385915	-20.878471	6.385915	54087.75	-2.452151E-10	-4.078053E+9	14.645015	0.198974	0	0
0	0	0	0.330072	6.386063	-20.879542	6.386063	54077.875	-9.445085E-11	-1.058752E+10	14.67466	0.197797	0	0
0	0	0	0.329745	6.386006	-20.879778	6.386006	54070.75	-1.233186E-10	-8.109074E+9	14.651997	0.197229	0	0
0	0	0	0.327581	6.385992	-20.882531	6.385992	54023.375	-1.334102E-10	-7.495681E+9	14.566736	0.196436	0	0
0	0	0	0.328683	6.385971	-20.881035	6.385971	54047.5	-1.523927E-10	-6.561996E+9	14.636834	0.195259	0	0
0	0	0	0.327703	6.385746	-20.881555	6.385746	54026	2.973566E-10	3.362965E+9	14.512208	0.194836	0	0
0	0	0	0.326805	6.385915	-20.883278	6.385915	54006.375	-2.448461E-10	-4.084198E+9	14.510453	0.193527	0	0
0	0	0	0.327417	6.385802	-20.882111	6.385802	54019.75	1.13485E-9	8.81174E+8	14.500707	0.192905	0	0
0	0	0	0.326315	6.385894	-20.883842	6.385894	53995.625	-3.170801E-10	-3.153777E+9	14.384574	0.192178	0	0
0	0	0	0.326356	6.386147	-20.88463	6.386147	53996.5	-6.979172E-11	-1.432835E+10	14.461711	0.190975	0	0
0	0	0	0.324967	6.385831	-20.885375	6.385831	53966.125	-2.775667E-9	-3.602738E+8	14.339266	0.190605	0	0
0	0	0	0.324518	6.385873	-20.886096	6.385873	53956.375	-4.496078E-10	-2.224161E+9	14.358921	0.189468	0	0
0	0	0	0.322558	6.38588	-20.888655	6.38588	53913.5	-3.941953E-10	-2.536813E+9	14.364909	0.188675	0	0
0	0	0	0.321537	6.386028	-20.890466	6.386028	53891.125	-1.10264E-10	-9.069141E+9	14.243305	0.188053	0	0
0	0	0	0.321292	6.38602	-20.89076	6.38602	53885.75	-1.141683E-10	-8.759002E+9	14.314321	0.186797	0	0
0	0	0	0.321088	6.385922	-20.890697	6.385922	53881.375	-2.27028E-10	-4.404742E+9	14.218993	0.186361	0	0
0	0	0	0.320516	6.385859	-20.891226	6.385859	53868.875	-6.228627E-10	-1.60549E+9	14.176612	0.185462	0	0
0	0	0	0.320271	6.386112	-20.892384	6.386112	53863.5	-7.807703E-11	-1.280786E+10	14.194445	0.184642	0	0
0	0	0	0.319659	6.386154	-20.893317	6.386154	53850.125	-6.812665E-11	-1.467854E+10	14.082598	0.184126	0	0
0	0	0	0.321496	6.386035	-20.890542	6.386035	53890.25	-1.066063E-10	-9.380307E+9	14.175711	0.182857	0	0
0	0	0	0.322599	6.38588	-20.888602	6.38588	53914.375	-3.942017E-10	-2.536772E+9	14.056145	0.18254	0	0
0	0	0	0.322966	6.385999	-20.888524	6.385999	53922.375	-1.278682E-10	-7.820554E+9	14.066814	0.181469	0	0
0	0	0	0.323701	6.38595	-20.887409	6.38595	53938.5	-1.772095E-10	-5.643037E+9	14.06525	0.180755	0	0
0	0	0	0.323946	6.385873	-20.886835	6.385873	53943.875	-4.495036E-10	-2.224676E+9	13.953602	0.180147	0	0
0	0	0	0.324559	6.386028	-20.886557	6.386028	53957.25	-1.103993E-10	-9.058027E+9	14.012403	0.179076	0	0
0	0	0	0.324926	6.385887	-20.885614	6.385887	53965.25	-3.51498E-10	-2.844967E+9	13.922286	0.178626	0	0
0	0	0	0.326111	6.385985	-20.88441	6.385985	53991.125	-1.390874E-10	-7.189722E+9	13.881394	0.177674	0	0
0	0	0	0.325743	6.386035	-20.885049	6.386035	53983.125	-1.0679E-10	-9.364168E+9	13.874031	0.176921	0	0
0	0	0	0.325825	6.385873	-20.884405	6.385873	53984.875	-4.498453E-10	-2.222986E+9	13.737327	0.176378	0	0
0	0	0	0.326764	6.385788	-20.88291	6.385788	54005.5	6.657279E-10	1.502115E+9	13.836048	0.175241	0	0
0	0	0	0.32852	6.385922	-20.881082	6.385922	54044	-2.277133E-10	-4.391488E+9	13.694059	0.174884	0	0
0	0	0	0.327867	6.385985	-20.882138	6.385985	54029.625	-1.391866E-10	-7.184598E+9	13.736548	0.173734	0	0
0	0	0	0.328888	6.38576	-20.88007	6.38576	54052	3.648074E-10	2.741173E+9	13.689369	0.173324	0	0
0	0	0	0.326968	6.385985	-20.8833	6.385985	54010	-1.391361E-10	-7.187209E+9	13.636958	0.172438	0	0
0	0	0	0.328765	6.385816	-20.880415	6.385816	54049.25	3.838968E-9	2.604867E+8	13.674925	0.171605	0	0
0	0	0	0.328071	6.386049	-20.882084	6.386049	54034.125	-1.002435E-10	-9.97571E+9	13.537794	0.171235	0	0
0	0	0	0.330317	6.385915	-20.878735	6.385915	54083.25	-2.451947E-10	-4.078392E+9	13.595693	0.170098	0	0
0	0	0	0.330358	6.386091	-20.879266	6.386091	54084.25	-8.456031E-11	-1.182588E+10	13.500115	0.169609	0	0
0	0	0	0.330317	6.385838	-20.878478	6.385838	54083.25	-1.493871E-9	-6.694018E+8	13.461192	0.168789	0	0
0	0	0	0.330154	6.385992	-20.879203	6.385992	54079.75	-1.335494E-10	-7.487868E+9	13.479601	0.168062	0	0
0	0	0	0.329296	6.385978	-20.880266	6.385978	54060.875	-1.455517E-10	-6.870409E+9	13.35952	0.167533	0	0
0	0	0	0.329868	6.385866	-20.879152	6.385866	54073.5	-5.237305E-10	-1.909379E+9	13.443538	0.166396	0	0
0	0	0	0.327948	6.38588	-20.881682	6.38588	54031.375	-3.950572E-10	-2.531279E+9	13.299362	0.166145	0	0
0	0	0	0.328357	6.385788	-20.88085	6.385788	54040.375	6.661578E-10	1.501146E+9	13.345821	0.165153	0	0
0	0	0	0.328643	6.385845	-20.880667	6.385845	54046.625	-1.020436E-9	-9.799737E+8	13.267847	0.164836	0	0
0	0	0	0.327948	6.385908	-20.881775	6.385908	54031.375	-2.651042E-10	-3.772102E+9	13.217823	0.163937	0	0
0	0	0	0.326642	6.385936	-20.883559	6.385936	54002.75	-1.993786E-10	-5.015583E+9	13.276625	0.163157	0	0
0	0	0	0.32558	6.38595	-20.884979	6.38595	53979.625	-1.773447E-10	-5.638738E+9	13.130743	0.162601	0	0
0	0	0	0.324967	6.385894	-20.885585	6.385894	53966.125	-3.169069E-10	-3.155501E+9	13.185041	0.161583	0	0
0	0	0	0.32366	6.385908	-20.887322	6.385908	53937.5	-2.646436E-10	-3.778667E+9	13.023298	0.161398	0	0
0	0	0	0.323497	6.385999	-20.887837	6.385999	53934	-1.278957E-10	-7.818868E+9	13.057656	0.160341	0	0
0	0	0	0.323375	6.385964	-20.887879	6.385964	53931.25	-1.596078E-10	-6.265359E+9	13.006858	0.15997	0	0
0	0	0	0.322068	6.385816	-20.889078	6.385816	53902.75	3.828562E-9	2.611946E+8	12.983806	0.159124	0	0
0	0	0	0.322068	6.385753	-20.888868	6.385753	53902.75	3.268285E-10	3.059709E+9	13.018958	0.158397	0	0
0	0	0	0.320965	6.38588	-20.890715	6.38588	53878.625	-3.939403E-10	-2.538455E+9	12.902078	0.157987	0	0
0	0	0	0.321292	6.386013	-20.890737	6.386013	53885.75	-1.183718E-10	-8.447958E+9	12.977724	0.156995	0	0
0	0	0	0.320434	6.385859	-20.891332	6.385859	53867	-6.22841E-10	-1.605546E+9	12.849968	0.156718	0	0
0	0	0	0.317576	6.386077	-20.895754	6.386077	53804.625	-8.877594E-11	-1.126431E+10	12.883309	0.1557	0	0
0	0	0	0.317494	6.385704	-20.894621	6.385704	53802.875	1.906196E-10	5.246051E+9	12.802835	0.15533	0	0
0	0	0	0.315616	6.386006	-20.898056	6.386006	53761.875	-1.226142E-10	-8.155662E+9	12.780811	0.154536	0	0
0	0	0	0.31386	6.38588	-20.899907	6.38588	53723.625	-3.92807E-10	-2.545779E+9	12.783779	0.154007	0	0
0	0	0	0.312757	6.38602	-20.901801	6.38602	53699.625	-1.137739E-10	-8.789361E+9	12.70144	0.153426	0	0
0	0	0	0.311777	6.385845	-20.902484	6.385845	53678.375	-1.013483E-9	-9.866966E+8	12.73999	0.152527	0	0
0	0	0	0.312512	6.386035	-20.902164	6.386035	53694.25	-1.062186E-10	-9.414548E+9	12.608065	0.152156	0	0
0	0	0	0.31194	6.385957	-20.902647	6.385957	53681.875	-1.671615E-10	-5.982239E+9	12.672184	0.151112	0	0
0	0	0	0.313329	6.38602	-20.901061	6.38602	53712.125	-1.138004E-10	-8.787315E+9	12.520299	0.150966	0	0
0	0	0	0.316106	6.385852	-20.896908	6.385852	53772.625	-7.712089E-10	-1.296666E+9	12.552347	0.149975	0	0
0	0	0	0.314636	6.386112	-20.899674	6.386112	53740.5	-7.789874E-11	-1.283718E+10	12.483976	0.149552	0	0
0	0	0	0.317412	6.385866	-20.895264	6.385866	53801.125	-5.210924E-10	-1.919045E+9	12.428232	0.148904	0	0
0	0	0	0.319454	6.38588	-20.89267	6.38588	53845.625	-3.93699E-10	-2.540011E+9	12.452203	0.14815	0	0
0	0	0	0.319944	6.385971	-20.89234	6.385971	53856.375	-1.518538E-10	-6.585283E+9	12.341475	0.147833	0	0
0	0	0	0.319781	6.385873	-20.892224	6.385873	53852.75	-4.487443E-10	-2.22844E+9	12.407063	0.146868	0	0
0	0	0	0.321169	6.386013	-20.890895	6.386013	53883.125	-1.18366E-10	-8.448369E+9	12.265494	0.146617	0	0
0	0	0	0.321374	6.38602	-20.890654	6.38602	53887.625	-1.141722E-10	-8.758697E+9	12.334942	0.145651	0	0
0	0	0	0.322558	6.38595	-20.888889	6.38595	53913.5	-1.771274E-10	-5.645653E+9	12.178044	0.145612	0	0
0	0	0	0.3246	6.385943	-20.886224	6.385943	53958.125	-1.876047E-10	-5.330357E+9	12.269872	0.144369	0	0
0	0	0	0.324396	6.385964	-20.886558	6.385964	53953.625	-1.59674E-10	-6.26276E+9	12.144322	0.144276	0	0
0	0	0	0.32411	6.386056	-20.887232	6.386056	53947.375	-9.706438E-11	-1.030244E+10	12.175644	0.143245	0	0
0	0	0	0.324722	6.385873	-20.885832	6.385873	53960.75	-4.496443E-10	-2.22398E+9	12.12535	0.142941	0	0
0	0	0	0.324273	6.385873	-20.886413	6.385873	53951	-4.49563E-10	-2.224382E+9	12.073419	0.142148	0	0
0	0	0	0.324926	6.386098	-20.886315	6.386098	53965.25	-8.221965E-11	-1.216254E+10	12.055492	0.141645	0	0
0	0	0	0.32705	6.385838	-20.882704	6.385838	54011.75	-1.491896E-9	-6.702879E+8	11.938412	0.141222	0	0
0	0	0	0.327785	6.385943	-20.882103	6.385943	54027.875	-1.878472E-10	-5.323476E+9	11.999279	0.140416	0	0
0	0	0	0.328602	6.385887	-20.88086	6.385887	54045.75	-3.520223E-10	-2.840729E+9	11.873111	0.140125	0	0
0	0	0	0.328561	6.385866	-20.880843	6.385866	54044.875	-5.234533E-10	-1.91039E+9	11.929034	0.139186	0	0
0	0	0	0.327703	6.38588	-20.881999	6.38588	54026	-3.950179E-10	-2.531531E+9	11.773631	0.139054	0	0
0	0	0	0.327622	6.38595	-20.882338	6.38595	54024.25	-1.774913E-10	-5.63408E+9	11.851731	0.138062	0	0
0	0	0	0.32754	6.38588	-20.88221	6.38588	54022.5	-3.949923E-10	-2.531695E+9	11.701203	0.13789	0	0
0	0	0	0.326968	6.385957	-20.883207	6.385957	54010	-1.681833E-10	-5.945895E+9	11.795284	0.136819	0	0
0	0	0	0.32803	6.386042	-20.882114	6.386042	54033.125	-1.034586E-10	-9.665699E+9	11.654341	0.136674	0	0
0	0	0	0.326029	6.385831	-20.884001	6.385831	53989.375	-2.776863E-9	-3.601186E+8	11.694041	0.135801	0	0
0	0	0	0.325539	6.385922	-20.884939	6.385922	53978.625	-2.274378E-10	-4.396806E+9	11.619019	0.135537	0	0
0	0	0	0.324232	6.386028	-20.88698	6.386028	53950.125	-1.103847E-10	-9.059223E+9	11.622024	0.134611	0	0
0	0	0	0.32317	6.385957	-20.88812	6.385957	53926.875	-1.679244E-10	-5.95506E+9	11.539195	0.134281	0	0
0	0	0	0.322109	6.385957	-20.889493	6.385957	53903.625	-1.67852E-10	-5.957629E+9	11.50494	0.133527	0	0
0	0	0	0.320353	6.385943	-20.891718	6.385943	53865.25	-1.872818E-10	-5.339548E+9	11.470245	0.133144	0	0
0	0	0	0.320516	6.385936	-20.891483	6.385936	53868.875	-1.988844E-10	-5.028047E+9	11.423488	0.132469	0	0
0	0	0	0.318393	6.385838	-20.893903	6.385838	53822.5	-1.486669E-9	-6.726448E+8	11.426172	0.131993	0	0
0	0	0	0.319985	6.386013	-20.892427	6.386013	53857.25	-1.183092E-10	-8.452428E+9	11.351329	0.131398	0	0
0	0	0	0.319904	6.385985	-20.892439	6.385985	53855.5	-1.387381E-10	-7.207828E+9	11.372936	0.130751	0	0
0	0	0	0.316065	6.38588	-20.897054	6.38588	53771.75	-3.931589E-10	-2.543501E+9	11.235052	0.130407	0	0
0	0	0	0.315902	6.385795	-20.896985	6.385795	53768.125	8.354063E-10	1.197022E+9	11.289241	0.12964	0	0
0	0	0	0.316024	6.385978	-20.897434	6.385978	53770.875	-1.44771E-10	-6.907463E+9	11.175279	0.129296	0	0
0	0	0	0.315657	6.385901	-20.897653	6.385901	53762.875	-2.874236E-10	-3.479186E+9	11.190303	0.128701	0	0
0	0	0	0.315616	6.385838	-20.897495	6.385838	53761.875	-1.484994E-9	-6.734033E+8	11.091989	0.128318	0	0
0	0	0	0.312349	6.385985	-20.902212	6.385985	53690.75	-1.383136E-10	-7.229945E+9	11.117803	0.127617	0	0
0	0	0	0.310634	6.386006	-20.904501	6.386006	53653.375	-1.223667E-10	-8.172155E+9	11.039057	0.127154	0	0
0	0	0	0.311083	6.385999	-20.903896	6.385999	53663.25	-1.272537E-10	-7.858317E+9	11.086579	0.126361	0	0
0	0	0	0.307693	6.385971	-20.908187	6.385971	53589.5	-1.511013E-10	-6.618078E+9	10.955208	0.12603	0	0
0	0	0	0.308347	6.385964	-20.907319	6.385964	53603.75	-1.586386E-10	-6.303638E+9	11.023134	0.12533	0	0
0	0	0	0.30753	6.385852	-20.908001	6.385852	53586	-7.685323E-10	-1.301182E+9	10.862396	0.125145	0	0
0	0	0	0.309776	6.386098	-20.905914	6.386098	53634.75	-8.171611E-11	-1.223749E+10	10.922453	0.124325	0	0
0	0	0	0.3119	6.385964	-20.902723	6.385964	53681	-1.588672E-10	-6.294567E+9	10.765944	0.124193	0	0
0	0	0	0.313043	6.385978	-20.901291	6.385978	53705.875	-1.44596E-10	-6.915823E+9	0	0	0	0
0	0	0	0.312961	6.385901	-20.901139	6.385901	53704.125	-2.871095E-10	-3.482992E+9	0	0	0	0
0	0	0	0.314391	6.385831	-20.899056	6.385831	53735.25	-2.763792E-9	-3.618217E+8	0	0	0	0
0	0	0	0.316392	6.386035	-20.897146	6.386035	53778.875	-1.06386E-10	-9.399733E+9	0	0	0	0
0	0	0	0.316392	6.386056	-20.897216	6.386056	53778.875	-9.676121E-11	-1.033472E+10	0	0	0	0
0	0	0	0.318025	6.386056	-20.895103	6.386056	53814.5	-9.682531E-11	-1.032788E+10	0	0	0	0
0	0	0	0.319291	6.385845	-20.892764	6.385845	53842.125	-1.016574E-9	-9.836957E+8	0	0	0	0
0	0	0	0.32072	6.385992	-20.891406	6.385992	53873.25	-1.330394E-10	-7.516569E+9	0	0	0	0
0	0	0	0.321088	6.38588	-20.890557	6.38588	53881.375	-3.939604E-10	-2.538326E+9	0	0	0	0
0	0	0	0.320965	6.385887	-20.890738	6.385887	53878.625	-3.509337E-10	-2.849541E+9	0	0	0	0
0	0	0	0.321659	6.38602	-20.890284	6.38602	53893.75	-1.141852E-10	-8.757702E+9	0	0	0	0
0	0	0	0.32215	6.385943	-20.889393	6.385943	53904.5	-1.874182E-10	-5.33566E+9	0	0	0	0
0	0	0	0.322395	6.385901	-20.888936	6.385901	53909.875	-2.882095E-10	-3.469699E+9	0	0	0	0
0	0	0	0.323293	6.386063	-20.888312	6.386063	53929.5	-9.41917E-11	-1.061665E+10	0	0	0	0
0	0	0	0.323456	6.385915	-20.88761	6.385915	53933.125	-2.44514E-10	-4.089745E+9	0	0	0	0
0	0	0	0.325825	0	0.325825	0	53984.875	0	0	0	0	0	0
0	0	0	0.326887	0	0.326887	0	54008.125	0	0	0	0	0	0
