Vload_(V)	ILoad_(A)	RsLoad (ohm)	SunsVoc_Voltage_(V)	SunsVoc_Current_(A)	Model_Voltage_(V)	Model_Current_(A)	Carrier_Density_(cm-3)	Lifetime_(s)	Inverse_Lifetime_(s-1)	Efficiency_(%)	Intensity_(suns)	Dark_IV_Voltage_(V)	Dark_IV_Current_(A)
3.5123	6.370171	0	65.297747	-1.231039	65.648233	-1.231039	4.10284E+15	0.000227	4385.45622	19.547137	1.178142	0	0
3.527827	6.372815	-0.570844	65.220648	-0.951579	65.495523	-0.951579	4.029048E+15	0.000231	4302.051628	19.588247	1.177177	0	0
5.131426	6.367719	4.430437	65.098138	-0.575026	65.268038	-0.575026	3.914203E+15	0.000237	4201.412187	19.517476	1.176251	0	0
8.148492	6.357239	6.18295	64.943286	-0.152017	64.98947	-0.152017	3.77317E+15	0.000243	4094.135467	19.470574	1.174043	0	0
11.325738	6.349834	5.979623	64.779531	0.266902	64.696088	0.266902	3.628906E+15	0.00025	3984.609136	19.501629	1.170275	0	0
14.039857	6.348824	5.574501	64.606302	0.66894	64.390921	0.66894	3.481577E+15	0.000256	3880.803639	19.508449	1.166996	0	0
16.848531	6.343041	5.267453	64.4383	1.038976	64.094371	1.038976	3.343712E+15	0.000263	3779.578306	19.458443	1.164722	0	0
19.643472	6.338959	4.900293	64.2723	1.382617	63.802246	1.382617	3.212184E+15	0.00027	3681.684584	19.441804	1.162184	0	0
22.483177	6.333215	4.536816	64.104257	1.702794	63.50993	1.702794	3.083637E+15	0.000277	3589.875375	19.49247	1.15868	0	0
25.423611	6.332817	4.077757	63.939563	1.994238	63.225812	1.994238	2.961997E+15	0.000284	3504.774929	19.515638	1.155044	0	0
29.0464	6.229318	4.163022	63.77589	2.265708	62.944991	2.265708	2.845239E+15	0.000291	3423.03231	19.476251	1.151117	0	0
31.990799	6.233238	3.675981	63.616301	2.52225	62.669627	2.52225	2.735231E+15	0.000298	3338.833793	19.441928	1.147045	0	0
34.879549	6.228604	3.229233	63.454261	2.758107	62.394976	2.758107	2.62729E+15	0.000305	3263.625569	19.466851	1.142761	0	0
37.772778	6.224859	2.777551	63.296714	2.977831	62.127756	2.977831	2.52586E+15	0.000313	3188.784386	19.502897	1.138861	0	0
40.119304	6.315497	1.939591	63.137165	3.183921	61.859928	3.183921	2.426569E+15	0.00032	3118.193309	19.474696	1.135304	0	0
43.019092	6.301044	1.589222	62.983048	3.371771	61.602447	3.371771	2.333835E+15	0.000327	3051.473307	19.445024	1.13143	0	0
45.892901	6.284137	1.233301	62.830564	3.544556	61.350086	3.544556	2.245064E+15	0.000334	2989.823975	19.469032	1.126908	0	0
46.818623	6.275088	1.130632	62.682531	3.70674	61.104739	3.70674	2.16164E+15	0.000341	2927.411986	19.508482	1.12158	0	0
47.73977	6.261951	1.042298	62.532008	3.85964	60.857822	3.85964	2.079517E+15	0.000348	2868.751019	19.475041	1.116952	0	0
48.675967	6.244764	0.959278	62.386303	4.002257	60.618825	4.002257	2.002546E+15	0.000355	2810.158425	19.444965	1.1121	0	0
49.599522	6.214814	0.907732	62.2368	4.136009	60.376929	4.136009	1.926078E+15	0.000362	2757.064328	19.466105	1.106904	0	0
50.537111	6.182026	0.843604	62.090972	4.260299	60.141728	4.260299	1.853869E+15	0.000369	2705.434617	19.507558	1.10151	0	0
51.464066	6.136468	0.793017	61.945512	4.37593	59.909057	4.37593	1.78412E+15	0.000376	2657.454801	19.490188	1.096763	0	0
52.408215	6.078535	0.741824	61.80189	4.484921	59.679997	4.484921	1.717422E+15	0.000382	2610.075004	19.449216	1.091633	0	0
53.335073	5.999929	0.702863	61.657329	4.587379	59.45122	4.587379	1.652406E+15	0.000389	2565.619891	19.465051	1.085882	0	0
54.258975	5.898359	0.665733	61.514156	4.682895	59.225978	4.682895	1.590053E+15	0.000396	2523.642926	19.514411	1.080157	0	0
55.170585	5.772327	0.629605	61.373923	4.772069	59.006105	4.772069	1.530895E+15	0.000402	2482.870952	19.502722	1.075397	0	0
56.07296	5.607308	0.600426	61.233976	4.85679	58.787489	4.85679	1.473697E+15	0.000409	2442.724964	19.45838	1.07073	0	0
56.975992	5.397789	0.572926	61.088679	4.936821	58.56322	4.936821	1.416204E+15	0.000415	2407.69436	19.471625	1.065481	0	0
57.867076	5.136498	0.548747	60.951591	5.011318	58.350996	5.011318	1.36368E+15	0.000421	2370.661454	19.52054	1.060258	0	0
58.745571	4.810829	0.529068	60.813114	5.080585	58.138656	5.080585	1.312277E+15	0.000427	2338.13227	19.517795	1.055154	0	0
59.611644	4.425736	0.507493	60.682233	5.144779	57.937692	5.144779	1.265181E+15	0.000433	2304.606386	19.474322	1.049839	0	0
60.458625	3.960871	0.492427	60.544858	5.206114	57.729053	5.206114	1.217265E+15	0.000439	2275.59483	19.473656	1.044379	0	0
61.282271	3.42461	0.475927	60.41361	5.263483	57.529543	5.263483	1.172901E+15	0.000445	2245.419727	19.516554	1.039249	0	0
62.067344	2.83076	0.462336	60.282034	5.317283	57.330782	5.317283	1.129779E+15	0.00045	2217.936461	19.51886	1.034648	0	0
62.796199	2.198306	0.458166	60.151398	5.36819	57.134094	5.36819	1.088272E+15	0.000456	2191.327227	19.480043	1.03002	0	0
63.482873	1.53411	0.469044	60.025213	5.416936	56.943672	5.416936	1.049388E+15	0.000462	2162.081896	19.492465	1.02456	0	0
64.077112	0.912654	0.491266	59.898497	5.463018	56.753432	5.463018	1.011505E+15	0.000468	2134.72592	19.536566	1.018888	0	0
53.562398	5.976909	0.693724	59.770352	5.507244	56.56179	5.507244	9.743546E+14	0.000474	2108.178504	19.534197	1.013321	0	0
64.945033	0	0	59.641104	5.549149	56.369474	5.549149	9.380377E+14	0.00048	2083.556113	19.488006	1.008006	0	0
0	0	0	59.519778	5.587193	56.189185	5.587193	9.049758E+14	0.000485	2059.685681	19.482805	1.002585	0	0
0	0	0	59.392695	5.624384	56.001409	5.624384	8.713879E+14	0.00049	2037.55577	19.525803	0.997006	0	0
0	0	0	59.26459	5.658579	55.813618	5.658579	8.385849E+14	0.000495	2020.263528	19.52743	0.991691	0	0
0	0	0	59.145715	5.691309	55.638319	5.691309	8.090701E+14	0.0005	1997.718801	19.485668	0.986561	0	0
0	0	0	59.022021	5.721932	55.457607	5.721932	7.792822E+14	0.000505	1980.588327	19.484027	0.981047	0	0
0	0	0	58.901471	5.75127	55.281415	5.75127	7.511365E+14	0.000509	1961.867218	19.527796	0.975507	0	0
0	0	0	58.780268	5.779157	55.104909	5.779157	7.236987E+14	0.000514	1944.556935	19.533286	0.970404	0	0
0	0	0	58.663108	5.805276	54.934481	5.805276	6.979772E+14	0.000519	1927.165774	19.496335	0.965406	0	0
0	0	0	58.540803	5.830994	54.757221	5.830994	6.719469E+14	0.000523	1910.736204	19.501091	0.959919	0	0
0	0	0	58.426583	5.854672	54.591596	5.854672	6.483773E+14	0.000528	1893.279657	19.537254	0.954247	0	0
0	0	0	58.309341	5.87743	54.422309	5.87743	6.2491E+14	0.000532	1877.698201	19.531553	0.949329	0	0
0	0	0	58.190384	5.898941	54.251306	5.898941	6.01834E+14	0.000536	1864.623044	19.491793	0.944291	0	0
0	0	0	58.076736	5.919612	54.087597	5.919612	5.804628E+14	0.000541	1848.504859	19.498008	0.938897	0	0
0	0	0	57.959086	5.93829	53.919706	5.93829	5.590179E+14	0.000543	1839.884337	19.539811	0.933621	0	0
0	0	0	57.846417	5.957262	53.757958	5.957262	5.391136E+14	0.000548	1824.037144	19.533315	0.928769	0	0
0	0	0	57.731952	5.974554	53.594768	5.974554	5.195107E+14	0.000551	1813.624866	19.497442	0.923731	0	0
0	0	0	57.618958	5.991529	53.433532	5.991529	5.007573E+14	0.000555	1800.845148	19.509388	0.918205	0	0
0	0	0	57.504166	6.007404	53.270484	6.007404	4.822994E+14	0.000558	1791.400106	19.546098	0.913035	0	0
0	0	0	57.395908	6.022145	53.116701	6.022145	4.654278E+14	0.000561	1780.928463	19.533095	0.908289	0	0
0	0	0	57.280096	6.036183	52.953237	6.036183	4.479408E+14	0.000563	1775.839473	19.491451	0.903754	0	0
0	0	0	57.177228	6.049535	52.807259	6.049535	4.328843E+14	0.000567	1764.159583	19.514229	0.898438	0	0
0	0	0	57.063172	6.06284	52.646323	6.06284	4.167012E+14	0.000569	1756.650979	19.552531	0.893256	0	0
0	0	0	56.955118	6.075247	52.493851	6.075247	4.01854E+14	0.000572	1748.034849	19.532564	0.888535	0	0
0	0	0	56.844859	6.087031	52.338767	6.087031	3.871777E+14	0.000574	1741.817845	19.493528	0.883855	0	0
0	0	0	56.737459	6.098272	52.187746	6.098272	3.73331E+14	0.000576	1734.723263	19.518938	0.878685	0	0
0	0	0	56.627731	6.109126	52.033792	6.109126	3.59631E+14	0.000578	1728.934953	19.54827	0.873859	0	0
0	0	0	56.526946	6.118761	51.892526	6.118761	3.474359E+14	0.00058	1723.580277	19.525948	0.869311	0	0
0	0	0	56.416034	6.129127	51.737126	6.129127	3.344346E+14	0.000582	1716.775286	19.497613	0.864446	0	0
0	0	0	56.314719	6.138923	51.594811	6.138923	3.229329E+14	0.000586	1705.67556	19.517152	0.859408	0	0
0	0	0	56.210422	6.146885	51.44984	6.146885	3.114574E+14	0.000586	1707.643147	19.553344	0.854529	0	0
0	0	0	56.101633	6.155925	51.297957	6.155925	2.99872E+14	0.000588	1701.81845	19.510964	0.850179	0	0
0	0	0	56.005463	6.164389	51.163231	6.164389	2.899493E+14	0.000591	1690.535331	19.491197	0.845433	0	0
0	0	0	55.897614	6.171332	51.014057	6.171332	2.791684E+14	0.000589	1696.588185	19.52716	0.840462	0	0
0	0	0	55.795318	6.179772	50.871011	6.179772	2.692734E+14	0.000594	1684.277309	19.549031	0.835689	0	0
0	0	0	55.698454	6.185918	50.736956	6.185918	2.601929E+14	0.000593	1686.805299	19.503972	0.831431	0	0
0	0	0	55.593544	6.193398	50.591029	6.193398	2.506676E+14	0.000595	1679.827432	19.489619	0.826738	0	0
0	0	0	55.495006	6.199005	50.45504	6.199005	2.420063E+14	0.000594	1684.76994	19.528473	0.821872	0	0
0	0	0	55.394058	6.206641	50.314116	6.206641	2.334127E+14	0.000599	1668.870985	19.533508	0.817456	0	0
0	0	0	55.28923	6.21176	50.170004	6.21176	2.247805E+14	0.000596	1678.718397	19.488228	0.813251	0	0
0	0	0	55.189344	6.218796	50.030841	6.218796	2.168243E+14	0.000601	1663.027993	19.487589	0.80869	0	0
0	0	0	55.088927	6.223586	49.892769	6.223586	2.090835E+14	0.000599	1670.036747	19.52431	0.804062	0	0
0	0	0	54.988755	6.228915	49.754519	6.228915	2.016121E+14	0.000599	1668.968268	19.519682	0.799831	0	0
0	0	0	54.89091	6.234604	49.619016	6.234604	1.945495E+14	0.000602	1659.896986	19.464595	0.795653	0	0
0	0	0	54.792984	6.238395	49.48496	6.238395	1.877074E+14	0.000598	1672.300537	19.476679	0.790986	0	0
0	0	0	54.695262	6.244034	49.349554	6.244034	1.810994E+14	0.000603	1659.152272	19.519834	0.786478	0	0
0	0	0	54.599541	6.248562	49.217721	6.248562	1.748339E+14	0.000604	1656.914303	19.49569	0.782458	0	0
0	0	0	54.500471	6.251392	49.082835	6.251392	1.685593E+14	0.000596	1678.603878	19.454198	0.778346	0	0
0	0	0	54.40328	6.25631	48.948611	6.25631	1.626055E+14	0.000599	1668.026555	19.477485	0.773891	0	0
0	0	0	54.306988	6.261226	48.815538	6.261226	1.568986E+14	0.000605	1654.061171	19.517842	0.769488	0	0
0	0	0	54.211308	6.26383	48.685274	6.26383	1.514117E+14	0.000598	1673.04269	19.477978	0.765706	0	0
0	0	0	54.113381	6.267601	48.550941	6.267601	1.459805E+14	0.000597	1673.748264	19.436049	0.761568	0	0
0	0	0	54.019049	6.272306	48.420544	6.272306	1.409201E+14	0.000604	1654.31261	19.479218	0.756927	0	0
0	0	0	53.923736	6.275474	48.290167	6.275474	1.359732E+14	0.000603	1659.007253	19.503166	0.752829	0	0
0	0	0	53.824013	6.277716	48.154692	6.277716	1.309709E+14	0.000595	1681.595738	19.455005	0.7491	0	0
0	0	0	53.730579	6.280805	48.02684	6.280805	1.264405E+14	0.000594	1683.66217	19.423248	0.744896	0	0
0	0	0	53.636083	6.284868	47.896647	6.284868	1.220081E+14	0.0006	1665.498061	19.465648	0.74048	0	0
0	0	0	53.535095	6.288042	47.758534	6.288042	1.174323E+14	0.0006	1666.003648	19.465726	0.736725	0	0
0	0	0	53.440558	6.290133	47.630028	6.290133	1.132954E+14	0.000594	1682.877541	19.410773	0.732943	0	0
0	0	0	53.350636	6.29229	47.507619	6.29229	1.09488E+14	0.00059	1694.473855	19.405111	0.728924	0	0
0	0	0	53.249973	6.295237	47.370066	6.295237	1.05369E+14	0.00059	1694.071575	19.464185	0.724746	0	0
0	0	0	53.154375	6.298617	47.238858	6.298617	1.015931E+14	0.000596	1677.782662	19.456099	0.72115	0	0
0	0	0	53.063064	6.301265	47.114051	6.301265	9.810635E+13	0.000598	1673.121827	19.409073	0.717342	0	0
0	0	0	52.96179	6.303246	46.976502	6.303246	9.437183E+13	0.000592	1689.330974	19.419549	0.713256	0	0
0	0	0	52.863414	6.304566	46.843447	6.304566	9.087371E+13	0.000581	1719.758546	19.45152	0.709157	0	0
0	0	0	52.772675	6.306464	46.720054	6.306464	8.775673E+13	0.000578	1729.319206	19.413368	0.705746	0	0
0	0	0	52.673728	6.309014	46.585015	6.309014	8.44739E+13	0.00058	1724.60877	19.384069	0.701965	0	0
0	0	0	52.57474	6.311764	46.449701	6.311764	8.130712E+13	0.000584	1711.232393	19.413843	0.697893	0	0
0	0	0	52.484492	6.314123	46.326451	6.314123	7.851901E+13	0.000588	1700.425037	19.430892	0.694191	0	0
0	0	0	52.387015	6.315564	46.194389	6.315564	7.561039E+13	0.000581	1720.41895	19.377437	0.6907	0	0
0	0	0	52.287414	6.317055	46.059417	6.317055	7.274516E+13	0.000575	1739.376524	19.357209	0.687038	0	0
0	0	0	52.194143	6.318245	45.933212	6.318245	7.015667E+13	0.000567	1763.150596	19.401667	0.683058	0	0
0	0	0	52.099525	6.31991	45.804716	6.31991	6.76213E+13	0.000565	1770.599943	19.395802	0.67966	0	0
0	0	0	52.000741	6.32164	45.670553	6.32164	6.506844E+13	0.000563	1776.732903	19.34211	0.67613	0	0
0	0	0	51.908532	6.323718	45.544836	6.323718	6.276942E+13	0.000567	1762.925833	19.341937	0.672415	0	0
0	0	0	51.814363	6.325772	45.416495	6.325772	6.050246E+13	0.000572	1748.127863	19.388621	0.668541	0	0
0	0	0	51.708596	6.327576	45.272834	6.327576	5.805053E+13	0.000572	1747.906387	19.358811	0.665328	0	0
0	0	0	51.607199	6.328873	45.135532	6.328873	5.579026E+13	0.000567	1763.369722	19.308066	0.661758	0	0
0	0	0	51.508742	6.329799	45.00254	6.329799	5.367716E+13	0.000558	1791.681902	19.335725	0.657937	0	0
0	0	0	51.407467	6.330585	44.865903	6.330585	5.158457E+13	0.000547	1828.059615	19.379111	0.654235	0	0
0	0	0	51.315585	6.331452	44.741772	6.331452	4.975467E+13	0.000539	1853.812628	19.322716	0.651181	0	0
0	0	0	51.217332	6.332431	44.608969	6.332431	4.786766E+13	0.000532	1878.130943	19.28726	0.647598	0	0
0	0	0	51.107359	6.333736	44.460095	6.333736	4.583803E+13	0.000528	1893.495139	19.333066	0.64371	0	0
0	0	0	51.011965	6.335139	44.330658	6.335139	4.414548E+13	0.000529	1890.40586	19.348059	0.640379	0	0
0	0	0	50.910731	6.336522	44.193392	6.336522	4.241591E+13	0.000529	1889.770613	19.28608	0.637179	0	0
0	0	0	50.80721	6.338128	44.052807	6.338128	4.071564E+13	0.000533	1874.743873	19.284581	0.633583	0	0
0	0	0	50.71251	6.339415	43.92438	6.339415	3.921862E+13	0.000535	1868.149652	19.338309	0.629881	0	0
0	0	0	50.607111	6.340649	43.781642	6.340649	3.761565E+13	0.000535	1869.615828	19.299921	0.626853	0	0
0	0	0	50.503264	6.34157	43.641309	6.34157	3.609899E+13	0.00053	1887.348396	19.251133	0.623547	0	0
0	0	0	50.403786	6.342565	43.50675	6.342565	3.470233E+13	0.000528	1895.03655	19.285408	0.62011	0	0
0	0	0	50.293649	6.343045	43.35844	6.343045	3.321772E+13	0.000514	1945.298756	19.315065	0.616672	0	0
0	0	0	50.191558	6.343648	43.220785	6.343648	3.189724E+13	0.000505	1980.801877	19.260394	0.61371	0	0
0	0	0	50.083014	6.344298	43.074413	6.344298	3.054978E+13	0.000496	2017.472842	19.236275	0.610458	0	0
0	0	0	49.974471	6.344708	42.9283	6.344708	2.925823E+13	0.000482	2073.142917	19.27972	0.606915	0	0
0	0	0	49.861068	6.345483	42.775254	6.345483	2.796616E+13	0.000476	2102.929445	19.260233	0.603913	0	0
0	0	0	49.753463	6.346266	42.62997	6.346266	2.67921E+13	0.00047	2125.434408	19.198693	0.600899	0	0
0	0	0	49.63712	6.34687	42.473152	6.34687	2.557721E+13	0.000461	2170.153912	19.224233	0.597474	0	0
0	0	0	49.530291	6.347836	42.328685	6.347836	2.450953E+13	0.000461	2170.824728	19.263097	0.59405	0	0
0	0	0	49.411212	6.348802	42.167764	6.348802	2.337111E+13	0.000459	2178.093726	19.205122	0.591194	0	0
0	0	0	49.296583	6.350027	42.012508	6.350027	2.232454E+13	0.000465	2149.452905	19.162086	0.588299	0	0
0	0	0	49.178239	6.350854	41.852708	6.350854	2.129254E+13	0.000463	2161.091363	19.224309	0.584808	0	0
0	0	0	49.054341	6.35199	41.685084	6.35199	2.026255E+13	0.000468	2137.406593	19.219917	0.581926	0	0
0	0	0	48.936119	6.352556	41.52573	6.352556	1.932569E+13	0.000461	2171.264341	19.153838	0.579017	0	0
0	0	0	48.809321	6.353406	41.354523	6.353406	1.836841E+13	0.00046	2174.188101	19.149416	0.575764	0	0
0	0	0	48.680482	6.354031	41.180829	6.354031	1.744374E+13	0.000454	2204.148166	19.182781	0.572485	0	0
0	0	0	48.552418	6.354609	41.008223	6.354609	1.657031E+13	0.000447	2237.195342	19.155057	0.569682	0	0
0	0	0	48.418801	6.35518	40.828162	6.35518	1.570513E+13	0.00044	2273.790571	19.108322	0.566747	0	0
0	0	0	48.281998	6.355602	40.643996	6.355602	1.486567E+13	0.000428	2334.605086	19.15087	0.56331	0	0
0	0	0	48.140173	6.355977	40.453136	6.355977	1.404232E+13	0.000415	2407.786012	19.159993	0.560414	0	0
0	0	0	47.996346	6.356313	40.259632	6.356313	1.325353E+13	0.000401	2490.690899	19.084249	0.55769	0	0
0	0	0	47.844516	6.356521	40.055534	6.356521	1.246849E+13	0.000383	2607.89169	19.07763	0.554544	0	0
0	0	0	47.688193	6.356859	39.84524	6.356859	1.170843E+13	0.000369	2708.324061	19.118988	0.551344	0	0
0	0	0	47.522887	6.357165	39.622918	6.357165	1.095468E+13	0.000354	2828.116994	19.079313	0.548779	0	0
0	0	0	47.350883	6.357401	39.391687	6.357401	1.022153E+13	0.000336	2976.032783	19.024358	0.546029	0	0
0	0	0	47.171815	6.357653	39.150946	6.357653	9.510041E+12	0.000319	3135.616657	19.076378	0.542697	0	0
0	0	0	46.982374	6.357965	38.896197	6.357965	8.810878E+12	0.000303	3300.07071	19.106068	0.539947	0	0
0	0	0	46.783377	6.358266	38.628625	6.358266	8.131451E+12	0.000287	3487.471137	19.029674	0.537461	0	0
0	0	0	46.574416	6.358508	38.347745	6.358508	7.474057E+12	0.000269	3717.355098	19.016679	0.534592	0	0
0	0	0	46.347651	6.35901	38.042613	6.35901	6.820383E+12	0.000257	3898.286455	19.06518	0.531512	0	0
0	0	0	46.111819	6.359054	37.725899	6.359054	6.200911E+12	0.000234	4270.67246	19.040168	0.529092	0	0
0	0	0	45.863002	6.359495	37.391218	6.359495	5.608005E+12	0.000221	4534.663202	18.984757	0.52662	0	0
0	0	0	45.597809	6.360039	37.034399	6.360039	5.038156E+12	0.000209	4790.495054	19.015876	0.523565	0	0
0	0	0	45.318936	6.360383	36.659468	6.360383	4.501083E+12	0.000193	5180.213886	19.021386	0.520987	0	0
0	0	0	45.022218	6.360725	36.260564	6.360725	3.992201E+12	0.000177	5636.152249	18.9576	0.518726	0	0
0	0	0	44.710839	6.361308	35.841627	6.361308	3.519787E+12	0.000167	5998.207635	18.949822	0.515976	0	0
0	0	0	44.380348	6.361437	35.397648	6.361437	3.079261E+12	0.000148	6756.294896	18.997407	0.513028	0	0
0	0	0	44.036055	6.36174	34.934881	6.36174	2.678768E+12	0.000133	7497.651883	18.945943	0.510833	0	0
0	0	0	43.678694	6.36224	34.454266	6.36224	2.317991E+12	0.000123	8150.105037	18.893462	0.508374	0	0
0	0	0	43.304304	6.362839	33.95062	6.362839	1.991959E+12	0.000114	8768.091661	18.937706	0.505346	0	0
0	0	0	42.917296	6.362875	33.430843	6.362875	1.703009E+12	9.798826E-5	10205.304332	18.959265	0.502768	0	0
0	0	0	42.510849	6.363444	32.884153	6.363444	1.444517E+12	9.014727E-5	11092.958905	18.887944	0.500639	0	0
0	0	0	42.076348	6.363766	32.300141	6.363766	1.211382E+12	7.939706E-5	12594.924994	18.874443	0.49777	0	0
0	0	0	41.634047	6.364061	31.705681	6.364061	1.012644E+12	6.957698E-5	14372.570147	18.912351	0.495099	0	0
0	0	0	41.178637	6.364387	31.093552	6.364387	8.42009E+11	6.111641E-5	16362.218101	18.888821	0.492904	0	0
0	0	0	40.706607	6.36485	30.458865	6.36485	6.954139E+11	5.487007E-5	18224.870366	18.830827	0.490472	0	0
0	0	0	40.212852	6.365282	29.795027	6.365282	5.692971E+11	4.888928E-5	20454.382689	18.873172	0.487655	0	0
0	0	0	39.703334	6.365529	29.110305	6.365529	4.630774E+11	4.187788E-5	23878.953068	18.873841	0.485236	0	0
0	0	0	39.173193	6.365766	28.397886	6.365766	3.73536E+11	3.560001E-5	28089.882535	18.794694	0.483173	0	0
0	0	0	38.61704	6.365952	27.650604	6.365952	2.981447E+11	2.966933E-5	33704.837029	18.802606	0.480555	0	0
0	0	0	38.032668	6.36653	26.864726	6.36653	2.352608E+11	2.712298E-5	36869.09892	18.858067	0.477752	0	0
0	0	0	37.422447	6.366677	26.044859	6.366677	1.837035E+11	2.206985E-5	45310.680757	18.790481	0.475782	0	0
0	0	0	36.793768	6.366997	25.199876	6.366997	1.423746E+11	1.883041E-5	53105.577752	18.745377	0.473297	0	0
0	0	0	36.138585	6.367245	24.319407	6.367245	1.091638E+11	1.566328E-5	63843.592569	18.800302	0.470599	0	0
0	0	0	35.456247	6.367141	23.403112	6.367141	8.278298E+10	1.146895E-5	87191.906596	18.787089	0.468431	0	0
0	0	0	34.754021	6.367428	22.459356	6.367428	6.227307E+10	9.531031E-6	104920.443132	18.713471	0.466369	0	0
0	0	0	34.027824	6.367356	21.484089	6.367356	4.639139E+10	6.918956E-6	144530.470318	18.71999	0.463698	0	0
0	0	0	33.278227	6.367557	20.47685	6.367557	3.423367E+10	5.49789E-6	181887.970094	18.756903	0.461252	0	0
0	0	0	32.495104	6.36789	19.424289	6.36789	2.492099E+10	4.587088E-6	218003.225867	18.68939	0.459348	0	0
0	0	0	31.70802	6.368243	18.366338	6.368243	1.811252E+10	3.945233E-6	253470.435474	18.674482	0.456928	0	0
0	0	0	30.907623	6.368252	17.291211	6.368252	1.309327E+10	2.865146E-6	349022.413733	18.717633	0.454456	0	0
0	0	0	30.09281	6.368366	16.196492	6.368366	9.409763E+9	2.188825E-6	456866.183103	18.683679	0.452235	0	0
0	0	0	29.263092	6.368423	15.081867	6.368423	6.721782E+9	1.61474E-6	619294.85202	18.619927	0.450225	0	0
0	0	0	28.413119	6.368649	13.939648	6.368649	4.762374E+9	1.313442E-6	761358.211739	18.672864	0.447567	0	0
0	0	0	27.552488	6.368832	12.78319	6.368832	3.359586E+9	1.053227E-6	949463.280929	18.692113	0.445307	0	0
0	0	0	26.680341	6.368895	11.611528	6.368895	2.358958E+9	7.76395E-7	1288004.209427	18.599933	0.443548	0	0
0	0	0	25.792554	6.36872	10.419428	6.36872	1.64589E+9	4.762923E-7	2099550.928468	18.587422	0.441089	0	0
0	0	0	24.905502	6.369106	9.22695	6.369106	1.14871E+9	4.530442E-7	2207290.349567	18.636163	0.438669	0	0
0	0	0	24.011262	6.369099	8.025767	6.369099	7.993827E+8	3.132505E-7	3192333.427754	18.582896	0.436805	0	0
0	0	0	23.104159	6.369303	6.806767	6.369303	5.533934E+8	2.677577E-7	3734719.242663	18.545494	0.434544	0	0
0	0	0	22.21531	6.369268	5.612889	6.369268	3.859467E+8	1.794935E-7	5571231.090487	18.60279	0.432006	0	0
0	0	0	21.338834	6.369275	4.435524	6.369275	2.7052E+8	1.268045E-7	7886156.907474	18.58015	0.429983	0	0
0	0	0	20.481592	6.369093	3.284506	6.369093	1.910988E+8	7.441548E-8	1.343806E+7	18.494294	0.428065	0	0
0	0	0	19.634641	6.369324	2.146192	6.369324	1.355591E+8	6.723521E-8	1.487316E+7	18.519236	0.425672	0	0
0	0	0	18.801412	6.369359	1.026836	6.369359	9.669752E+7	5.003608E-8	1.998558E+7	18.540642	0.423544	0	0
0	0	0	17.987865	6.369388	-0.066062	6.369388	6.952928E+7	3.726811E-8	2.68326E+7	18.450418	0.421851	0	0
0	0	0	17.193716	6.369409	-1.132887	6.369409	5.038899E+7	2.775528E-8	3.602918E+7	18.458499	0.419392	0	0
0	0	0	16.414513	6.369619	-2.18019	6.369619	3.673967E+7	2.796296E-8	3.576159E+7	18.5086	0.417039	0	0
0	0	0	15.661691	6.36971	-3.191721	6.36971	2.707571E+7	2.469277E-8	4.049769E+7	18.437429	0.415465	0	0
0	0	0	14.929409	6.369682	-4.175309	6.369682	2.012061E+7	1.729501E-8	5.782014E+7	18.405921	0.413204	0	0
0	0	0	14.216157	6.36964	-5.133289	6.36964	1.506792E+7	1.192374E-8	8.386632E+7	18.447458	0.410891	0	0
0	0	0	13.51924	6.369542	-6.069151	6.369542	1.135904E+7	7.583995E-9	1.318566E+8	18.418174	0.408973	0	0
0	0	0	12.853603	6.369767	-6.963991	6.369767	8672367	9.008101E-9	1.110112E+8	18.34078	0.407149	0	0
0	0	0	12.218349	6.369605	-7.81682	6.369605	6703219.625	4.975362E-9	2.009904E+8	18.387394	0.404795	0	0
0	0	0	11.609108	6.369514	-8.634918	6.369514	5236119.5	3.346536E-9	2.988165E+8	18.400019	0.402786	0	0
0	0	0	11.026615	6.369738	-9.418094	6.369738	4134713.125	4.015823E-9	2.49015E+8	18.318156	0.40108	0	0
0	0	0	10.468747	6.369774	-10.167592	6.369774	3297744.75	3.485966E-9	2.868646E+8	18.32208	0.398872	0	0
0	0	0	9.93489	6.369738	-10.884607	6.369738	2655930.125	2.579564E-9	3.876625E+8	18.361918	0.39673	0	0
0	0	0	9.422595	6.369788	-11.572934	6.369788	2157808.125	2.364551E-9	4.229133E+8	18.28065	0.395104	0	0
0	0	0	8.936599	6.369753	-12.225657	6.369753	1771901.625	1.778724E-9	5.622007E+8	18.258424	0.393055	0	0
0	0	0	8.472736	6.369774	-12.848834	6.369774	1468127	1.551923E-9	6.443618E+8	18.309595	0.39078	0	0
0	0	0	8.026514	6.369745	-13.448148	6.369745	1225163	1.209579E-9	8.267339E+8	18.262167	0.389101	0	0
0	0	0	7.599282	6.369696	-14.021882	6.369696	1030309.5	9.118412E-10	1.096682E+9	18.196281	0.387277	0	0
0	0	0	7.190385	6.369942	-14.571991	6.369942	872911	1.602465E-9	6.240387E+8	18.263578	0.384844	0	0
0	0	0	6.799497	6.370089	-15.097581	6.370089	744977.75	3.847724E-9	2.598939E+8	18.250411	0.383218	0	0
0	0	0	6.425026	6.369837	-15.599742	6.369837	640040	8.045488E-10	1.242933E+9	18.167824	0.381552	0	0
0	0	0	6.068563	6.369935	-16.078921	6.369935	553913.375	9.865767E-10	1.013606E+9	18.194689	0.379225	0	0
0	0	0	5.723821	6.370047	-16.542409	6.370047	481659.75	1.638668E-9	6.102516E+8	18.210811	0.377413	0	0
0	0	0	5.392595	6.370012	-16.987226	6.370012	421132.625	1.115487E-9	8.964692E+8	18.118852	0.375946	0	0
0	0	0	5.06966	6.369998	-17.42098	6.369998	369451.125	8.989693E-10	1.112385E+9	18.132934	0.37383	0	0
0	0	0	4.74603	6.370181	-17.856364	6.370181	324020.75	-1.36476E-8	-7.327297E+7	18.185047	0.371768	0	0
0	0	0	4.447473	6.370047	-18.256946	6.370047	287080.5	9.766851E-10	1.023871E+9	18.090038	0.370366	0	0
0	0	0	4.159535	6.370068	-18.643814	6.370068	255449	1.047892E-9	9.542971E+8	18.046366	0.368476	0	0
0	0	0	3.881519	6.370054	-19.017226	6.370054	228219	8.232601E-10	1.214683E+9	18.116671	0.366281	0	0
0	0	0	3.617715	6.370139	-19.371903	6.370139	205069.75	2.67797E-9	3.734172E+8	18.056726	0.364945	0	0
0	0	0	3.374002	6.370005	-19.698804	6.370005	185775.75	4.712106E-10	2.122193E+9	17.993812	0.363121	0	0
0	0	0	3.15034	6.369991	-19.999201	6.369991	169670.75	3.967129E-10	2.520715E+9	18.068099	0.36082	0	0
0	0	0	2.96143	6.370089	-20.253324	6.370089	157160.75	8.117183E-10	1.231955E+9	18.025899	0.359432	0	0
0	0	0	2.765496	6.370075	-20.516474	6.370075	145159.25	6.393148E-10	1.564175E+9	17.939589	0.357726	0	0
0	0	0	2.588061	6.370153	-20.755109	6.370153	135083.5	3.131499E-9	3.193359E+8	17.995268	0.355624	0	0
0	0	0	2.426389	6.370117	-20.972157	6.370117	126513	9.982418E-10	1.001761E+9	17.987153	0.354077	0	0
0	0	0	2.261246	6.370195	-21.194282	6.370195	118319.75	-2.069194E-9	-4.8328E+8	17.898034	0.352623	0	0
0	0	0	2.099614	6.370188	-21.411379	6.370188	110814.75	-2.738749E-9	-3.651302E+8	17.91569	0.350454	0	0
0	0	0	1.937942	6.370139	-21.628375	6.370139	103784.125	1.355299E-9	7.378444E+8	17.943411	0.348709	0	0
0	0	0	1.782518	6.37011	-21.837055	6.37011	97446	6.792764E-10	1.472155E+9	17.857568	0.347414	0	0
0	0	0	1.638569	6.370146	-22.030554	6.370146	91921.625	1.535693E-9	6.511718E+8	17.860681	0.34547	0	0
0	0	0	1.503523	6.369984	-22.211364	6.369984	87024	1.958186E-10	5.106767E+9	17.912962	0.343579	0	0
0	0	0	1.373826	6.37004	-22.385797	6.37004	82566.25	2.657827E-10	3.762472E+9	17.817453	0.34227	0	0
0	0	0	1.251765	6.370244	-22.550524	6.370244	78579.625	-4.51037E-10	-2.217113E+9	17.788205	0.340512	0	0
0	0	0	1.129419	6.370075	-22.714244	6.370075	74776.875	3.293346E-10	3.036425E+9	17.846922	0.338476	0	0
0	0	0	1.022427	6.370174	-22.858336	6.370174	71602.5	-1.019646E-8	-9.807328E+7	17.773633	0.337325	0	0
0	0	0	0.908166	6.370096	-23.011536	6.370096	68361.25	3.864508E-10	2.587652E+9	17.729125	0.335501	0	0
0	0	0	0.805299	6.370096	-23.149719	6.370096	65568.75	3.706646E-10	2.697857E+9	17.781591	0.333597	0	0
0	0	0	0.701819	6.37016	-23.288963	6.37016	62874.75	2.380066E-9	4.201565E+8	17.720198	0.332354	0	0
0	0	0	0.598788	6.37016	-23.427367	6.37016	60302.5	2.282696E-9	4.380786E+8	17.655522	0.330715	0	0
0	0	0	0.501352	6.370139	-23.558175	6.370139	57966.75	7.569781E-10	1.321042E+9	17.729385	0.328758	0	0
0	0	0	0.402201	6.370117	-23.691287	6.370117	55682.75	4.393608E-10	2.276034E+9	17.683305	0.327528	0	0
0	0	0	0.309828	6.370132	-23.815426	6.370132	53635.875	5.748983E-10	1.739438E+9	17.622779	0.325981	0	0
0	0	0	0.224439	6.370181	-23.930318	6.370181	51810.875	-2.18224E-9	-4.582447E+8	17.674141	0.323985	0	0
0	0	0	0.147503	6.370328	-24.034227	6.370328	50219.625	-1.339701E-10	-7.464355E+9	17.63912	0.322768	0	0
0	0	0	0.080735	6.370279	-24.123732	6.370279	48878.5	-1.895847E-10	-5.274686E+9	17.55256	0.321407	0	0
0	0	0	0.03169	6.370132	-24.189054	6.370132	47916.125	5.135909E-10	1.947075E+9	17.616832	0.31945	0	0
0	0	0	-0.018294	6.370096	-24.256065	6.370096	46954.875	2.654391E-10	3.767343E+9	17.612915	0.318022	0	0
0	0	0	-0.033852	6.370117	-24.277046	6.370117	46659.625	3.681645E-10	2.716177E+9	17.52668	0.316726	0	0
0	0	0	-0.052596	6.370026	-24.301878	6.370026	46306.375	1.345753E-10	7.430785E+9	17.552926	0.314809	0	0
0	0	0	-0.07277	6.370188	-24.329591	6.370188	45929.125	-1.135122E-9	-8.809623E+8	17.548941	0.313341	0	0
0	0	0	-0.08498	6.370223	-24.346127	6.370223	45702.375	-3.683874E-10	-2.714534E+9	17.431558	0.312231	0	0
0	0	0	-0.091228	6.370307	-24.354841	6.370307	45586.75	-1.403975E-10	-7.122636E+9	17.470071	0.310406	0	0
0	0	0	-0.094535	6.370132	-24.358616	6.370132	45525.625	4.879683E-10	2.049314E+9	17.501385	0.308846	0	0
0	0	0	-0.097476	6.3703	-24.363207	6.3703	45471.375	-1.476449E-10	-6.773009E+9	17.395075	0.307775	0	0
0	0	0	-0.098415	6.370153	-24.363908	6.370153	45454.125	1.053716E-9	9.490226E+8	17.42026	0.305937	0	0
0	0	0	-0.099395	6.370181	-24.365331	6.370181	45436	-1.913734E-9	-5.225386E+8	17.432895	0.304483	0	0
0	0	0	-0.099313	6.370174	-24.365195	6.370174	45437.625	-6.470476E-9	-1.545481E+8	17.318766	0.303465	0	0
0	0	0	-0.099068	6.370447	-24.365908	6.370447	45442.125	-6.894644E-11	-1.450401E+10	17.34613	0.301733	0	0
0	0	0	-0.099477	6.370054	-24.36496	6.370054	45434.5	1.63897E-10	6.101392E+9	17.388797	0.300199	0	0
0	0	0	-0.10013	6.370195	-24.366372	6.370195	45422.5	-7.943553E-10	-1.258883E+9	17.288939	0.29926	0	0
0	0	0	-0.100253	6.370139	-24.366323	6.370139	45420.25	5.931355E-10	1.685955E+9	17.296171	0.297515	0	0
0	0	0	-0.100865	6.370033	-24.366745	6.370033	45409	1.387072E-10	7.209429E+9	17.32717	0.295902	0	0
0	0	0	-0.100824	6.370279	-24.367625	6.370279	45409.75	-1.761305E-10	-5.677608E+9	17.201782	0.295016	0	0
0	0	0	-0.100661	6.370321	-24.367566	6.370321	45412.75	-1.268026E-10	-7.886273E+9	17.221999	0.293297	0	0
0	0	0	-0.100865	6.370293	-24.367734	6.370293	45409	-1.559063E-10	-6.414109E+9	17.252075	0.291936	0	0
0	0	0	-0.100293	6.37023	-24.366725	6.37023	45419.5	-3.226266E-10	-3.099559E+9	17.157259	0.290865	0	0
0	0	0	-0.100089	6.370103	-24.36597	6.370103	45423.25	2.835845E-10	3.526285E+9	17.170694	0.289265	0	0
0	0	0	-0.099599	6.370377	-24.366354	6.370377	45432.25	-9.23616E-11	-1.082701E+10	17.218538	0.287705	0	0
0	0	0	-0.099803	6.370321	-24.366414	6.370321	45428.5	-1.268466E-10	-7.883539E+9	17.09506	0.286792	0	0
0	0	0	-0.100988	6.370195	-24.367524	6.370195	45406.75	-7.940799E-10	-1.259319E+9	17.12124	0.285073	0	0
0	0	0	-0.100824	6.370174	-24.367224	6.370174	45409.75	-6.466506E-9	-1.54643E+8	17.149986	0.283712	0	0
0	0	0	-0.101396	6.370132	-24.367832	6.370132	45399.25	4.866137E-10	2.055018E+9	17.018811	0.282839	0	0
0	0	0	-0.101437	6.370195	-24.368128	6.370195	45398.5	-7.939356E-10	-1.259548E+9	17.058783	0.280922	0	0
0	0	0	-0.101192	6.370279	-24.368119	6.370279	45403	-1.761043E-10	-5.678452E+9	17.065436	0.279706	0	0
0	0	0	-0.101559	6.370188	-24.368265	6.370188	45396.25	-1.121953E-9	-8.913033E+8	16.960688	0.27882	0	0
0	0	0	-0.101927	6.370279	-24.369107	6.370279	45389.5	-1.76052E-10	-5.680141E+9	17.014868	0.277061	0	0
0	0	0	-0.102866	6.370223	-24.370154	6.370223	45372.125	-3.657254E-10	-2.734292E+9	17.034626	0.275792	0	0
0	0	0	-0.102621	6.370146	-24.369531	6.370146	45376.625	7.58087E-10	1.31911E+9	16.905096	0.274814	0	0
0	0	0	-0.102825	6.370223	-24.3701	6.370223	45372.875	-3.657314E-10	-2.734247E+9	16.940478	0.2732	0	0
0	0	0	-0.102703	6.370019	-24.36916	6.370019	45375.125	1.257582E-10	7.951769E+9	16.942724	0.271944	0	0
0	0	0	-0.103724	6.370146	-24.371012	6.370146	45356.375	7.577487E-10	1.319699E+9	16.828257	0.271019	0	0
0	0	0	-0.103397	6.370202	-24.370787	6.370202	45362.375	-6.138233E-10	-1.629133E+9	16.893083	0.269366	0	0
0	0	0	-0.103519	6.370195	-24.370925	6.370195	45360.125	-7.932645E-10	-1.260614E+9	16.893036	0.268189	0	0
0	0	0	-0.103111	6.370321	-24.370858	6.370321	45367.625	-1.266766E-10	-7.894117E+9	16.769432	0.267317	0	0
0	0	0	-0.10401	6.370209	-24.371637	6.370209	45351.125	-5.004476E-10	-1.998211E+9	16.830232	0.265479	0	0
0	0	0	-0.103887	6.37004	-24.370831	6.37004	45353.375	1.459936E-10	6.849616E+9	16.777147	0.264686	0	0
0	0	0	-0.103928	6.370195	-24.371474	6.370195	45352.625	-7.931333E-10	-1.260822E+9	16.703091	0.263443	0	0
0	0	0	-0.104336	6.370153	-24.371862	6.370153	45345.125	1.051189E-9	9.513038E+8	16.772604	0.261909	0	0
0	0	0	-0.105112	6.370139	-24.372851	6.370139	45330.875	5.919684E-10	1.689279E+9	16.717095	0.261142	0	0
0	0	0	-0.105602	6.370026	-24.373081	6.370026	45321.875	1.317141E-10	7.5922E+9	16.64345	0.259899	0	0
0	0	0	-0.10597	6.370174	-24.374136	6.370174	45315.125	-6.453031E-9	-1.549659E+8	16.701894	0.258353	0	0
0	0	0	-0.10548	6.370096	-24.373184	6.370096	45324.125	2.562204E-10	3.902891E+9	16.634495	0.257533	0	0
0	0	0	-0.10499	6.370167	-24.372793	6.370167	45333.125	4.674741E-9	2.139156E+8	16.580664	0.256197	0	0
0	0	0	-0.105071	6.370124	-24.372742	6.370124	45331.625	4.120456E-10	2.426916E+9	16.648096	0.254783	0	0
0	0	0	-0.105725	6.370167	-24.373781	6.370167	45319.625	4.673349E-9	2.139793E+8	16.550043	0.254122	0	0
0	0	0	-0.105071	6.370019	-24.372341	6.370019	45331.625	1.256376E-10	7.959399E+9	16.527417	0.25272	0	0
0	0	0	-0.105235	6.370237	-24.37339	6.370237	45328.625	-2.878005E-10	-3.474629E+9	16.593659	0.251385	0	0
0	0	0	-0.104336	6.370167	-24.371915	6.370167	45345.125	4.675978E-9	2.13859E+8	16.465852	0.250539	0	0
0	0	0	-0.104459	6.370117	-24.371893	6.370117	45342.875	3.577748E-10	2.795055E+9	16.443403	0.249137	0	0
0	0	0	-0.104459	6.370103	-24.371839	6.370103	45342.875	2.830828E-10	3.532536E+9	16.502753	0.247828	0	0
0	0	0	-0.104255	6.370195	-24.371913	6.370195	45346.625	-7.930284E-10	-1.260989E+9	16.362779	0.247101	0	0
0	0	0	-0.103805	6.370251	-24.371523	6.370251	45354.875	-2.375351E-10	-4.209905E+9	16.414357	0.24562	0	0
0	0	0	-0.103642	6.370237	-24.37125	6.370237	45357.875	-2.879862E-10	-3.472389E+9	16.432774	0.244602	0	0
0	0	0	-0.104091	6.370188	-24.371666	6.370188	45349.625	-1.1208E-9	-8.922197E+8	16.30307	0.243716	0	0
0	0	0	-0.102989	6.370195	-24.370212	6.370195	45369.875	-7.93435E-10	-1.260343E+9	16.372402	0.242156	0	0
0	0	0	-0.10356	6.370349	-24.371568	6.370349	45359.375	-1.067238E-10	-9.369979E+9	16.341381	0.241204	0	0
0	0	0	-0.103193	6.370251	-24.3707	6.370251	45366.125	-2.37594E-10	-4.208861E+9	16.241374	0.240305	0	0
0	0	0	-0.10307	6.370202	-24.370349	6.370202	45368.375	-6.139045E-10	-1.628918E+9	16.326929	0.238692	0	0
0	0	0	-0.103152	6.370174	-24.370351	6.370174	45366.875	-6.4604E-9	-1.547892E+8	16.233341	0.238163	0	0
0	0	0	-0.102948	6.370195	-24.370157	6.370195	45370.625	-7.934481E-10	-1.260322E+9	16.173063	0.236947	0	0
0	0	0	-0.103029	6.370146	-24.37008	6.370146	45369.125	7.579617E-10	1.319328E+9	16.259074	0.235585	0	0
0	0	0	-0.102539	6.370244	-24.369796	6.370244	45378.125	-2.604646E-10	-3.839293E+9	16.142146	0.235069	0	0
0	0	0	-0.102784	6.37016	-24.369804	6.37016	45373.625	1.717577E-9	5.822155E+8	16.123054	0.233774	0	0
0	0	0	-0.102703	6.370258	-24.370069	6.370258	45375.125	-2.185074E-10	-4.576505E+9	16.174212	0.23257	0	0
0	0	0	-0.102499	6.370244	-24.369741	6.370244	45378.875	-2.604689E-10	-3.83923E+9	16.057271	0.231843	0	0
0	0	0	-0.102172	6.370096	-24.368741	6.370096	45385	2.565645E-10	3.897656E+9	16.106457	0.230428	0	0
0	0	0	-0.102784	6.370223	-24.370045	6.370223	45373.625	-3.657375E-10	-2.734202E+9	16.093443	0.229529	0	0
0	0	0	-0.10258	6.370272	-24.369958	6.370272	45377.375	-1.882106E-10	-5.313198E+9	15.969292	0.228749	0	0
0	0	0	-0.103029	6.370132	-24.370026	6.370132	45369.125	4.862908E-10	2.056383E+9	16.035436	0.227216	0	0
0	0	0	-0.103438	6.37016	-24.370682	6.37016	45361.625	1.717123E-9	5.823695E+8	15.956864	0.226607	0	0
0	0	0	-0.103315	6.370153	-24.37049	6.370153	45363.875	1.051624E-9	9.509106E+8	15.881369	0.22547	0	0
0	0	0	-0.103887	6.370054	-24.370884	6.370054	45353.375	1.636044E-10	6.112305E+9	15.981236	0.224109	0	0
0	0	0	-0.104091	6.370195	-24.371693	6.370195	45349.625	-7.930808E-10	-1.260906E+9	15.861564	0.223593	0	0
0	0	0	-0.10401	6.370195	-24.371583	6.370195	45351.125	-7.931071E-10	-1.260864E+9	15.868169	0.222363	0	0
0	0	0	-0.105194	6.37016	-24.373041	6.37016	45329.375	1.715902E-9	5.827838E+8	15.902764	0.221213	0	0
0	0	0	-0.105194	6.370033	-24.372559	6.370033	45329.375	1.38464E-10	7.222093E+9	15.76452	0.220499	0	0
0	0	0	-0.105602	6.3703	-24.374124	6.3703	45321.875	-1.471594E-10	-6.795351E+9	15.804344	0.219164	0	0
0	0	0	-0.106011	6.370096	-24.373897	6.370096	45314.375	2.561652E-10	3.90373E+9	15.75053	0.218516	0	0
0	0	0	-0.105194	6.370132	-24.372934	6.370132	45329.375	4.858648E-10	2.058186E+9	15.633673	0.217696	0	0
0	0	0	-0.10548	6.370146	-24.373371	6.370146	45324.125	7.572099E-10	1.320638E+9	15.756759	0.21607	0	0
0	0	0	-0.106133	6.370096	-24.374062	6.370096	45312.125	2.561525E-10	3.903924E+9	15.657068	0.215752	0	0
0	0	0	-0.105888	6.370117	-24.373813	6.370117	45316.625	3.575676E-10	2.796674E+9	15.637727	0.21443	0	0
0	0	0	-0.106664	6.370089	-24.374748	6.370089	45302.375	2.339819E-10	4.273835E+9	15.707914	0.21328	0	0
0	0	0	-0.105888	6.370265	-24.374374	6.370265	45316.625	-2.019644E-10	-4.951367E+9	15.568984	0.212764	0	0
0	0	0	-0.107236	6.370328	-24.376425	6.370328	45291.875	-1.208244E-10	-8.276476E+9	15.576882	0.211482	0	0
0	0	0	-0.108706	6.370209	-24.377945	6.370209	45264.875	-4.994959E-10	-2.002019E+9	15.550037	0.210689	0	0
0	0	0	-0.107807	6.370209	-24.376739	6.370209	45281.375	-4.996779E-10	-2.001289E+9	15.447427	0.209895	0	0
0	0	0	-0.108012	6.370181	-24.376906	6.370181	45277.625	-1.907064E-9	-5.243664E+8	15.530317	0.208507	0	0
0	0	0	-0.109155	6.370209	-24.378549	6.370209	45256.625	-4.994048E-10	-2.002384E+9	15.444549	0.208044	0	0
0	0	0	-0.108461	6.370195	-24.377563	6.370195	45269.375	-7.916774E-10	-1.263141E+9	15.427106	0.206947	0	0
0	0	0	-0.108665	6.370117	-24.377543	6.370117	45265.625	3.571652E-10	2.799825E+9	15.490886	0.205876	0	0
0	0	0	-0.107644	6.370167	-24.376359	6.370167	45284.375	4.669714E-9	2.141459E+8	15.352908	0.2054	0	0
0	0	0	-0.107317	6.370096	-24.375653	6.370096	45290.375	2.560296E-10	3.905799E+9	15.380761	0.204117	0	0
0	0	0	-0.106011	6.370237	-24.374432	6.370237	45314.375	-2.8771E-10	-3.475722E+9	15.361974	0.203351	0	0
0	0	0	-0.106011	6.370174	-24.374191	6.370174	45314.375	-6.452924E-9	-1.549685E+8	15.256343	0.202544	0	0
0	0	0	-0.105888	6.370089	-24.373706	6.370089	45316.625	2.340555E-10	4.272491E+9	15.360418	0.201301	0	0
0	0	0	-0.106378	6.370237	-24.374926	6.370237	45307.625	-2.876671E-10	-3.47624E+9	15.230577	0.200918	0	0
0	0	0	-0.106011	6.370195	-24.374271	6.370195	45314.375	-7.924644E-10	-1.261886E+9	15.235246	0.199715	0	0
0	0	0	-0.10548	6.37023	-24.373692	6.37023	45324.125	-3.219491E-10	-3.106081E+9	15.267848	0.198829	0	0
0	0	0	-0.104949	6.370139	-24.372631	6.370139	45333.875	5.920075E-10	1.689168E+9	15.133976	0.198379	0	0
0	0	0	-0.103928	6.370209	-24.371527	6.370209	45352.625	-5.004642E-10	-1.998145E+9	15.201459	0.196938	0	0
0	0	0	-0.104867	6.370146	-24.372548	6.370146	45335.375	7.573978E-10	1.32031E+9	15.104965	0.196621	0	0
0	0	0	-0.103846	6.370258	-24.371605	6.370258	45354.125	-2.184062E-10	-4.578624E+9	15.039311	0.19547	0	0
0	0	0	-0.10454	6.370167	-24.37219	6.370167	45341.375	4.675591E-9	2.138767E+8	15.10735	0.19436	0	0
0	0	0	-0.104704	6.37016	-24.372382	6.37016	45338.375	1.716243E-9	5.826681E+8	14.980652	0.193976	0	0
0	0	0	-0.10405	6.370391	-24.372387	6.370391	45350.375	-8.632659E-11	-1.158392E+10	15.04983	0.19276	0	0
0	0	0	-0.103969	6.37016	-24.371395	6.37016	45351.875	1.716754E-9	5.824947E+8	14.998684	0.192178	0	0
0	0	0	-0.103765	6.370335	-24.371789	6.370335	45355.625	-1.158282E-10	-8.63348E+9	14.908252	0.191332	0	0
0	0	0	-0.102989	6.370139	-24.369998	6.370139	45369.875	5.924776E-10	1.687827E+9	14.96839	0.190221	0	0
0	0	0	-0.103274	6.370167	-24.370489	6.370167	45364.625	4.677989E-9	2.137671E+8	14.822867	0.189878	0	0
0	0	0	-0.103438	6.370019	-24.370147	6.370019	45361.625	1.257208E-10	7.954135E+9	14.854622	0.188622	0	0
0	0	0	-0.103356	6.370146	-24.370519	6.370146	45363.125	7.578614E-10	1.319502E+9	14.844636	0.187815	0	0
0	0	0	-0.103601	6.370279	-24.371356	6.370279	45358.625	-1.759322E-10	-5.684007E+9	14.733311	0.187233	0	0
0	0	0	-0.103193	6.370089	-24.370085	6.370089	45366.125	2.343112E-10	4.267829E+9	14.851271	0.186057	0	0
0	0	0	-0.103846	6.370174	-24.371284	6.370174	45354.125	-6.458585E-9	-1.548327E+8	14.724589	0.185647	0	0
0	0	0	-0.104091	6.370139	-24.371479	6.370139	45349.625	5.922132E-10	1.688581E+9	14.730495	0.184576	0	0
0	0	0	-0.104663	6.3703	-24.372862	6.3703	45339.125	-1.472154E-10	-6.792766E+9	14.726432	0.183835	0	0
0	0	0	-0.10499	6.370005	-24.372178	6.370005	45333.125	1.149851E-10	8.696776E+9	14.603384	0.183214	0	0
0	0	0	-0.106215	6.37016	-24.374412	6.37016	45310.625	1.715192E-9	5.83025E+8	14.694838	0.18209	0	0
0	0	0	-0.106011	6.370033	-24.373656	6.370033	45314.375	1.384182E-10	7.224484E+9	14.530502	0.181773	0	0
0	0	0	-0.106051	6.370153	-24.374166	6.370153	45313.625	1.050459E-9	9.519651E+8	14.547204	0.180609	0	0
0	0	0	-0.105684	6.370251	-24.374047	6.370251	45320.375	-2.373544E-10	-4.213109E+9	14.53234	0.179975	0	0
0	0	0	-0.105643	6.370216	-24.373858	6.370216	45321.125	-4.222168E-10	-2.368451E+9	14.421701	0.179367	0	0
0	0	0	-0.10646	6.370103	-24.374527	6.370103	45306.125	2.828533E-10	3.535401E+9	14.528278	0.178163	0	0
0	0	0	-0.106133	6.370139	-24.374222	6.370139	45312.125	5.917235E-10	1.689979E+9	14.410103	0.177833	0	0
0	0	0	-0.107236	6.370188	-24.37589	6.370188	45291.875	-1.119373E-9	-8.933573E+8	14.458648	0.176775	0	0
0	0	0	-0.107236	6.370174	-24.375837	6.370174	45291.875	-6.44972E-9	-1.550455E+8	14.427227	0.176154	0	0
0	0	0	-0.107726	6.370132	-24.376335	6.370132	45282.875	4.853663E-10	2.060299E+9	14.301256	0.175519	0	0
0	0	0	-0.107154	6.370391	-24.376556	6.370391	45293.375	-8.621808E-11	-1.159849E+10	14.42151	0.174395	0	0
0	0	0	-0.10646	6.37016	-24.374741	6.37016	45306.125	1.715022E-9	5.830829E+8	14.250314	0.174184	0	0
0	0	0	-0.10842	6.370068	-24.377027	6.370068	45270.125	1.857052E-10	5.384879E+9	14.275389	0.17306	0	0
0	0	0	-0.110503	6.370202	-24.380332	6.370202	45231.875	-6.120574E-10	-1.633834E+9	14.227821	0.172504	0	0
0	0	0	-0.111238	6.370124	-24.381026	6.370124	45218.375	4.110162E-10	2.432994E+9	14.145321	0.171711	0	0
0	0	0	-0.110748	6.370153	-24.380474	6.370153	45227.375	1.048459E-9	9.537805E+8	14.221718	0.170799	0	0
0	0	0	-0.110666	6.370209	-24.380579	6.370209	45228.875	-4.990986E-10	-2.003612E+9	14.087166	0.170455	0	0
0	0	0	-0.109645	6.370223	-24.379261	6.370223	45247.625	-3.647218E-10	-2.741816E+9	14.173241	0.169292	0	0
0	0	0	-0.109849	6.37011	-24.379107	6.37011	45243.875	3.15386E-10	3.170718E+9	14.079358	0.168842	0	0
0	0	0	-0.109604	6.3703	-24.3795	6.3703	45248.375	-1.469208E-10	-6.806389E+9	14.020442	0.168115	0	0
0	0	0	-0.108624	6.370223	-24.377889	6.370223	45266.375	-3.64873E-10	-2.74068E+9	14.068056	0.167361	0	0
0	0	0	-0.107481	6.370279	-24.376567	6.370279	45287.375	-1.756559E-10	-5.69295E+9	13.908841	0.166899	0	0
0	0	0	-0.107848	6.370132	-24.376499	6.370132	45280.625	4.853422E-10	2.060402E+9	14.00032	0.165748	0	0
0	0	0	-0.106991	6.370174	-24.375508	6.370174	45296.375	-6.450361E-9	-1.550301E+8	13.88227	0.165365	0	0
0	0	0	-0.107236	6.370103	-24.37557	6.370103	45291.875	2.827644E-10	3.536514E+9	13.879868	0.164426	0	0
0	0	0	-0.107358	6.370272	-24.376376	6.370272	45289.625	-1.878466E-10	-5.323493E+9	13.851653	0.163977	0	0
0	0	0	-0.106092	6.37011	-24.37406	6.37011	45312.875	3.15867E-10	3.16589E+9	13.762447	0.163355	0	0
0	0	0	-0.105684	6.370363	-24.374474	6.370363	45320.375	-9.885438E-11	-1.011589E+10	13.840034	0.162284	0	0
0	0	0	-0.106174	6.370026	-24.373849	6.370026	45311.375	1.316836E-10	7.593959E+9	13.685067	0.162046	0	0
0	0	0	-0.105929	6.370328	-24.37467	6.370328	45315.875	-1.208884E-10	-8.272092E+9	13.783048	0.160869	0	0
0	0	0	-0.105316	6.370103	-24.372991	6.370103	45327.125	2.829844E-10	3.533763E+9	13.667685	0.160724	0	0
0	0	0	-0.106256	6.370272	-24.374895	6.370272	45309.875	-1.879306E-10	-5.321114E+9	13.683002	0.15964	0	0
0	0	0	-0.10548	6.370244	-24.373745	6.370244	45324.125	-2.601546E-10	-3.843868E+9	13.668748	0.159111	0	0
0	0	0	-0.105112	6.37011	-24.372744	6.37011	45330.875	3.159924E-10	3.164633E+9	13.558528	0.158609	0	0
0	0	0	-0.104377	6.370202	-24.372104	6.370202	45344.375	-6.135797E-10	-1.62978E+9	13.627749	0.15759	0	0
0	0	0	-0.104132	6.370117	-24.371454	6.370117	45348.875	3.578221E-10	2.794685E+9	13.452726	0.157419	0	0
0	0	0	-0.103765	6.370054	-24.37072	6.370054	45355.625	1.636125E-10	6.112002E+9	13.541458	0.156268	0	0
0	0	0	-0.103765	6.370223	-24.371361	6.370223	45355.625	-3.655924E-10	-2.735287E+9	13.427964	0.156004	0	0
0	0	0	-0.103642	6.370117	-24.370796	6.370117	45357.875	3.578931E-10	2.79413E+9	13.40291	0.155078	0	0
0	0	0	-0.104091	6.370377	-24.372388	6.370377	45349.625	-9.219363E-11	-1.084674E+10	13.398932	0.154589	0	0
0	0	0	-0.103887	6.370103	-24.371071	6.370103	45353.375	2.831483E-10	3.531718E+9	13.309089	0.153968	0	0
0	0	0	-0.1045	6.370117	-24.371948	6.370117	45342.125	3.577689E-10	2.795101E+9	13.391575	0.152989	0	0
0	0	0	-0.104581	6.370237	-24.372512	6.370237	45340.625	-2.878767E-10	-3.47371E+9	13.253972	0.152725	0	0
0	0	0	-0.104867	6.370223	-24.372842	6.370223	45335.375	-3.654291E-10	-2.736509E+9	13.359449	0.151654	0	0
0	0	0	-0.105235	6.37023	-24.373363	6.37023	45328.625	-3.219811E-10	-3.105773E+9	13.236484	0.151548	0	0
0	0	0	-0.105888	6.370279	-24.374428	6.370279	45316.625	-1.757693E-10	-5.689275E+9	13.249952	0.150609	0	0
0	0	0	-0.105929	6.370258	-24.374402	6.370258	45315.875	-2.182221E-10	-4.582488E+9	13.215393	0.15012	0	0
0	0	0	-0.106215	6.370188	-24.374519	6.370188	45310.625	-1.119836E-9	-8.929876E+8	13.133507	0.149472	0	0
0	0	0	-0.106337	6.37011	-24.374389	6.37011	45308.375	3.158356E-10	3.166204E+9	13.169631	0.148772	0	0
0	0	0	-0.10646	6.370082	-24.374447	6.370082	45306.125	2.154002E-10	4.642521E+9	13.02275	0.148428	0	0
0	0	0	-0.107072	6.370061	-24.37519	6.370061	45294.875	1.738807E-10	5.751068E+9	13.132932	0.147291	0	0
0	0	0	-0.107481	6.370068	-24.375765	6.370068	45287.375	1.857759E-10	5.382828E+9	12.95799	0.147172	0	0
0	0	0	-0.107766	6.370096	-24.376256	6.370096	45282.125	2.559829E-10	3.906511E+9	13.03435	0.146048	0	0
0	0	0	-0.10793	6.37016	-24.376716	6.37016	45279.125	1.714E-9	5.834306E+8	12.887374	0.146008	0	0
0	0	0	-0.107889	6.370146	-24.376608	6.370146	45279.875	7.564706E-10	1.321928E+9	12.91399	0.145003	0	0
0	0	0	-0.108338	6.370047	-24.376837	6.370047	45271.625	1.5402E-10	6.492664E+9	12.883644	0.144541	0	0
0	0	0	-0.108583	6.370174	-24.377647	6.370174	45267.125	-6.446196E-9	-1.551303E+8	12.788492	0.143946	0	0
0	0	0	-0.108379	6.37023	-24.377587	6.37023	45270.875	-3.215708E-10	-3.109735E+9	12.838177	0.143338	0	0
0	0	0	-0.109114	6.37011	-24.37812	6.37011	45257.375	3.154801E-10	3.169772E+9	12.71178	0.142862	0	0
0	0	0	-0.110298	6.370153	-24.379871	6.370153	45235.625	1.04865E-9	9.536066E+8	12.807556	0.141962	0	0
0	0	0	-0.111401	6.370202	-24.381539	6.370202	45215.375	-6.118342E-10	-1.63443E+9	12.661029	0.141632	0	0
0	0	0	-0.111483	6.370237	-24.381783	6.370237	45213.875	-2.870719E-10	-3.483448E+9	12.743907	0.140627	0	0
0	0	0	-0.111564	6.370223	-24.381839	6.370223	45212.375	-3.644377E-10	-2.743953E+9	12.598041	0.140601	0	0
0	0	0	-0.110094	6.370279	-24.380078	6.370279	45239.375	-1.754697E-10	-5.69899E+9	12.675411	0.139622	0	0
0	0	0	-0.109318	6.370405	-24.379517	6.370405	45253.625	-8.098728E-11	-1.234762E+10	12.567942	0.139371	0	0
0	0	0	-0.109114	6.370068	-24.377959	6.370068	45257.375	1.856529E-10	5.386396E+9	12.553907	0.138472	0	0
0	0	0	-0.109686	6.370279	-24.379529	6.370279	45246.875	-1.754988E-10	-5.698046E+9	12.518589	0.138181	0	0
0	0	0	-0.109604	6.370272	-24.379393	6.370272	45248.375	-1.876755E-10	-5.328346E+9	12.45745	0.137507	0	0
0	0	0	-0.108379	6.370244	-24.37764	6.370244	45270.875	-2.59849E-10	-3.848389E+9	12.468251	0.137004	0	0
0	0	0	-0.108624	6.370244	-24.377969	6.370244	45266.375	-2.598232E-10	-3.848772E+9	12.324106	0.136502	0	0
0	0	0	-0.107358	6.370202	-24.376108	6.370202	45289.625	-6.128389E-10	-1.63175E+9	12.391519	0.135656	0	0
0	0	0	-0.106909	6.370335	-24.376013	6.370335	45297.875	-1.156807E-10	-8.644486E+9	12.27377	0.135325	0	0
0	0	0	-0.106827	6.370005	-24.374647	6.370005	45299.375	1.148995E-10	8.703255E+9	12.361787	0.134466	0	0
0	0	0	-0.106868	6.370314	-24.375878	6.370314	45298.625	-1.326781E-10	-7.537041E+9	12.221119	0.134162	0	0
0	0	0	-0.106256	6.370209	-24.374654	6.370209	45309.875	-4.999924E-10	-2.00003E+9	12.304385	0.133249	0	0
0	0	0	-0.106051	6.370293	-24.374701	6.370293	45313.625	-1.555788E-10	-6.427609E+9	12.139831	0.133263	0	0
0	0	0	-0.105847	6.370082	-24.373624	6.370082	45317.375	2.154537E-10	4.641368E+9	12.225801	0.132046	0	0
0	0	0	-0.105888	6.370244	-24.374294	6.370244	45316.625	-2.601116E-10	-3.844504E+9	12.082716	0.132007	0	0
0	0	0	-0.10499	6.369963	-24.372018	6.369963	45333.125	9.166158E-11	1.09097E+10	12.143623	0.131121	0	0
0	0	0	-0.105194	6.370384	-24.373896	6.370384	45329.375	-8.912312E-11	-1.122043E+10	12.054969	0.13079	0	0
0	0	0	-0.105643	6.370089	-24.373377	6.370089	45321.125	2.340787E-10	4.272067E+9	12.02445	0.130076	0	0
0	0	0	-0.10548	6.370153	-24.373398	6.370153	45324.125	1.050702E-9	9.517446E+8	11.988574	0.129746	0	0
0	0	0	-0.104336	6.370349	-24.372611	6.370349	45345.125	-1.066903E-10	-9.372924E+9	11.96175	0.129019	0	0
0	0	0	-0.104785	6.37023	-24.372759	6.37023	45336.875	-3.220397E-10	-3.105208E+9	11.91093	0.128648	0	0
0	0	0	-0.103887	6.370167	-24.371312	6.370167	45353.375	4.676829E-9	2.138201E+8	11.861115	0.128	0	0
0	0	0	-0.103805	6.370139	-24.371095	6.370139	45354.875	5.922818E-10	1.688386E+9	11.87804	0.127485	0	0
0	0	0	-0.103969	6.370216	-24.371609	6.370216	45351.875	-4.225033E-10	-2.366846E+9	11.772816	0.126837	0	0
0	0	0	-0.104132	6.370124	-24.371481	6.370124	45348.875	4.122024E-10	2.425993E+9	11.819571	0.126176	0	0
0	0	0	-0.103928	6.370328	-24.371982	6.370328	45352.625	-1.209864E-10	-8.265389E+9	11.685703	0.125938	0	0
0	0	0	-0.104785	6.370265	-24.372893	6.370265	45336.875	-2.020547E-10	-4.949155E+9	11.733398	0.12533	0	0
0	0	0	-0.105602	6.370188	-24.373696	6.370188	45321.875	-1.120114E-9	-8.92766E+8	11.630787	0.124973	0	0
0	0	0	-0.106378	6.370124	-24.374498	6.370124	45307.625	4.118274E-10	2.428202E+9	11.685149	0.124179	0	0
0	0	0	-0.106296	6.370286	-24.375003	6.370286	45309.125	-1.650374E-10	-6.059232E+9	11.56556	0.123862	0	0
0	0	0	-0.106746	6.370153	-24.375098	6.370153	45300.875	1.050163E-9	9.52233E+8	11.611199	0.123175	0	0
0	0	0	-0.106092	6.3703	-24.374782	6.3703	45312.875	-1.471302E-10	-6.796701E+9	0	0	0	0
0	0	0	-0.107317	6.370174	-24.375947	6.370174	45290.375	-6.449507E-9	-1.550506E+8	0	0	0	0
0	0	0	-0.107317	6.37011	-24.375706	6.37011	45290.375	3.157101E-10	3.167463E+9	0	0	0	0
0	0	0	-0.10793	6.37016	-24.376716	6.37016	45279.125	1.714E-9	5.834306E+8	0	0	0	0
0	0	0	-0.108257	6.370216	-24.377369	6.370216	45273.125	-4.217696E-10	-2.370963E+9	0	0	0	0
0	0	0	-0.108869	6.370096	-24.377737	6.370096	45261.875	2.558684E-10	3.908258E+9	0	0	0	0
0	0	0	-0.10842	6.370153	-24.377348	6.370153	45270.125	1.04945E-9	9.528799E+8	0	0	0	0
0	0	0	-0.108012	6.370195	-24.376959	6.370195	45277.625	-7.918217E-10	-1.262911E+9	0	0	0	0
0	0	0	-0.108747	6.370139	-24.377733	6.370139	45264.125	5.910967E-10	1.691771E+9	0	0	0	0
0	0	0	-0.108828	6.370146	-24.377869	6.370146	45262.625	7.561824E-10	1.322432E+9	0	0	0	0
0	0	0	-0.1094	6.370124	-24.378557	6.370124	45252.125	4.11323E-10	2.43118E+9	0	0	0	0
0	0	0	-0.110788	6.370216	-24.38077	6.370216	45226.625	-4.213364E-10	-2.3734E+9	0	0	0	0
0	0	0	-0.112994	6.370265	-24.383919	6.370265	45186.25	-2.013834E-10	-4.965653E+9	0	0	0	0
0	0	0	-0.111197	6.370265	-24.381506	6.370265	45219.125	-2.015299E-10	-4.962043E+9	0	0	0	0
0	0	0	-0.112177	6.370307	-24.382983	6.370307	45201.25	-1.392102E-10	-7.183381E+9	0	0	0	0
0	0	0	-0.112463	6.370223	-24.383046	6.370223	45195.875	-3.643047E-10	-2.744955E+9	0	0	0	0
0	0	0	-0.111687	6.37004	-24.381308	6.37004	45210.125	1.455325E-10	6.871319E+9	0	0	0	0
0	0	0	-0.112544	6.370202	-24.383075	6.370202	45194.5	-6.115517E-10	-1.635185E+9	0	0	0	0
0	0	0	-0.110788	6.370237	-24.38085	6.370237	45226.625	-2.871529E-10	-3.482466E+9	0	0	0	0
0	0	0	-0.109441	6.370258	-24.37912	6.370258	45251.375	-2.179114E-10	-4.58902E+9	0	0	0	0
0	0	0	-0.109563	0	-0.109563	0	45249.125	0	0	0	0	0	0
0	0	0	-0.108257	0	-0.108257	0	45273.125	0	0	0	0	0	0
