Vload_(V)	ILoad_(A)	RsLoad (ohm)	SunsVoc_Voltage_(V)	SunsVoc_Current_(A)	Model_Voltage_(V)	Model_Current_(A)	Carrier_Density_(cm-3)	Lifetime_(s)	Inverse_Lifetime_(s-1)	Efficiency_(%)	Intensity_(suns)	Dark_IV_Voltage_(V)	Dark_IV_Current_(A)
3.148942	6.029686	0	51.977351	-0.792613	52.409688	-0.792613	1.010595E+16	0.000659	1348.023714	18.975548	1.188475	0	0
3.147772	6.02619	4.549322	52.44591	-1.024905	52.990431	-1.024905	1.15688E+16	0.000729	1148.635238	18.904413	1.188435	0	0
3.236027	6.031109	-0.550488	52.534035	-0.831985	52.973843	-0.831985	1.186533E+16	0.000769	1066.291828	18.877699	1.187523	0	0
3.931809	6.025146	4.580688	52.472495	-0.491212	52.733076	-0.491212	1.16575E+16	0.000795	1031.869166	18.863179	1.185566	0	0
5.94025	6.02726	3.851864	52.374569	-0.123927	52.440677	-0.123927	1.133388E+16	0.000819	1007.277516	18.846825	1.183451	0	0
8.461122	6.02321	4.059008	52.259818	0.252405	52.124297	0.252405	1.096544E+16	0.000844	984.77496	18.841865	1.179577	0	0
10.88729	6.018378	4.066704	52.13788	0.604208	51.811243	0.604208	1.058631E+16	0.000868	966.051679	18.808021	1.175663	0	0
12.91123	6.017416	3.810729	52.009694	0.936833	51.499608	0.936833	1.020105E+16	0.000891	949.556423	18.754014	1.17245	0	0
14.961372	6.018432	3.385552	51.886245	1.251611	51.200096	1.251611	9.842496E+15	0.000916	930.47672	18.715721	1.170004	0	0
17.091015	6.017463	3.109471	51.756588	1.552404	50.899456	1.552404	9.478645E+15	0.000942	912.700452	18.713384	1.167043	0	0
19.430162	6.010089	3.052418	51.621991	1.828896	50.604755	1.828896	9.114252E+15	0.000965	898.204994	18.739747	1.163089	0	0
21.643356	6.003282	2.845017	51.491804	2.080061	50.326681	2.080061	8.774266E+15	0.000988	884.098988	18.756291	1.158515	0	0
23.827201	6.005049	2.4383	51.368804	2.312794	50.064716	2.312794	8.463927E+15	0.001013	868.269043	18.753369	1.154244	0	0
26.009525	6.002131	2.145352	51.247111	2.53628	49.807676	2.53628	8.166943E+15	0.00104	850.85097	18.754362	1.150013	0	0
28.1273	6.003679	1.756303	51.113453	2.750059	49.541576	2.750059	7.851904E+15	0.001065	836.604833	18.739896	1.146179	0	0
30.270383	5.99976	1.483697	50.98882	2.94119	49.296612	2.94119	7.568297E+15	0.00109	822.278835	18.724034	1.142212	0	0
32.418445	6.000354	1.114529	50.868515	3.114686	49.065157	3.114686	7.303532E+15	0.001115	808.670248	18.729208	1.137928	0	0
33.120384	5.999807	1.007743	50.747966	3.275426	48.839602	3.275426	7.046802E+15	0.001138	796.196196	18.741114	1.132825	0	0
33.830116	5.997146	0.936442	50.627538	3.432342	48.615252	3.432342	6.798631E+15	0.001164	782.088151	18.760207	1.127272	0	0
34.51635	5.995934	0.840597	50.509357	3.574706	48.400833	3.574706	6.562899E+15	0.001189	769.400662	18.769731	1.12156	0	0
35.216584	5.991222	0.791629	50.38991	3.706813	48.190075	3.706813	6.332254E+15	0.001213	758.067922	18.760968	1.116298	0	0
35.916998	5.983403	0.767762	50.27128	3.829899	47.98466	3.829899	6.110526E+15	0.001236	747.288792	18.751197	1.110996	0	0
36.623279	5.970066	0.775653	50.15706	3.947424	47.786639	3.947424	5.903739E+15	0.001261	735.008619	18.73522	1.105694	0	0
37.319963	5.953286	0.779713	50.03745	4.059247	47.585199	4.059247	5.694019E+15	0.001285	724.101681	18.726911	1.100167	0	0
38.020108	5.933773	0.773775	49.918574	4.16331	47.388492	4.16331	5.492293E+15	0.001309	713.826888	18.733107	1.0948	0	0
38.712933	5.908689	0.769342	49.800802	4.259485	47.197105	4.259485	5.298825E+15	0.001332	704.382641	18.753247	1.089008	0	0
39.397744	5.871217	0.781173	49.688419	4.34953	47.0149	4.34953	5.119959E+15	0.001356	694.176603	18.775367	1.082926	0	0
40.100069	5.833945	0.760574	49.574363	4.434674	46.833215	4.434674	4.943993E+15	0.001379	684.65851	18.787949	1.077175	0	0
40.802831	5.783968	0.747267	49.460837	4.514133	46.655078	4.514133	4.774248E+15	0.001401	675.768179	18.773675	1.072429	0	0
41.49419	5.71843	0.740305	49.346413	4.591594	46.476622	4.591594	4.608451E+15	0.001426	666.23864	18.767742	1.067774	0	0
42.186699	5.643256	0.723186	49.234929	4.661253	46.305887	4.661253	4.451873E+15	0.001447	658.091856	18.774667	1.06242	0	0
42.887252	5.550476	0.703967	49.121689	4.731343	46.132403	4.731343	4.29769E+15	0.001472	648.458889	18.779509	1.057356	0	0
43.577992	5.435344	0.68659	49.007143	4.794106	45.961598	4.794106	4.146566E+15	0.001493	641.302727	18.805394	1.05212	0	0
44.255957	5.292725	0.672833	48.900559	4.852405	45.802341	4.852405	4.010191E+15	0.001515	633.248091	18.834901	1.046765	0	0
44.916639	5.12382	0.65883	48.782868	4.909892	45.630472	4.909892	3.864217E+15	0.001535	626.643634	18.84354	1.041675	0	0
45.577479	4.923887	0.643572	48.680246	4.961264	45.479471	4.961264	3.740772E+15	0.001557	618.827696	18.838377	1.036558	0	0
46.239515	4.68645	0.627613	48.565985	5.01275	45.314675	5.01275	3.607413E+15	0.001578	612.106292	18.821132	1.032116	0	0
46.885031	4.404457	0.617583	48.459687	5.059859	45.161559	5.059859	3.487105E+15	0.001599	605.017482	18.819927	1.026867	0	0
47.517344	4.083807	0.606075	48.350327	5.106043	45.005211	5.106043	3.367004E+15	0.001622	597.850702	18.832085	1.021393	0	0
48.134234	3.720361	0.59819	48.243131	5.14877	44.853334	5.14877	3.252794E+15	0.001643	591.228976	18.842259	1.01547	0	0
48.743404	3.318454	0.588461	48.134506	5.189185	44.701057	5.189185	3.140511E+15	0.001662	585.25833	18.862451	1.009269	0	0
49.329595	2.884398	0.582509	48.029474	5.225436	44.555444	5.225436	3.035154E+15	0.001679	580.373076	18.862202	1.003755	0	0
49.878801	2.437093	0.578576	47.922645	5.26099	44.407984	5.26099	2.931143E+15	0.001696	575.272861	18.850108	0.998361	0	0
50.413192	1.964803	0.583584	47.816634	5.294003	44.262948	5.294003	2.830983E+15	0.001712	570.874091	18.842513	0.992636	0	0
50.919618	1.490616	0.592772	47.714624	5.326494	44.122699	5.326494	2.737399E+15	0.001732	565.029052	18.81018	0.987056	0	0
51.375432	1.037788	0.589099	47.602731	5.359246	43.970588	5.359246	2.637815E+15	0.00175	559.806641	18.801506	0.981371	0	0
51.771819	0.634861	0.549817	47.501048	5.387488	43.833199	5.387488	2.550024E+15	0.001766	555.335806	18.823122	0.975673	0	0
42.124022	5.65434	0.720255	47.392872	5.415834	43.68801	5.415834	2.459381E+15	0.001782	551.045286	18.845397	0.970146	0	0
52.293703	0	0	47.291393	5.441603	43.552206	5.441603	2.376862E+15	0.001798	546.815997	18.851016	0.964738	0	0
0	0	0	47.190486	5.46612	43.417774	5.46612	2.297154E+15	0.001813	542.741898	18.832142	0.959489	0	0
0	0	0	47.083943	5.490385	43.276796	5.490385	2.21547E+15	0.001827	539.06645	18.823316	0.954214	0	0
0	0	0	46.98324	5.512467	43.143995	5.512467	2.140538E+15	0.001841	535.573007	18.824856	0.948634	0	0
0	0	0	46.880332	5.534456	43.008551	5.534456	2.06619E+15	0.001856	531.714592	18.845989	0.943174	0	0
0	0	0	46.777914	5.55453	42.874888	5.55453	1.994371E+15	0.001867	528.974698	18.866435	0.93807	0	0
0	0	0	46.678354	5.574037	42.744841	5.574037	1.926584E+15	0.001881	525.498798	18.881544	0.933072	0	0
0	0	0	46.575732	5.593546	42.611095	5.593546	1.858749E+15	0.001896	521.734049	18.88157	0.928154	0	0
0	0	0	46.47605	5.61059	42.482421	5.61059	1.794788E+15	0.001905	519.571165	18.868346	0.923037	0	0
0	0	0	46.375306	5.62738	42.352584	5.62738	1.73203E+15	0.001915	517.167661	18.847006	0.918053	0	0
0	0	0	46.277012	5.642828	42.226476	5.642828	1.672579E+15	0.001923	515.299696	18.863602	0.912883	0	0
0	0	0	46.180475	5.657356	42.102996	5.657356	1.615858E+15	0.001931	513.650382	18.881724	0.907806	0	0
0	0	0	46.079404	5.671954	41.97407	5.671954	1.558203E+15	0.001938	512.05939	18.888395	0.902782	0	0
0	0	0	45.981846	5.685962	41.849599	5.685962	1.504187E+15	0.001947	509.93225	18.887982	0.897863	0	0
0	0	0	45.883838	5.698989	41.725235	5.698989	1.451501E+15	0.001953	508.661978	18.870181	0.893143	0	0
0	0	0	45.78436	5.711778	41.599244	5.711778	1.399603E+15	0.001958	507.357016	18.853694	0.888436	0	0
0	0	0	45.686924	5.723912	41.476054	5.723912	1.350274E+15	0.001964	506.035119	18.855277	0.883743	0	0
0	0	0	45.589733	5.735383	41.353568	5.735383	1.302516E+15	0.001969	505.113187	18.87871	0.878732	0	0
0	0	0	45.490622	5.746367	41.229124	5.746367	1.255266E+15	0.001971	504.762633	18.893111	0.873945	0	0
0	0	0	45.393186	5.757334	41.106593	5.757334	1.210208E+15	0.001977	503.46636	18.89565	0.869357	0	0
0	0	0	45.297751	5.767203	40.987167	5.767203	1.167383E+15	0.001978	503.188539	18.881083	0.86465	0	0
0	0	0	45.198967	5.776916	40.863868	5.776916	1.124386E+15	0.001979	503.261455	18.849221	0.860089	0	0
0	0	0	45.098387	5.787156	40.738003	5.787156	1.081964E+15	0.001985	501.955956	18.835707	0.85525	0	0
0	0	0	45.004095	5.795652	40.620786	5.795652	1.043406E+15	0.001983	502.410123	18.857114	0.85049	0	0
0	0	0	44.906537	5.804279	40.499581	5.804279	1.004718E+15	0.001983	502.653665	18.871126	0.845876	0	0
0	0	0	44.810448	5.81255	40.380324	5.81255	9.677832E+14	0.001983	502.809763	18.88404	0.841248	0	0
0	0	0	44.713951	5.820214	40.261004	5.820214	9.318312E+14	0.001979	503.894149	18.866854	0.836713	0	0
0	0	0	44.617904	5.828356	40.1418	5.828356	8.97154E+14	0.001982	503.13187	18.834052	0.832244	0	0
0	0	0	44.522101	5.834945	40.024034	5.834945	8.636394E+14	0.001973	505.654499	18.815856	0.827696	0	0
0	0	0	44.425849	5.842307	39.905104	5.842307	8.31022E+14	0.001973	505.726555	18.821453	0.823148	0	0
0	0	0	44.331762	5.849241	39.78901	5.849241	8.001349E+14	0.001973	505.896625	18.84477	0.818586	0	0
0	0	0	44.235714	5.855834	39.670835	5.855834	7.695963E+14	0.001969	506.835308	18.856157	0.814276	0	0
0	0	0	44.138359	5.86212	39.551324	5.86212	7.396403E+14	0.001964	508.371118	18.840368	0.809939	0	0
0	0	0	44.043659	5.86733	39.435746	5.86733	7.114415E+14	0.001949	512.162876	18.806	0.805708	0	0
0	0	0	43.953002	5.873659	39.324018	5.873659	6.852944E+14	0.001954	511.036167	18.786366	0.801385	0	0
0	0	0	43.853116	5.878456	39.202596	5.878456	6.574223E+14	0.001934	516.394407	18.789953	0.797114	0	0
0	0	0	43.759069	5.884231	39.087248	5.884231	6.320554E+14	0.001933	516.663739	18.812905	0.792513	0	0
0	0	0	43.668126	5.889851	38.975646	5.889851	6.083134E+14	0.001935	516.134729	18.822262	0.788177	0	0
0	0	0	43.566443	5.893981	38.852551	5.893981	5.826618E+14	0.00191	523.002123	18.791976	0.784157	0	0
0	0	0	43.470273	5.898738	38.735424	5.898738	5.592473E+14	0.0019	525.846898	18.766715	0.77982	0	0
0	0	0	43.380596	5.903944	38.625558	5.903944	5.381362E+14	0.001904	524.785954	18.749934	0.775669	0	0
0	0	0	43.280464	5.907864	38.504382	5.907864	5.153667E+14	0.001882	530.931964	18.758316	0.771213	0	0
0	0	0	43.182579	5.91172	38.385882	5.91172	4.939053E+14	0.001863	536.506737	18.774274	0.766956	0	0
0	0	0	43.090697	5.916466	38.273712	5.916466	4.744583E+14	0.001864	536.061251	18.780353	0.762936	0	0
0	0	0	42.991791	5.920754	38.153608	5.920754	4.542601E+14	0.001855	538.725008	18.758947	0.758891	0	0
0	0	0	42.892394	5.923741	38.033966	5.923741	4.347093E+14	0.001825	547.548127	18.722755	0.754726	0	0
0	0	0	42.798838	5.926684	37.92123	5.926684	4.169728E+14	0.001801	555.011496	18.708218	0.750627	0	0
0	0	0	42.699482	5.930862	37.800619	5.930862	3.988239E+14	0.001795	556.760688	18.720151	0.746423	0	0
0	0	0	42.599269	5.934436	37.679471	5.934436	3.81215E+14	0.00178	561.434417	18.731977	0.742205	0	0
0	0	0	42.506897	5.936949	37.568433	5.936949	3.655855E+14	0.001754	570.017234	18.720082	0.738278	0	0
0	0	0	42.407419	5.939606	37.448878	5.939606	3.493808E+14	0.001725	579.383346	18.695188	0.734245	0	0
0	0	0	42.295894	5.943789	37.313818	5.943789	3.319632E+14	0.001719	581.488822	18.650405	0.730477	0	0
0	0	0	42.197029	5.947694	37.1939	5.947694	3.171643E+14	0.001721	580.969393	18.650189	0.72626	0	0
0	0	0	42.095427	5.950396	37.071744	5.950396	3.025638E+14	0.001698	588.949038	18.654643	0.722201	0	0
0	0	0	41.995745	5.952524	36.952324	5.952524	2.888193E+14	0.001665	600.437404	18.666283	0.718287	0	0
0	0	0	41.902842	5.954404	36.841101	5.954404	2.765105E+14	0.001634	611.89655	18.648196	0.714677	0	0
0	0	0	41.796994	5.95717	36.713836	5.95717	2.630568E+14	0.001614	619.578436	18.622898	0.71079	0	0
0	0	0	41.690941	5.95997	36.586282	5.95997	2.501659E+14	0.001596	626.362621	18.586403	0.707141	0	0
0	0	0	41.591259	5.96275	36.466245	5.96275	2.385682E+14	0.001585	630.623094	18.589966	0.703267	0	0
0	0	0	41.490678	5.965637	36.345041	5.965637	2.27358E+14	0.001579	633.191903	18.60588	0.699314	0	0
0	0	0	41.392058	5.967973	36.226609	5.967973	2.168296E+14	0.001563	639.732227	18.6048	0.695546	0	0
0	0	0	41.289517	5.969496	36.104241	5.969496	2.063522E+14	0.001525	655.633306	18.583579	0.691989	0	0
0	0	0	41.187099	5.971168	35.981879	5.971168	1.963482E+14	0.001493	669.905142	18.541617	0.688485	0	0
0	0	0	41.086151	5.972958	35.861139	5.972958	1.86922E+14	0.001466	682.171602	18.515229	0.684797	0	0
0	0	0	40.983488	5.975001	35.73814	5.975001	1.777614E+14	0.001446	691.493651	18.525258	0.681002	0	0
0	0	0	40.881397	5.977439	35.615457	5.977439	1.690617E+14	0.001439	694.669474	18.544995	0.677221	0	0
0	0	0	40.776161	5.979709	35.489193	5.979709	1.605055E+14	0.001429	699.907525	18.524908	0.673664	0	0
0	0	0	40.674845	5.981618	35.367865	5.981618	1.526471E+14	0.001413	707.833962	18.482451	0.67024	0	0
0	0	0	40.564382	5.983504	35.235743	5.983504	1.444861E+14	0.001392	718.487669	18.44972	0.666683	0	0
0	0	0	40.458656	5.984727	35.109796	5.984727	1.370562E+14	0.001356	737.38424	18.429833	0.663073	0	0
0	0	0	40.35538	5.985673	34.986982	5.985673	1.301434E+14	0.001315	760.207377	18.441778	0.659252	0	0
0	0	0	40.244632	5.987039	34.854959	5.987039	1.230931E+14	0.001284	778.809281	18.45782	0.655722	0	0
0	0	0	40.144868	5.988073	34.736201	5.988073	1.1705E+14	0.001251	799.166264	18.422723	0.65243	0	0
0	0	0	40.030525	5.989579	34.59979	5.989579	1.104669E+14	0.001225	816.14306	18.380499	0.649125	0	0
0	0	0	39.925902	5.991251	34.474697	5.991251	1.047504E+14	0.001212	824.809975	18.361994	0.645449	0	0
0	0	0	39.815153	5.992888	34.342391	5.992888	9.900433E+13	0.001197	835.518439	18.372447	0.641734	0	0
0	0	0	39.706895	5.994472	34.213063	5.994472	9.367696E+13	0.001183	845.008591	18.387083	0.63827	0	0
0	0	0	39.593451	5.996012	34.07764	5.996012	8.838701E+13	0.001168	856.424155	18.379717	0.634832	0	0
0	0	0	39.484091	5.997496	33.947083	5.997496	8.355757E+13	0.001155	866.011479	18.337691	0.631672	0	0
0	0	0	39.366155	5.998628	33.80671	5.998628	7.863195E+13	0.001126	887.887158	18.298428	0.628248	0	0
0	0	0	39.258305	5.999337	33.678639	5.999337	7.43717E+13	0.00109	917.312709	18.284432	0.624836	0	0
0	0	0	39.139879	6.00045	33.53769	6.00045	6.994867E+13	0.001064	939.54506	18.305986	0.621253	0	0
0	0	0	39.024189	6.001006	33.400489	6.001006	6.587253E+13	0.001022	978.710091	18.296846	0.61808	0	0
0	0	0	38.908703	6.001734	33.263363	6.001734	6.203214E+13	0.000987	1012.930109	18.252316	0.614841	0	0
0	0	0	38.785214	6.002626	33.11662	6.002626	5.816474E+13	0.000956	1045.80862	18.203708	0.611641	0	0
0	0	0	38.669524	6.003432	32.979168	6.003432	5.475376E+13	0.000928	1077.869434	18.173438	0.608349	0	0
0	0	0	38.545339	6.004168	32.831741	6.004168	5.130801E+13	0.000894	1118.003501	18.184376	0.604885	0	0
0	0	0	38.420788	6.005159	32.68363	6.005159	4.806377E+13	0.000872	1147.136733	18.183892	0.601606	0	0
0	0	0	38.298401	6.006077	32.538139	6.006077	4.507052E+13	0.000849	1177.530118	18.161818	0.598565	0	0
0	0	0	38.168785	6.007181	32.383922	6.007181	4.209845E+13	0.000832	1201.73674	18.10879	0.595564	0	0
0	0	0	38.038353	6.008223	32.22879	6.008223	3.930087E+13	0.000815	1227.646281	18.089793	0.592245	0	0
0	0	0	37.90739	6.009199	32.073088	6.009199	3.667484E+13	0.000796	1255.74689	18.078186	0.589059	0	0
0	0	0	37.779531	6.010233	31.920988	6.010233	3.427695E+13	0.000784	1275.772692	18.085264	0.585753	0	0
0	0	0	37.644117	6.011107	31.760109	6.011107	3.190482E+13	0.000764	1309.070858	18.077649	0.582659	0	0
0	0	0	37.509315	6.012148	31.599782	6.012148	2.970358E+13	0.000753	1327.24592	18.018116	0.579804	0	0
0	0	0	37.370103	6.012861	31.434559	6.012861	2.758693E+13	0.000729	1370.977541	17.974924	0.576776	0	0
0	0	0	37.230238	6.013604	31.268528	6.013604	2.560987E+13	0.000708	1411.635443	17.96549	0.573536	0	0
0	0	0	37.089515	6.01419	31.101633	6.01419	2.376158E+13	0.000682	1465.961473	17.978006	0.570284	0	0
0	0	0	36.945607	6.014782	30.930963	6.014782	2.200748E+13	0.000657	1522.34506	17.96644	0.567349	0	0
0	0	0	36.801821	6.015063	30.760745	6.015063	2.038258E+13	0.00062	1612.773142	17.920677	0.564546	0	0
0	0	0	36.654483	6.015594	30.586073	6.015594	1.884046E+13	0.000595	1681.369096	17.87289	0.561584	0	0
0	0	0	36.503428	6.016016	30.407115	6.016016	1.73792E+13	0.000566	1768.20628	17.844946	0.55857	0	0
0	0	0	36.349434	6.016237	30.224882	6.016237	1.600494E+13	0.000529	1888.958638	17.859478	0.555489	0	0
0	0	0	36.192907	6.016603	30.039506	6.016603	1.471839E+13	0.0005	1998.122404	17.856761	0.552527	0	0
0	0	0	36.034829	6.016853	29.852413	6.016853	1.352313E+13	0.000469	2133.256433	17.799499	0.550002	0	0
0	0	0	35.871931	6.017269	29.659449	6.017269	1.239212E+13	0.000444	2252.398869	17.754243	0.547133	0	0
0	0	0	35.708422	6.017637	29.465808	6.017637	1.135129E+13	0.000419	2386.073337	17.73809	0.544237	0	0
0	0	0	35.540297	6.018083	29.266628	6.018083	1.037158E+13	0.000398	2514.848643	17.742779	0.541315	0	0
0	0	0	35.371071	6.018263	29.066418	6.018263	9.470315E+12	0.000369	2711.496326	17.740612	0.53842	0	0
0	0	0	35.199434	6.01865	28.863141	6.01865	8.635746E+12	0.000348	2872.753263	17.705172	0.535842	0	0
0	0	0	35.024572	6.01918	28.655895	6.01918	7.860706E+12	0.000333	3004.388095	17.645878	0.533171	0	0
0	0	0	34.847178	6.019343	28.44604	6.019343	7.145169E+12	0.000307	3253.85763	17.621364	0.530368	0	0
0	0	0	34.667946	6.019816	28.233681	6.019816	6.488076E+12	0.000292	3419.615007	17.638406	0.52738	0	0
0	0	0	34.485121	6.020271	28.017089	6.020271	5.879796E+12	0.000278	3599.667801	17.640975	0.524669	0	0
0	0	0	34.300458	6.020527	27.798534	6.020527	5.32308E+12	0.000259	3867.992048	17.597769	0.522065	0	0
0	0	0	34.109628	6.021061	27.572385	6.021061	4.802926E+12	0.000248	4036.782298	17.534016	0.519619	0	0
0	0	0	33.919657	6.021392	27.347466	6.021392	4.335464E+12	0.000233	4300.437688	17.502826	0.516921	0	0
0	0	0	33.722783	6.021731	27.114376	6.021731	3.898851E+12	0.000218	4586.431944	17.515154	0.514079	0	0
0	0	0	33.52199	6.02204	26.876681	6.02204	3.498703E+12	0.000204	4912.83619	17.505153	0.511461	0	0
0	0	0	33.319277	6.022587	26.636448	6.022587	3.136293E+12	0.000197	5087.93452	17.459434	0.509055	0	0
0	0	0	33.115788	6.022884	26.395572	6.022884	2.810178E+12	0.000184	5440.814252	17.40792	0.506503	0	0
0	0	0	32.898252	6.023386	26.137856	6.023386	2.498901E+12	0.000176	5667.616075	17.379506	0.503832	0	0
0	0	0	32.679082	6.02345	25.878695	6.02345	2.220096E+12	0.000158	6313.820157	17.394	0.501055	0	0
0	0	0	32.46518	6.023988	25.625223	6.023988	1.977976E+12	0.000154	6475.339968	17.387247	0.49849	0	0
0	0	0	32.23674	6.02422	25.354908	6.02422	1.748452E+12	0.000142	7026.809901	17.322321	0.496163	0	0
0	0	0	32.016222	6.024657	25.09372	6.024657	1.552163E+12	0.000137	7282.908376	17.257895	0.493651	0	0
0	0	0	31.790886	6.02468	24.827307	6.02468	1.374309E+12	0.000122	8187.278914	17.241015	0.491073	0	0
0	0	0	31.564488	6.025161	24.559108	6.025161	1.21612E+12	0.00012	8364.516574	17.251594	0.48823	0	0
0	0	0	31.33274	6.025454	24.284796	6.025454	1.073022E+12	0.000113	8865.346248	17.22592	0.485705	0	0
0	0	0	31.092621	6.02562	24.000734	6.02562	9.4248E+11	0.000103	9698.104033	17.163634	0.483537	0	0
0	0	0	30.852216	6.025883	23.716216	6.025883	8.27683E+11	9.681103E-5	10329.401007	17.120846	0.480932	0	0
0	0	0	30.612056	6.026163	23.431963	6.026163	7.269583E+11	9.180294E-5	10892.897575	17.099225	0.478314	0	0
0	0	0	30.368058	6.026336	23.143297	6.026336	6.371633E+11	8.461738E-5	11817.902557	17.1028	0.475736	0	0
0	0	0	30.118097	6.026674	22.847381	6.026674	5.566596E+11	8.221907E-5	12162.628238	17.078002	0.473409	0	0
0	0	0	29.867809	6.02705	22.551027	6.02705	4.862383E+11	8.207307E-5	12184.264927	17.005399	0.471227	0	0
0	0	0	29.613357	6.0272	22.25002	6.0272	4.237683E+11	7.582155E-5	13188.862309	16.951214	0.468768	0	0
0	0	0	29.354208	6.027335	21.943475	6.027335	3.683861E+11	6.970232E-5	14346.723908	16.961689	0.466216	0	0
0	0	0	29.091383	6.027296	21.632799	6.027296	3.196049E+11	5.950146E-5	16806.311487	16.965627	0.463784	0	0
0	0	0	28.827906	6.02741	21.321161	6.02741	2.771842E+11	5.417583E-5	18458.415327	16.908499	0.461668	0	0
0	0	0	28.555321	6.027403	20.998906	6.027403	2.392127E+11	4.661588E-5	21451.918242	16.847117	0.459421	0	0
0	0	0	28.284493	6.027801	20.678217	6.027801	2.066383E+11	4.87587E-5	20509.160416	16.81	0.457001	0	0
0	0	0	28.011868	6.027839	20.355854	6.027839	1.783258E+11	4.294631E-5	23284.88812	16.81105	0.454304	0	0
0	0	0	27.734465	6.028042	20.027629	6.028042	1.534953E+11	4.154822E-5	24068.420132	16.813121	0.451911	0	0
0	0	0	27.452856	6.028013	19.694729	6.028013	1.318219E+11	3.505458E-5	28526.941448	16.763659	0.449822	0	0
0	0	0	27.170185	6.028169	19.360333	6.028169	1.131436E+11	3.318544E-5	30133.692989	16.705043	0.447521	0	0
0	0	0	26.884492	6.028265	19.02244	6.028265	9.695323E+10	3.035767E-5	32940.600363	16.661691	0.445154	0	0
0	0	0	26.595329	6.028421	18.680364	6.028421	8.292377E+10	2.915407E-5	34300.528936	16.671533	0.44247	0	0
0	0	0	26.299876	6.028582	18.330841	6.028582	7.068363E+10	2.849378E-5	35095.378312	16.657721	0.44017	0	0
0	0	0	26.006465	6.028664	17.983836	6.028664	6.031668E+10	2.625818E-5	38083.369255	16.566582	0.438213	0	0
0	0	0	25.708317	6.02848	17.631586	6.02848	5.133855E+10	1.893446E-5	52813.753403	16.493865	0.435965	0	0
0	0	0	25.407637	6.028607	17.275924	6.028607	4.363701E+10	1.799977E-5	55556.274749	16.497549	0.433427	0	0
0	0	0	25.105446	6.028662	16.918573	6.028662	3.70605E+10	1.609917E-5	62114.987068	16.506703	0.431192	0	0
0	0	0	24.799785	6.028902	16.556864	6.028902	3.141611E+10	1.78305E-5	56083.672294	16.449352	0.429183	0	0
0	0	0	24.489917	6.028856	16.19057	6.028856	2.657088E+10	1.425127E-5	70169.17434	16.371425	0.427001	0	0
0	0	0	24.177476	6.028977	15.821006	6.028977	2.244167E+10	1.408009E-5	71022.288107	16.323003	0.424886	0	0
0	0	0	23.859236	6.029024	15.444685	6.029024	1.889483E+10	1.27009E-5	78734.556591	16.336519	0.422453	0	0
0	0	0	23.536546	6.028932	15.063297	6.028932	1.587031E+10	9.3614E-6	106821.624451	16.31098	0.420403	0	0
0	0	0	23.196581	6.029032	14.661216	6.029032	1.320604E+10	8.984053E-6	111308.334616	16.25	0.41842	0	0
0	0	0	22.861721	6.029012	14.265338	6.029012	1.10194E+10	7.279748E-6	137367.390724	16.180414	0.416477	0	0
0	0	0	22.529679	6.029186	13.872515	6.029186	9.208833E+9	8.188852E-6	122117.239505	16.180241	0.414044	0	0
0	0	0	22.192981	6.029166	13.474464	6.029166	7.676413E+9	6.568765E-6	152235.621626	16.180154	0.411902	0	0
0	0	0	21.85171	6.029093	13.071083	6.029093	6.383196E+9	4.791219E-6	208715.13719	16.141993	0.41017	0	0
0	0	0	21.502393	6.029386	12.657656	6.029386	5.28481E+9	7.833941E-6	127649.677028	16.066865	0.408147	0	0
0	0	0	21.150709	6.029266	12.242031	6.029266	4.369829E+9	4.634113E-6	215791.020883	16.009803	0.40623	0	0
0	0	0	20.794818	6.029147	11.821436	6.029147	3.605055E+9	2.975911E-6	336031.587072	16.026173	0.403929	0	0
0	0	0	20.432883	6.029293	11.393299	6.029293	2.964425E+9	3.359008E-6	297706.910753	16.015058	0.402012	0	0
0	0	0	20.065272	6.029333	10.958609	6.029333	2.430169E+9	3.065896E-6	326168.97477	15.934518	0.400373	0	0
0	0	0	19.690433	6.029141	10.515725	6.029141	1.984428E+9	1.619269E-6	617562.493762	15.875747	0.39831	0	0
0	0	0	19.303261	6.029506	10.05741	6.029506	1.609678E+9	3.985281E-6	250923.326036	15.868867	0.396221	0	0
0	0	0	18.912047	6.029446	9.594963	6.029446	1.302847E+9	2.420988E-6	413054.4816	15.87621	0.394291	0	0
0	0	0	18.514421	6.029287	9.125092	6.029287	1.050855E+9	1.172262E-6	853051.853487	15.814408	0.392546	0	0
0	0	0	18.107893	6.029447	8.6442	6.029447	8.435325E+8	1.568235E-6	637659.591535	15.74479	0.390628	0	0
0	0	0	17.692707	6.02944	8.15333	6.02944	6.739513E+8	1.219334E-6	820119.914134	15.730641	0.388738	0	0
0	0	0	17.269314	6.029281	7.653	6.029281	5.360782E+8	5.884085E-7	1699499.6842	15.743483	0.386556	0	0
0	0	0	16.835343	6.029334	7.139827	6.029334	4.239793E+8	5.35653E-7	1866880.319089	15.698089	0.38497	0	0
0	0	0	16.391817	6.02936	6.615398	6.02936	3.335937E+8	4.559014E-7	2193456.76884	15.609846	0.383383	0	0
0	0	0	15.942124	6.02942	6.083624	6.02942	2.616033E+8	4.380009E-7	2283100.232854	15.584506	0.38132	0	0
0	0	0	15.485735	6.0294	5.544061	6.0294	2.044073E+8	3.183752E-7	3140948.178684	15.596554	0.379218	0	0
0	0	0	15.018727	6.029693	4.991426	6.029693	1.588023E+8	-1.050547E-5	-95188.540375	15.568622	0.377327	0	0
0	0	0	14.541389	6.029706	4.427036	6.029706	1.226851E+8	-2.725693E-6	-366879.237837	15.486914	0.375873	0	0
0	0	0	14.054086	6.029507	3.851224	6.029507	9.427302E+7	2.339258E-7	4274859.258551	15.4287	0.374048	0	0
0	0	0	13.555961	6.029659	3.262022	6.029659	7.201822E+7	1.210511E-6	826097.529522	15.435636	0.371933	0	0
0	0	0	13.057673	6.0295	2.67316	6.0295	5.50122E+7	1.316367E-7	7596667.867706	15.424123	0.370095	0	0
0	0	0	12.554321	6.029507	2.078028	6.029507	4.190703E+7	1.039967E-7	9615691.753412	15.337119	0.368575	0	0
0	0	0	12.042639	6.029619	1.47286	6.029619	3.178037E+7	2.131896E-7	4690659.92412	15.267535	0.366882	0	0
0	0	0	11.530997	6.02946	0.868218	6.02946	2.41013E+7	4.749091E-8	2.105666E+7	15.242661	0.365018	0	0
0	0	0	11.015966	6.029746	0.258779	6.029746	1.824427E+7	-1.354488E-7	-7382865.61286	15.2531	0.362995	0	0
0	0	0	10.500445	6.029566	-0.350411	6.029566	1.380693E+7	5.141614E-8	1.944914E+7	15.188	0.361461	0	0
0	0	0	9.980636	6.029646	-0.965135	6.029646	1.042465E+7	1.16716E-7	8567809.174135	15.110795	0.359743	0	0
0	0	0	9.461072	6.029719	-1.57956	6.029719	7871963.25	-1.050084E-7	-9523048.267478	15.071705	0.357825	0	0
0	0	0	8.94159	6.029699	-2.193718	6.029699	5944617.625	-1.970823E-7	-5074023.084871	15.078193	0.356001	0	0
0	0	0	8.42762	6.029666	-2.801334	6.029666	4502555.375	1.011625E-7	9885088.055456	15.034308	0.354441	0	0
0	0	0	7.912794	6.029639	-3.409974	6.029639	3408732.125	3.269917E-8	3.058181E+7	14.938825	0.352947	0	0
0	0	0	7.398252	6.029626	-4.018301	6.029626	2581034.375	1.924515E-8	5.196115E+7	14.90474	0.350963	0	0
0	0	0	6.902946	6.029606	-4.603875	6.029606	1974741.625	1.103722E-8	9.06025E+7	14.921386	0.348914	0	0
0	0	0	6.452926	6.029606	-5.135941	6.029606	1548314	8.653849E-9	1.155555E+8	14.88062	0.347446	0	0
0	0	0	6.031615	6.02952	-5.633898	6.02952	1232956	3.304941E-9	3.025773E+8	14.787574	0.346032	0	0
0	0	0	5.624883	6.029619	-6.114978	6.029619	989598	6.639509E-9	1.506135E+8	14.744107	0.344141	0	0
0	0	0	5.229258	6.029613	-6.58272	6.029613	799056.875	4.872856E-9	2.052185E+8	14.75122	0.34225	0	0
0	0	0	4.836124	6.029626	-7.047556	6.029626	646072.875	4.817408E-9	2.075805E+8	14.709529	0.340822	0	0
0	0	0	4.46153	6.029633	-7.490459	6.029633	527640.125	4.427344E-9	2.25869E+8	14.615462	0.339328	0	0
0	0	0	4.100698	6.029613	-7.917039	6.029613	434135.25	2.647473E-9	3.777187E+8	14.563831	0.337464	0	0
0	0	0	3.753791	6.029613	-8.327193	6.029613	359899.75	2.194766E-9	4.556295E+8	14.563643	0.335547	0	0
0	0	0	3.41987	6.029586	-8.721941	6.029586	300460.125	1.343025E-9	7.445877E+8	14.528196	0.334066	0	0
0	0	0	3.096975	6.029487	-9.103504	6.029487	252336.75	5.635833E-10	1.77436E+9	14.412933	0.332903	0	0
0	0	0	2.782697	6.029732	-9.47558	6.029732	212910.625	-2.030813E-9	-4.924136E+8	14.384009	0.331025	0	0
0	0	0	2.484467	6.029739	-9.828197	6.029739	181209.75	-1.512923E-9	-6.609722E+8	14.380606	0.32928	0	0
0	0	0	2.199061	6.029573	-10.1653	6.029573	155301.875	6.124185E-10	1.63287E+9	14.351885	0.327799	0	0
0	0	0	1.92566	6.029533	-10.488465	6.029533	133964.625	3.903457E-10	2.561832E+9	14.259188	0.326437	0	0
0	0	0	1.667123	6.029593	-10.79426	6.029593	116491.25	5.579502E-10	1.792275E+9	14.220147	0.324732	0	0
0	0	0	1.429332	6.02958	-11.075378	6.02958	102439.375	4.292393E-10	2.329703E+9	14.234687	0.322947	0	0
0	0	0	1.214368	6.029732	-11.329851	6.029732	91201	-8.699053E-10	-1.14955E+9	14.175646	0.321519	0	0
0	0	0	1.023947	6.029653	-11.554824	6.029653	82280	1.106303E-9	9.039112E+8	14.084237	0.320316	0	0
0	0	0	0.858314	6.029719	-11.750795	6.029719	75233	-1.003492E-9	-9.965197E+8	14.044994	0.318491	0	0
0	0	0	0.719061	6.029679	-11.915353	6.029679	69777.625	4.767593E-9	2.097494E+8	14.044723	0.316865	0	0
0	0	0	0.599573	6.029732	-12.056737	6.029732	65413	-6.239307E-10	-1.602742E+9	13.987433	0.315582	0	0
0	0	0	0.495031	6.029507	-12.179865	6.029507	61818.75	1.53422E-10	6.51797E+9	13.90023	0.314088	0	0
0	0	0	0.409683	6.029759	-12.281305	6.029759	59031.5	-3.586837E-10	-2.787972E+9	13.874573	0.312396	0	0
0	0	0	0.338872	6.029533	-12.36455	6.029533	56814.5	1.655459E-10	6.040619E+9	13.881689	0.310637	0	0
0	0	0	0.281334	6.029666	-12.432859	6.029666	55074.5	1.237496E-9	8.080837E+8	13.796288	0.309527	0	0
0	0	0	0.224366	6.029779	-12.500451	6.029779	53404.375	-2.550576E-10	-3.920684E+9	13.703042	0.308139	0	0
0	0	0	0.196108	6.029786	-12.533876	6.029786	52594.75	-2.344671E-10	-4.264991E+9	13.703337	0.30638	0	0
0	0	0	0.149717	6.0296	-12.588332	6.0296	51292.125	2.645973E-10	3.779328E+9	13.690126	0.304899	0	0
0	0	0	0.133423	6.029646	-12.607694	6.029646	50842.375	5.692906E-10	1.756572E+9	13.593387	0.303683	0	0
0	0	0	0.105042	6.029786	-12.641545	6.029786	50068.25	-2.232039E-10	-4.480208E+9	13.510801	0.302308	0	0
0	0	0	0.075966	6.029712	-12.675768	6.029712	49287.5	-8.209564E-10	-1.218091E+9	13.524214	0.30047	0	0
0	0	0	0.066615	6.029507	-12.686389	6.029507	49038.875	1.217049E-10	8.216599E+9	13.487075	0.299293	0	0
0	0	0	0.061265	6.029573	-12.692854	6.029573	48897.375	1.928223E-10	5.186122E+9	13.377848	0.29809	0	0
0	0	0	0.052118	6.029759	-12.704063	6.029759	48656.125	-2.956414E-10	-3.382476E+9	13.356721	0.296649	0	0
0	0	0	0.037947	6.029553	-12.720381	6.029553	48284.75	1.618169E-10	6.179824E+9	13.36648	0.294904	0	0
0	0	0	0.020102	6.029673	-12.741733	6.029673	47821.25	1.617205E-9	6.183508E+8	13.281639	0.293886	0	0
0	0	0	0.008259	6.029659	-12.755707	6.029659	47516.125	7.994058E-10	1.250929E+9	13.183802	0.292616	0	0
0	0	0	0.00148	6.029872	-12.764172	6.029872	47342.375	-1.131335E-10	-8.839114E+9	13.175872	0.290924	0	0
0	0	0	-0.004359	6.029639	-12.770584	6.029639	47193.125	4.527231E-10	2.208856E+9	13.155772	0.28976	0	0
0	0	0	-0.006564	6.029732	-12.773388	6.029732	47136.875	-4.49607E-10	-2.224165E+9	13.049846	0.288478	0	0
0	0	0	-0.008116	6.029619	-12.774983	6.029619	47097.375	3.159916E-10	3.164641E+9	12.965015	0.287275	0	0
0	0	0	-0.010281	6.029719	-12.777753	6.029719	47042.25	-6.274711E-10	-1.593699E+9	12.984911	0.28553	0	0
0	0	0	-0.013547	6.029766	-12.781714	6.029766	46959.25	-2.61593E-10	-3.822733E+9	12.943451	0.2843	0	0
0	0	0	-0.017713	6.029772	-12.786653	6.029772	46853.625	-2.409581E-10	-4.150099E+9	12.84147	0.283427	0	0
0	0	0	-0.022205	6.029679	-12.791767	6.029679	46740	3.193537E-9	3.131324E+8	12.81971	0.281814	0	0
0	0	0	-0.02686	6.029792	-12.797511	6.029792	46622.5	-1.948689E-10	-5.131656E+9	12.826618	0.280281	0	0
0	0	0	-0.032046	6.029613	-12.803262	6.029613	46492	2.83521E-10	3.527075E+9	12.732359	0.279302	0	0
0	0	0	-0.037314	6.0296	-12.809463	6.0296	46359.75	2.39153E-10	4.181424E+9	12.662855	0.278112	0	0
0	0	0	-0.04148	6.029719	-12.814641	6.029719	46255.5	-6.169771E-10	-1.620806E+9	12.674729	0.276473	0	0
0	0	0	-0.044706	6.029673	-12.818357	6.029673	46175	1.561533E-9	6.403964E+8	12.634595	0.275296	0	0
0	0	0	-0.049525	6.029686	-12.824082	6.029686	46054.75	-1.541893E-7	-6485535.855926	12.503478	0.274331	0	0
0	0	0	-0.054262	6.029739	-12.829795	6.029739	45937	-3.835285E-10	-2.607368E+9	12.488918	0.272837	0	0
0	0	0	-0.055446	6.029812	-12.83135	6.029812	45907.625	-1.616158E-10	-6.187516E+9	12.490427	0.271475	0	0
0	0	0	-0.059815	6.029825	-12.836545	6.029825	45799.375	-1.458936E-10	-6.854311E+9	12.389411	0.270616	0	0
0	0	0	-0.062878	6.029639	-12.839772	6.029639	45723.5	4.38625E-10	2.279852E+9	12.295247	0.26928	0	0
0	0	0	-0.066798	6.029619	-12.844364	6.029619	45626.75	3.061247E-10	3.266643E+9	12.321522	0.267733	0	0
0	0	0	-0.069004	6.029699	-12.847141	6.029699	45572.375	-1.510635E-9	-6.619731E+8	12.286571	0.266583	0	0
0	0	0	-0.07174	6.029593	-12.85015	6.029593	45505	2.179522E-10	4.588161E+9	12.158477	0.265724	0	0
0	0	0	-0.071127	6.029706	-12.849665	6.029706	45520.125	-1.009267E-9	-9.908185E+8	12.14743	0.264177	0	0
0	0	0	-0.07174	6.029799	-12.850587	6.029799	45505	-1.79023E-10	-5.585873E+9	12.124253	0.262934	0	0
0	0	0	-0.07321	6.029739	-12.852198	6.029739	45468.875	-3.796201E-10	-2.634212E+9	12.016766	0.262035	0	0
0	0	0	-0.073455	6.029699	-12.852403	6.029699	45462.875	-1.507006E-9	-6.635675E+8	11.971216	0.260713	0	0
0	0	0	-0.073169	6.029679	-12.852023	6.029679	45469.875	3.106755E-9	3.218792E+8	11.991296	0.259324	0	0
0	0	0	-0.072189	6.029772	-12.851061	6.029772	45494	-2.339659E-10	-4.274128E+9	11.892097	0.258412	0	0
0	0	0	-0.071454	6.029693	-12.850023	6.029693	45512.125	-2.987695E-9	-3.347061E+8	11.774478	0.257169	0	0
0	0	0	-0.069289	6.029666	-12.847408	6.029666	45565.375	1.02383E-9	9.767242E+8	11.782222	0.255754	0	0
0	0	0	-0.069004	6.029639	-12.847014	6.029639	45572.375	4.371753E-10	2.287412E+9	11.751473	0.254723	0	0
0	0	0	-0.068554	6.029752	-12.846722	6.029752	45583.5	-3.046136E-10	-3.282847E+9	11.640298	0.253771	0	0
0	0	0	-0.067901	6.029799	-12.846048	6.029799	45599.5	-1.793948E-10	-5.574297E+9	11.611128	0.252462	0	0
0	0	0	-0.068024	6.029653	-12.845883	6.029653	45596.5	6.130721E-10	1.63113E+9	11.61117	0.251114	0	0
0	0	0	-0.067983	6.029739	-12.846018	6.029739	45597.5	-3.80694E-10	-2.626782E+9	11.481685	0.250386	0	0
0	0	0	-0.066268	6.029706	-12.84392	6.029706	45639.875	-1.011922E-9	-9.882188E+8	11.444355	0.249038	0	0
0	0	0	-0.065451	6.029845	-12.84325	6.029845	45660	-1.272836E-10	-7.856475E+9	11.455662	0.247597	0	0
0	0	0	-0.064471	6.029859	-12.842119	6.029859	45684.25	-1.175624E-10	-8.506118E+9	11.325024	0.246975	0	0
0	0	0	-0.064879	6.029646	-12.842151	6.029646	45674.125	5.114209E-10	1.955337E+9	11.243546	0.245799	0	0
0	0	0	-0.066145	6.029812	-12.844	6.029812	45642.875	-1.606837E-10	-6.223406E+9	11.261363	0.244305	0	0
0	0	0	-0.064634	6.029693	-12.84196	6.029693	45680.125	-2.998724E-9	-3.334752E+8	11.171895	0.243498	0	0
0	0	0	-0.064103	6.029865	-12.841699	6.029865	45693.25	-1.132338E-10	-8.831285E+9	11.074017	0.242361	0	0
0	0	0	-0.062511	6.0296	-12.839253	6.0296	45732.625	2.359179E-10	4.238763E+9	11.09064	0.241078	0	0
0	0	0	-0.057038	6.029633	-12.832853	6.029633	45868.125	3.84873E-10	2.59826E+9	11.028596	0.240193	0	0
0	0	0	-0.060387	6.029759	-12.83708	6.029759	45785.125	-2.781968E-10	-3.594577E+9	10.914564	0.239241	0	0
0	0	0	-0.057896	6.029739	-12.834092	6.029739	45846.875	-3.82776E-10	-2.612494E+9	10.939338	0.237773	0	0
0	0	0	-0.059897	6.029752	-12.836486	6.029752	45797.25	-3.06042E-10	-3.267525E+9	10.878152	0.236861	0	0
0	0	0	-0.059244	6.029819	-12.835855	6.029819	45813.5	-1.532282E-10	-6.526213E+9	10.765233	0.236028	0	0
0	0	0	-0.060755	6.029613	-12.837205	6.029613	45776	2.791547E-10	3.582244E+9	10.751023	0.234653	0	0
0	0	0	-0.063531	6.029852	-12.840995	6.029852	45707.375	-1.223231E-10	-8.175073E+9	10.705485	0.233701	0	0
0	0	0	-0.063981	6.029739	-12.841286	6.029739	45696.25	-3.815185E-10	-2.621105E+9	10.588819	0.232841	0	0
0	0	0	-0.064716	6.029732	-12.842141	6.029732	45678.125	-4.35693E-10	-2.295194E+9	10.574916	0.231427	0	0
0	0	0	-0.067615	6.029812	-12.845738	6.029812	45606.625	-1.605561E-10	-6.228353E+9	10.551996	0.230594	0	0
0	0	0	-0.071045	6.029832	-12.849836	6.029832	45522.125	-1.38425E-10	-7.224128E+9	10.411673	0.229787	0	0
0	0	0	-0.071495	6.029772	-12.850241	6.029772	45511	-2.340533E-10	-4.272531E+9	10.404909	0.228372	0	0
0	0	0	-0.072311	6.029806	-12.851277	6.029806	45491	-1.690363E-10	-5.915888E+9	10.353396	0.227473	0	0
0	0	0	-0.074639	6.029699	-12.853804	6.029699	45433.75	-1.50604E-9	-6.639929E+8	10.240095	0.226786	0	0
0	0	0	-0.076395	6.029786	-12.856063	6.029786	45390.625	-2.023511E-10	-4.941905E+9	10.238684	0.225318	0	0
0	0	0	-0.076109	6.029679	-12.855499	6.029679	45397.625	3.101819E-9	3.223915E+8	10.217431	0.224459	0	0
0	0	0	-0.076763	6.029679	-12.856272	6.029679	45381.625	3.100726E-9	3.225052E+8	10.076639	0.223745	0	0
0	0	0	-0.076681	6.029779	-12.856387	6.029779	45383.625	-2.167507E-10	-4.613595E+9	10.083322	0.222224	0	0
0	0	0	-0.077212	6.029786	-12.857028	6.029786	45370.625	-2.02262E-10	-4.944083E+9	10.034756	0.221365	0	0
0	0	0	-0.078151	6.029732	-12.858026	6.029732	45347.625	-4.325405E-10	-2.311922E+9	9.896161	0.220783	0	0
0	0	0	-0.078682	6.029865	-12.858935	6.029865	45334.5	-1.123448E-10	-8.901171E+9	9.911488	0.219316	0	0
0	0	0	-0.078437	6.02956	-12.857998	6.02956	45340.625	1.599561E-10	6.251717E+9	9.851095	0.218509	0	0
0	0	0	-0.079049	6.029712	-12.859046	6.029712	45325.5	-7.549635E-10	-1.324567E+9	9.732121	0.217716	0	0
0	0	0	-0.079621	6.029659	-12.859609	6.029659	45311.5	7.623155E-10	1.311793E+9	9.737694	0.216473	0	0
0	0	0	-0.080438	6.029613	-12.860476	6.029613	45291.625	2.762008E-10	3.620554E+9	9.654324	0.215799	0	0
0	0	0	-0.080601	6.02958	-12.860599	6.02958	45287.5	1.897627E-10	5.269738E+9	9.552711	0.214741	0	0
0	0	0	-0.080438	6.029646	-12.860547	6.029646	45291.625	5.071379E-10	1.97185E+9	9.577168	0.213538	0	0
0	0	0	-0.08056	6.029659	-12.86072	6.029659	45288.5	7.619285E-10	1.312459E+9	9.455934	0.21289	0	0
0	0	0	-0.080601	6.029619	-12.860684	6.029619	45287.5	3.038486E-10	3.291113E+9	9.410839	0.211898	0	0
0	0	0	-0.079907	6.029726	-12.860088	6.029726	45304.625	-5.039128E-10	-1.98447E+9	9.419623	0.210722	0	0
0	0	0	-0.080274	6.0296	-12.860255	6.0296	45295.625	2.336635E-10	4.279658E+9	9.267855	0.210153	0	0
0	0	0	-0.079662	6.029666	-12.859672	6.029666	45310.625	1.018106E-9	9.822156E+8	9.235264	0.208897	0	0
0	0	0	-0.079294	6.029646	-12.859195	6.029646	45319.625	5.074515E-10	1.970632E+9	9.194014	0.207932	0	0
0	0	0	-0.078845	6.029693	-12.858762	6.029693	45330.625	-2.975781E-9	-3.360463E+8	9.076354	0.207297	0	0
0	0	0	-0.078845	6.029606	-12.858579	6.029606	45330.625	2.533636E-10	3.946896E+9	9.09712	0.206001	0	0
0	0	0	-0.078069	6.029739	-12.857944	6.029739	45349.625	-3.786245E-10	-2.641139E+9	9.026018	0.205459	0	0
0	0	0	-0.077988	6.029799	-12.857974	6.029799	45351.625	-1.784196E-10	-5.604764E+9	8.94398	0.204428	0	0
0	0	0	-0.077865	6.029699	-12.857618	6.029699	45354.625	-1.503417E-9	-6.651513E+8	8.953799	0.203357	0	0
0	0	0	-0.077089	6.029945	-12.857221	6.029945	45373.625	-7.786201E-11	-1.284323E+10	8.808015	0.202868	0	0
0	0	0	-0.077293	6.029712	-12.85697	6.029712	45368.625	-7.556818E-10	-1.323308E+9	8.772672	0.201612	0	0
0	0	0	-0.076477	6.029706	-12.85599	6.029706	45388.625	-1.006351E-9	-9.936891E+8	8.734814	0.200898	0	0
0	0	0	-0.076885	6.029746	-12.856558	6.029746	45378.625	-3.368637E-10	-2.96856E+9	8.611213	0.200065	0	0
0	0	0	-0.077457	6.029712	-12.857163	6.029712	45364.625	-7.556151E-10	-1.323425E+9	8.63097	0.198835	0	0
0	0	0	-0.07664	6.0296	-12.855958	6.0296	45384.625	2.341227E-10	4.271265E+9	8.547703	0.198333	0	0
0	0	0	-0.076763	6.029726	-12.85637	6.029726	45381.625	-5.047693E-10	-1.981103E+9	8.471073	0.197381	0	0
0	0	0	-0.075007	6.029673	-12.854182	6.029673	45424.75	1.536161E-9	6.509734E+8	8.48107	0.19631	0	0
0	0	0	-0.074353	6.029706	-12.85348	6.029706	45440.75	-1.007507E-9	-9.925493E+8	8.335683	0.195808	0	0
0	0	0	-0.073291	6.029799	-12.852421	6.029799	45466.875	-1.788731E-10	-5.590557E+9	8.335486	0.194485	0	0
0	0	0	-0.073496	6.029706	-12.852466	6.029706	45461.875	-1.007975E-9	-9.920881E+8	8.252198	0.19393	0	0
0	0	0	-0.073087	6.029686	-12.851941	6.029686	45471.875	-1.522377E-7	-6568674.151053	8.148634	0.193031	0	0
0	0	0	-0.073332	6.029659	-12.852174	6.029659	45465.875	7.649127E-10	1.307339E+9	8.160172	0.191947	0	0
0	0	0	-0.072924	6.029619	-12.851607	6.029619	45475.875	3.051124E-10	3.27748E+9	8.013785	0.19163	0	0
0	0	0	-0.073904	6.029812	-12.853174	6.029812	45451.875	-1.600113E-10	-6.249558E+9	8.019812	0.190268	0	0
0	0	0	-0.07468	6.029759	-12.853979	6.029759	45432.75	-2.760558E-10	-3.622457E+9	7.928988	0.189871	0	0
0	0	0	-0.074925	6.029759	-12.854268	6.029759	45426.75	-2.760193E-10	-3.622935E+9	7.862945	0.188932	0	0
0	0	0	-0.076068	6.029526	-12.855127	6.029526	45398.625	1.26766E-10	7.888549E+9	7.846005	0.188007	0	0
0	0	0	-0.077253	6.029786	-12.857077	6.029786	45369.625	-2.022575E-10	-4.944192E+9	7.729881	0.187399	0	0
0	0	0	-0.078355	6.029786	-12.85838	6.029786	45342.625	-2.021371E-10	-4.947137E+9	7.73874	0.186262	0	0
0	0	0	-0.078845	6.029613	-12.858594	6.029613	45330.625	2.764386E-10	3.617439E+9	7.614413	0.185719	0	0
0	0	0	-0.078764	6.029812	-12.858919	6.029812	45332.625	-1.595915E-10	-6.265998E+9	7.556608	0.184648	0	0
0	0	0	-0.078641	6.029786	-12.858718	6.029786	45335.625	-2.021059E-10	-4.9479E+9	7.488737	0.184001	0	0
0	0	0	-0.079131	6.029626	-12.85896	6.029626	45323.625	3.379541E-10	2.958982E+9	7.380068	0.183432	0	0
0	0	0	-0.079948	6.029812	-12.86032	6.029812	45303.625	-1.594894E-10	-6.270009E+9	7.394716	0.182163	0	0
0	0	0	-0.08056	6.029553	-12.860495	6.029553	45288.5	1.517756E-10	6.588676E+9	7.258509	0.181845	0	0
0	0	0	-0.080601	6.029819	-12.861106	6.029819	45287.5	-1.51469E-10	-6.602013E+9	7.274975	0.180589	0	0
0	0	0	-0.080397	6.029659	-12.860527	6.029659	45292.5	7.619958E-10	1.312343E+9	7.159953	0.180312	0	0
0	0	0	-0.080642	6.029619	-12.860732	6.029619	45286.625	3.038427E-10	3.291177E+9	7.134224	0.179188	0	0
0	0	0	-0.081214	6.029732	-12.861647	6.029732	45272.625	-4.318252E-10	-2.315752E+9	7.072578	0.178619	0	0
0	0	0	-0.081336	6.029865	-12.862074	6.029865	45269.625	-1.12184E-10	-8.913927E+9	6.980764	0.17776	0	0
0	0	0	-0.081704	6.029546	-12.861832	6.029546	45260.625	1.444523E-10	6.922701E+9	6.990078	0.177006	0	0
0	0	0	-0.082112	6.029673	-12.862583	6.029673	45250.625	1.530272E-9	6.534784E+8	6.85102	0.176478	0	0
0	0	0	-0.081949	6.029659	-12.862361	6.029659	45254.625	7.613586E-10	1.313441E+9	6.848778	0.17538	0	0
0	0	0	-0.082275	6.029746	-12.862931	6.029746	45246.625	-3.358838E-10	-2.97722E+9	6.715745	0.174997	0	0
0	0	0	-0.082439	6.029686	-12.862997	6.029686	45242.625	-1.514702E-7	-6601959.318541	6.709369	0.173899	0	0
0	0	0	-0.08252	6.029706	-12.863136	6.029706	45240.625	-1.00307E-9	-9.969399E+8	6.569502	0.173437	0	0
0	0	0	-0.08199	6.029659	-12.86241	6.029659	45253.625	7.613418E-10	1.31347E+9	6.550581	0.172379	0	0
0	0	0	-0.081826	6.029759	-12.862428	6.029759	45257.625	-2.749917E-10	-3.636474E+9	6.474545	0.171837	0	0
0	0	0	-0.081745	6.029746	-12.862303	6.029746	45259.625	-3.359803E-10	-2.976365E+9	6.426984	0.170938	0	0
0	0	0	-0.080928	6.029872	-12.861605	6.029872	45279.625	-1.082042E-10	-9.241787E+9	6.333334	0.170382	0	0
0	0	0	-0.080765	6.029693	-12.861032	6.029693	45283.5	-2.972687E-9	-3.36396E+8	6.27614	0.169536	0	0
0	0	0	-0.08105	6.029938	-12.861891	6.029938	45276.625	-7.97391E-11	-1.25409E+10	6.2252	0.168928	0	0
0	0	0	-0.080683	6.029666	-12.860879	6.029666	45285.625	1.017545E-9	9.827578E+8	6.117914	0.168307	0	0
0	0	0	-0.080397	6.029726	-12.860668	6.029726	45292.5	-5.03778E-10	-1.985001E+9	6.105833	0.167421	0	0
0	0	0	-0.079948	6.029732	-12.860151	6.029732	45303.625	-4.321208E-10	-2.314167E+9	6.008891	0.166707	0	0
0	0	0	-0.079335	6.029659	-12.859271	6.029659	45318.625	7.624354E-10	1.311587E+9	5.994584	0.166019	0	0
0	0	0	-0.07909	6.029639	-12.85894	6.029639	45324.625	4.347986E-10	2.299915E+9	5.883608	0.165279	0	0
0	0	0	-0.079009	6.029546	-12.858646	6.029546	45326.625	1.446629E-10	6.912621E+9	5.85701	0.164644	0	0
0	0	0	-0.08007	6.029699	-12.860225	6.029699	45300.625	-1.501627E-9	-6.659441E+8	5.729357	0.164036	0	0
0	0	0	-0.079009	6.029712	-12.858998	6.029712	45326.625	-7.549822E-10	-1.324535E+9	5.71798	0.163229	0	0
0	0	0	-0.079172	6.029739	-12.859247	6.029739	45322.625	-3.783991E-10	-2.642713E+9	5.619847	0.162595	0	0
0	0	0	-0.078559	6.029679	-12.858396	6.029679	45337.625	3.097719E-9	3.228181E+8	5.587381	0.161801	0	0
0	0	0	-0.078845	6.029719	-12.858819	6.029719	45330.625	-6.046407E-10	-1.653875E+9	5.48341	0.161048	0	0
0	0	0	-0.077783	6.029852	-12.857845	6.029852	45356.625	-1.213844E-10	-8.238292E+9	5.436302	0.160493	0	0
0	0	0	-0.076885	6.029693	-12.856445	6.029693	45378.625	-2.978932E-9	-3.356908E+8	5.345234	0.159739	0	0
0	0	0	-0.077008	6.029659	-12.856519	6.029659	45375.625	7.633943E-10	1.309939E+9	5.265382	0.159131	0	0
0	0	0	-0.076722	6.029679	-12.856224	6.029679	45382.625	3.100794E-9	3.22498E+8	5.199183	0.158443	0	0
0	0	0	-0.075701	6.029806	-12.855284	6.029806	45407.625	-1.687265E-10	-5.92675E+9	5.14638	0.157809	0	0
0	0	0	-0.076272	6.029752	-12.855847	6.029752	45393.625	-3.033448E-10	-3.296579E+9	5.091151	0.157028	0	0
0	0	0	-0.076027	6.029726	-12.855501	6.029726	45399.625	-5.049695E-10	-1.980318E+9	5.000646	0.156632	0	0
0	0	0	-0.077988	6.029639	-12.857636	6.029639	45351.625	4.350576E-10	2.298546E+9	4.955902	0.155561	0	0
0	0	0	-0.078192	6.029732	-12.858074	6.029732	45346.625	-4.32531E-10	-2.311973E+9	4.839557	0.155191	0	0
0	0	0	-0.078559	6.029633	-12.858298	6.029633	45337.625	3.804217E-10	2.628662E+9	4.836062	0.154371	0	0
0	0	0	-0.079213	6.029726	-12.859267	6.029726	45321.625	-5.041019E-10	-1.983726E+9	4.718651	0.153842	0	0
0	0	0	-0.079499	6.029772	-12.859704	6.029772	45314.625	-2.330434E-10	-4.291046E+9	4.717849	0.153168	0	0
0	0	0	-0.079744	6.029726	-12.859895	6.029726	45308.625	-5.039573E-10	-1.984295E+9	4.631596	0.152441	0	0
0	0	0	-0.080356	6.029633	-12.860422	6.029633	45293.5	3.800514E-10	2.631223E+9	4.573674	0.151912	0	0
0	0	0	-0.08052	6.029706	-12.86077	6.029706	45289.625	-1.004156E-9	-9.958613E+8	4.527753	0.151013	0	0
0	0	0	-0.080724	6.029613	-12.860814	6.029613	45284.625	2.761581E-10	3.621114E+9	4.42869	0.150642	0	0
0	0	0	-0.08101	6.029726	-12.861392	6.029726	45277.5	-5.036111E-10	-1.985659E+9	4.397247	0.14977	0	0
0	0	0	-0.081336	6.029746	-12.86182	6.029746	45269.625	-3.360545E-10	-2.975708E+9	4.274154	0.149347	0	0
0	0	0	-0.081091	6.02956	-12.861136	6.02956	45275.625	1.597267E-10	6.260693E+9	4.183468	0.148686	0	0
0	0	0	-0.081745	6.029752	-12.862317	6.029752	45259.625	-3.024493E-10	-3.306339E+9	4.104397	0.147958	0	0
0	0	0	-0.081704	6.029706	-12.86217	6.029706	45260.625	-1.003513E-9	-9.964993E+8	4.029654	0.147456	0	0
0	0	0	-0.082235	6.029859	-12.863122	6.029859	45247.625	-1.164388E-10	-8.5882E+9	3.964652	0.146716	0	0
0	0	0	-0.081949	6.029706	-12.86246	6.029706	45254.625	-1.00338E-9	-9.966315E+8	3.86241	0.146293	0	0
0	0	0	-0.082725	6.029719	-12.863406	6.029719	45235.625	-6.033735E-10	-1.657348E+9	3.818379	0.145724	0	0
0	0	0	-0.082275	6.029766	-12.862973	6.029766	45246.625	-2.520526E-10	-3.967427E+9	3.773323	0.144997	0	0
0	0	0	-0.08297	6.029925	-12.864132	6.029925	45229.625	-8.407922E-11	-1.189355E+10	3.665498	0.144415	0	0
0	0	0	-0.083011	6.029633	-12.86356	6.029633	45228.625	3.795071E-10	2.634997E+9	3.616333	0.143807	0	0
0	0	0	-0.083215	6.029639	-12.863816	6.029639	45223.625	4.338297E-10	2.305052E+9	3.523587	0.143225	0	0
0	0	0	-0.083991	6.029746	-12.864959	6.029746	45204.625	-3.35572E-10	-2.979986E+9	3.406119	0.142643	0	0
0	0	0	-0.083419	6.029746	-12.864283	6.029746	45218.625	-3.356759E-10	-2.979064E+9	3.324357	0.141916	0	0
0	0	0	-0.083174	6.029633	-12.863754	6.029633	45224.625	3.794735E-10	2.63523E+9	3.282016	0.141255	0	0
0	0	0	-0.082439	6.029766	-12.863166	6.029766	45242.625	-2.520303E-10	-3.967777E+9	3.18694	0.140951	0	0
0	0	0	-0.081949	6.029766	-12.862587	6.029766	45254.625	-2.520971E-10	-3.966725E+9	3.117649	0.140184	0	0
0	0	0	-0.082112	6.029686	-12.862611	6.029686	45250.625	-1.51497E-7	-6600792.309194	3.042737	0.139735	0	0
0	0	0	-0.081867	6.029593	-12.862124	6.029593	45256.625	2.167626E-10	4.613342E+9	2.962511	0.139087	0	0
0	0	0	-0.08154	6.029673	-12.861907	6.029673	45264.625	1.530746E-9	6.532763E+8	2.909449	0.138598	0	0
0	0	0	-0.080765	6.029693	-12.861032	6.029693	45283.5	-2.972687E-9	-3.36396E+8	2.871736	0.137936	0	0
0	0	0	-0.08105	6.029819	-12.861637	6.029819	45276.625	-1.514326E-10	-6.603598E+9	2.819124	0.137262	0	0
0	0	0	-0.080928	6.029639	-12.861112	6.029639	45279.625	4.34367E-10	2.302201E+9	2.763104	0.136667	0	0
0	0	0	-0.080438	6.029666	-12.860589	6.029666	45291.625	1.017679E-9	9.826277E+8	2.731646	0.13635	0	0
0	0	0	-0.080152	6.029586	-12.860082	6.029586	45298.625	2.024802E-10	4.938754E+9	2.721022	0.135609	0	0
0	0	0	-0.080315	6.029739	-12.860599	6.029739	45294.625	-3.781653E-10	-2.644346E+9	2.705064	0.134948	0	0
0	0	0	-0.079948	6.029779	-12.860249	6.029779	45303.625	-2.163686E-10	-4.621742E+9	2.672152	0.134552	0	0
0	0	0	-0.079621	6.029673	-12.859638	6.029673	45311.5	1.532331E-9	6.526005E+8	2.643758	0.134036	0	0
0	0	0	-0.080111	6.029779	-12.860442	6.029779	45299.625	-2.163495E-10	-4.62215E+9	2.632119	0.13323	0	0
0	0	0	-0.079948	6.029606	-12.859883	6.029606	45303.625	2.532127E-10	3.949249E+9	2.595646	0.13282	0	0
0	0	0	-0.079213	6.029752	-12.859324	6.029752	45321.625	-3.028636E-10	-3.301816E+9	2.565559	0.132357	0	0
0	0	0	-0.079049	6.029812	-12.859257	6.029812	45325.5	-1.595664E-10	-6.266983E+9	2.554329	0.131762	0	0
0	0	0	-0.078314	6.029693	-12.858135	6.029693	45343.625	-2.976634E-9	-3.359499E+8	2.550805	0.131074	0	0
0	0	0	-0.077947	6.029772	-12.857869	6.029772	45352.625	-2.332388E-10	-4.287451E+9	2.537122	0.130612	0	0
0	0	0	-0.078192	6.029792	-12.858201	6.029792	45346.625	-1.895361E-10	-5.276041E+9	2.514843	0.130003	0	0
0	0	0	-0.078028	6.029772	-12.857966	6.029772	45350.625	-2.332285E-10	-4.28764E+9	2.489214	0.12917	0	0
0	0	0	-0.077988	6.029606	-12.857566	6.029606	45351.625	2.53481E-10	3.945069E+9	2.462027	0.128787	0	0
0	0	0	-0.078519	6.029653	-12.858292	6.029653	45338.625	6.096048E-10	1.640407E+9	2.430851	0.128311	0	0
0	0	0	-0.079009	6.029746	-12.859068	6.029746	45326.625	-3.364777E-10	-2.971966E+9	2.40667	0.127756	0	0
0	0	0	-0.08007	6.029772	-12.86038	6.029772	45300.625	-2.329714E-10	-4.292373E+9	2.375245	0.127161	0	0
0	0	0	-0.08056	6.029619	-12.860635	6.029619	45288.5	3.038553E-10	3.291041E+9	2.352366	0.126817	0	0
0	0	0	-0.080315	6.029693	-12.860501	6.029693	45294.625	-2.973417E-9	-3.363134E+8	2.360666	0.126156	0	0
0	0	0	-0.080479	6.029639	-12.860581	6.029639	45290.625	4.344725E-10	2.301642E+9	2.327577	0.125508	0	0
0	0	0	-0.080805	6.029706	-12.861108	6.029706	45282.5	-1.003998E-9	-9.96018E+8	2.302332	0.125059	0	0
0	0	0	-0.080642	6.029699	-12.860901	6.029699	45286.625	-1.501163E-9	-6.6615E+8	2.261492	0.124807	0	0
0	0	0	-0.081459	6.029693	-12.861853	6.029693	45266.625	-2.971579E-9	-3.365214E+8	2.220055	0.124345	0	0
0	0	0	-0.081785	6.029653	-12.862154	6.029653	45258.5	6.085275E-10	1.643311E+9	2.206211	0.123432	0	0
0	0	0	-0.08154	6.029779	-12.862132	6.029779	45264.625	-2.161824E-10	-4.625724E+9	0	0	0	0
0	0	0	-0.082275	6.029679	-12.86279	6.029679	45246.625	3.091502E-9	3.234674E+8	0	0	0	0
0	0	0	-0.082071	6.029606	-12.862394	6.029606	45251.625	2.529221E-10	3.953787E+9	0	0	0	0
0	0	0	-0.082561	6.029699	-12.86317	6.029699	45239.625	-1.499605E-9	-6.668421E+8	0	0	0	0
0	0	0	-0.082561	6.029673	-12.863114	6.029673	45239.625	1.5299E-9	6.536373E+8	0	0	0	0
0	0	0	-0.082602	6.029686	-12.86319	6.029686	45238.625	-1.514568E-7	-6602541.978501	0	0	0	0
0	0	0	-0.08252	6.029686	-12.863094	6.029686	45240.625	-1.514635E-7	-6602250.20945	0	0	0	0
0	0	0	-0.083664	6.029639	-12.864347	6.029639	45212.625	4.337242E-10	2.305613E+9	0	0	0	0
0	0	0	-0.083827	6.029613	-12.864484	6.029613	45208.625	2.756946E-10	3.627201E+9	0	0	0	0
0	0	0	-0.084521	6.029772	-12.865643	6.029772	45191.75	-2.324115E-10	-4.302714E+9	0	0	0	0
0	0	0	-0.084276	6.029566	-12.864916	6.029566	45197.75	1.683203E-10	5.941054E+9	0	0	0	0
0	0	0	-0.085175	6.029746	-12.866359	6.029746	45175.75	-3.353576E-10	-2.981891E+9	0	0	0	0
0	0	0	-0.083868	6.029673	-12.864659	6.029673	45207.625	1.528818E-9	6.541E+8	0	0	0	0
0	0	0	-0.083705	6.029859	-12.86486	6.029859	45211.625	-1.163462E-10	-8.595038E+9	0	0	0	0
0	0	0	-0.083419	6.029653	-12.864086	6.029653	45218.625	6.079913E-10	1.64476E+9	0	0	0	0
0	0	0	-0.083664	6.029712	-12.864502	6.029712	45212.625	-7.530834E-10	-1.327874E+9	0	0	0	0
0	0	0	-0.082766	6.029646	-12.863299	6.029646	45234.625	5.064997E-10	1.974335E+9	0	0	0	0
0	0	0	-0.08203	6.029719	-12.862585	6.029719	45252.625	-6.036003E-10	-1.656726E+9	0	0	0	0
0	0	0	-0.082112	6.029693	-12.862625	6.029693	45250.625	-2.970529E-9	-3.366404E+8	0	0	0	0
0	0	0	-0.081785	0	-0.081785	0	45258.5	0	0	0	0	0	0
0	0	0	-0.081581	0	-0.081581	0	45263.5	0	0	0	0	0	0
