Vload_(V)	ILoad_(A)	RsLoad (ohm)	SunsVoc_Voltage_(V)	SunsVoc_Current_(A)	Model_Voltage_(V)	Model_Current_(A)	Carrier_Density_(cm-3)	Lifetime_(s)	Inverse_Lifetime_(s-1)	Efficiency_(%)	Intensity_(suns)	Dark_IV_Voltage_(V)	Dark_IV_Current_(A)
3.456565	6.369873	0	65.312676	-1.245945	65.655058	-1.245945	4.117266E+15	0.000227	4378.247782	19.528905	1.189423	0	0
3.465883	6.368749	3.170332	65.228594	-0.936167	65.490215	-0.936167	4.036599E+15	0.000232	4284.581905	19.581537	1.18855	0	0
5.114008	6.366202	5.103092	65.099673	-0.559641	65.260072	-0.559641	3.915624E+15	0.000237	4190.31883	19.546139	1.187374	0	0
8.166661	6.357745	6.104085	64.948945	-0.145505	64.991865	-0.145505	3.778245E+15	0.000243	4084.247835	19.484062	1.18498	0	0
11.342715	6.34853	6.004671	64.784251	0.285286	64.697494	0.285286	3.632996E+15	0.000251	3967.80005	19.463347	1.181292	0	0
14.031885	6.345848	5.646051	64.609511	0.684848	64.394609	0.684848	3.484258E+15	0.000257	3866.691466	19.485175	1.178237	0	0
16.851989	6.343049	5.265932	64.44204	1.052986	64.101837	1.052986	3.346729E+15	0.000264	3765.936976	19.483375	1.176809	0	0
19.640343	6.336364	4.938874	64.274529	1.396039	63.81052	1.396039	3.21392E+15	0.000271	3669.498868	19.463228	1.174972	0	0
22.490253	6.333099	4.536255	64.108487	1.710297	63.524276	1.710297	3.086817E+15	0.000278	3580.107752	19.473417	1.171891	0	0
25.42375	6.332343	4.083085	63.944406	2.003571	63.241783	2.003571	2.965514E+15	0.000285	3492.830121	19.499579	1.168017	0	0
29.108474	6.228778	4.15641	63.777098	2.279125	62.956694	2.279125	2.846086E+15	0.000292	3410.522093	19.500421	1.163998	0	0
31.980969	6.228331	3.696912	63.620122	2.532773	62.686363	2.532773	2.737822E+15	0.0003	3326.223233	19.458869	1.160084	0	0
34.898844	6.226917	3.233566	63.45796	2.766953	62.41298	2.766953	2.629713E+15	0.000306	3252.304262	19.437983	1.15588	0	0
37.297275	6.319011	2.355456	63.300413	2.987034	62.146215	2.987034	2.528203E+15	0.000314	3176.848182	19.472803	1.151252	0	0
40.119959	6.311604	1.970756	63.140578	3.190789	61.879363	3.190789	2.428658E+15	0.000321	3108.457383	19.492069	1.147299	0	0
43.022239	6.304828	1.563065	62.986216	3.378908	61.621715	3.378908	2.33571E+15	0.000328	3041.418383	19.472945	1.143134	0	0
45.90298	6.285822	1.223034	62.834181	3.55171	61.369949	3.55171	2.247137E+15	0.000335	2979.144036	19.454304	1.138057	0	0
46.820807	6.274535	1.13403	62.684189	3.714502	61.121942	3.714502	2.16256E+15	0.000342	2917.279228	19.472762	1.132239	0	0
47.743762	6.26057	1.048753	62.532848	3.871006	60.872286	3.871006	2.079968E+15	0.000349	2854.765441	19.490314	1.126739	0	0
48.680654	6.241418	0.971851	62.381589	4.016473	60.624931	4.016473	2.000097E+15	0.000357	2796.338059	19.46603	1.122098	0	0
49.609325	6.217759	0.899095	62.231638	4.149802	60.382152	4.149802	1.923482E+15	0.000364	2743.358832	19.439665	1.11722	0	0
50.549579	6.181129	0.845236	62.086014	4.273139	60.147048	4.273139	1.851455E+15	0.000371	2692.082446	19.460355	1.111971	0	0
51.477774	6.137682	0.789754	61.939452	4.389238	59.912125	4.389238	1.781262E+15	0.000378	2643.548773	19.499805	1.10692	0	0
52.425777	6.075514	0.745511	61.797177	4.497681	59.684271	4.497681	1.715269E+15	0.000385	2595.235783	19.494873	1.102001	0	0
53.348067	5.999007	0.702733	61.65086	4.599344	59.45287	4.599344	1.649545E+15	0.000391	2552.384341	19.456458	1.096885	0	0
54.273511	5.897432	0.665807	61.509034	4.693581	59.229089	4.693581	1.58786E+15	0.000398	2510.666963	19.467699	1.091067	0	0
55.183082	5.769643	0.631668	61.36974	4.781114	59.010338	4.781114	1.52916E+15	0.000404	2471.147009	19.504316	1.085474	0	0
56.094045	5.604544	0.599682	61.232244	4.864095	58.794798	4.864095	1.473E+15	0.000411	2431.589392	19.497968	1.080278	0	0
56.995015	5.395437	0.57192	61.087886	4.942187	58.571739	4.942187	1.415896E+15	0.000416	2398.690748	19.460416	1.075188	0	0
57.889186	5.133136	0.548341	60.951125	5.015995	58.359353	5.015995	1.363505E+15	0.000423	2362.277269	19.470986	1.069331	0	0
58.774049	4.805567	0.527945	60.813628	5.08504	58.147402	5.08504	1.312465E+15	0.000429	2329.17071	19.514678	1.063408	0	0
59.627071	4.420951	0.508573	60.682134	5.150515	57.944015	5.150515	1.265146E+15	0.000436	2293.309722	19.511375	1.057722	0	0
60.480678	3.955508	0.491745	60.539002	5.212894	57.726337	5.212894	1.215256E+15	0.000441	2265.493046	19.475226	1.052235	0	0
61.302293	3.42033	0.474789	60.408488	5.270368	57.526663	5.270368	1.171197E+15	0.000447	2234.08665	19.471073	1.046471	0	0
62.081239	2.825223	0.463439	60.273891	5.325035	57.322421	5.325035	1.127154E+15	0.000453	2206.103915	19.51143	1.04068	0	0
62.818339	2.189304	0.457023	60.145582	5.375485	57.127896	5.375485	1.086454E+15	0.000459	2178.356182	19.520512	1.035232	0	0
63.508543	1.525043	0.464824	60.017028	5.423264	56.933853	5.423264	1.046906E+15	0.000464	2152.143129	19.490348	1.029877	0	0
64.107912	0.902692	0.479	59.891252	5.468037	56.744477	5.468037	1.009374E+15	0.00047	2126.695723	19.479154	1.024126	0	0
53.56456	5.976099	0.695768	59.766251	5.512565	56.555633	5.512565	9.731847E+14	0.000477	2096.964754	19.511695	1.017846	0	0
64.955294	0	0	59.634961	5.553358	56.360147	5.553358	9.363401E+14	0.000481	2075.874265	19.522217	1.012279	0	0
0	0	0	59.51482	5.591697	56.180137	5.591697	9.036455E+14	0.000487	2050.064827	19.492421	1.007004	0	0
0	0	0	59.387369	5.628385	55.991021	5.628385	8.700032E+14	0.000493	2029.03479	19.484485	1.001491	0	0
0	0	0	59.259836	5.662943	55.802579	5.662943	8.373876E+14	0.000497	2009.894132	19.527892	0.995567	0	0
0	0	0	59.138919	5.695161	55.623798	5.695161	8.074093E+14	0.000502	1989.589456	19.543938	0.990067	0	0
0	0	0	59.018696	5.72603	55.446342	5.72603	7.784943E+14	0.000508	1969.144307	19.494727	0.984964	0	0
0	0	0	58.897779	5.75496	55.26878	5.75496	7.502881E+14	0.000512	1951.427447	19.476035	0.979358	0	0
0	0	0	58.776985	5.782139	55.092109	5.782139	7.229671E+14	0.000516	1935.719517	19.51858	0.973249	0	0
0	0	0	58.662356	5.807928	54.924121	5.807928	6.978147E+14	0.000521	1917.54579	19.524916	0.967604	0	0
0	0	0	58.540173	5.833132	54.746186	5.833132	6.718151E+14	0.000525	1902.474214	19.501596	0.962275	0	0
0	0	0	58.424647	5.85669	54.577811	5.85669	6.479838E+14	0.00053	1885.918869	19.498791	0.956405	0	0
0	0	0	58.30671	5.879135	54.406676	5.879135	6.243918E+14	0.000534	1871.617463	19.534125	0.950627	0	0
0	0	0	58.189019	5.900378	54.236378	5.900378	6.015735E+14	0.000538	1858.559764	19.537922	0.945285	0	0
0	0	0	58.077046	5.920634	54.074066	5.920634	5.805202E+14	0.000542	1842.907845	19.4992	0.940063	0	0
0	0	0	57.960294	5.939657	53.905991	5.939657	5.592347E+14	0.000546	1832.080797	19.478369	0.934708	0	0
0	0	0	57.846645	5.958716	53.741773	5.958716	5.391533E+14	0.00055	1816.163714	19.521769	0.929129	0	0
0	0	0	57.732752	5.975602	53.578501	5.975602	5.196455E+14	0.000553	1806.985495	19.540084	0.924065	0	0
0	0	0	57.618491	5.992436	53.414561	5.992436	5.006811E+14	0.000557	1795.385342	19.507065	0.919226	0	0
0	0	0	57.504557	6.008247	53.251568	6.008247	4.823614E+14	0.00056	1785.531456	19.491883	0.914043	0	0
0	0	0	57.395769	6.023447	53.095676	6.023447	4.654064E+14	0.000564	1772.819409	19.531677	0.908318	0	0
0	0	0	57.279384	6.037455	52.93032	6.037455	4.478351E+14	0.000566	1767.909694	19.541531	0.903122	0	0
0	0	0	57.176109	6.051365	52.782362	6.051365	4.327229E+14	0.00057	1753.106964	19.502146	0.898243	0	0
0	0	0	57.059153	6.064286	52.616687	6.064286	4.161406E+14	0.000572	1749.032602	19.488594	0.893113	0	0
0	0	0	56.953345	6.076392	52.466352	6.076392	4.016142E+14	0.000574	1740.520843	19.535211	0.887599	0	0
0	0	0	56.841943	6.088306	52.308534	6.088306	3.867959E+14	0.000577	1733.853493	19.543774	0.88243	0	0
0	0	0	56.736993	6.099196	52.159973	6.099196	3.732719E+14	0.000579	1727.199803	19.501351	0.87767	0	0
0	0	0	56.628286	6.110277	52.00611	6.110277	3.596991E+14	0.000582	1719.011956	19.48968	0.87258	0	0
0	0	0	56.525664	6.1199	51.861375	6.1199	3.47283E+14	0.000583	1714.483584	19.53645	0.867119	0	0
0	0	0	56.417161	6.129793	51.708444	6.129793	3.345644E+14	0.000585	1709.244531	19.550244	0.86224	0	0
0	0	0	56.314824	6.139233	51.564011	6.139233	3.229447E+14	0.000588	1701.131501	19.501787	0.857864	0	0
0	0	0	56.215101	6.147242	51.42409	6.147242	3.119644E+14	0.000588	1699.863502	19.488181	0.853117	0	0
0	0	0	56.105863	6.15621	51.270564	6.15621	3.003153E+14	0.00059	1694.681823	19.531211	0.848305	0	0
0	0	0	56.008713	6.164784	51.133462	6.164784	2.902798E+14	0.000594	1682.92151	19.544771	0.843756	0	0
0	0	0	55.902661	6.17149	50.985805	6.17149	2.796649E+14	0.000592	1689.690076	19.49727	0.83934	0	0
0	0	0	55.79963	6.180105	50.840596	6.180105	2.696841E+14	0.000597	1676.141584	19.485389	0.834766	0	0
0	0	0	55.704031	6.186028	50.707445	6.186028	2.607082E+14	0.000595	1679.742938	19.530344	0.830019	0	0
0	0	0	55.600592	6.193992	50.562038	6.193992	2.512976E+14	0.0006	1667.163651	19.527126	0.825656	0	0
0	0	0	55.49895	6.199584	50.420898	6.199584	2.423478E+14	0.000597	1673.778185	19.483332	0.821399	0	0
0	0	0	55.401187	6.20668	50.283668	6.20668	2.340105E+14	0.000602	1661.179475	19.491426	0.816731	0	0
0	0	0	55.294522	6.2118	50.136033	6.2118	2.252093E+14	0.000598	1671.953807	19.533974	0.812051	0	0
0	0	0	55.198352	6.218668	50.000989	6.218668	2.175312E+14	0.000604	1655.76222	19.516525	0.807807	0	0
0	0	0	55.101038	6.223366	49.866161	6.223366	2.100036E+14	0.000602	1661.836689	19.463164	0.803761	0	0
0	0	0	54.998824	6.228549	49.724276	6.228549	2.02352E+14	0.000601	1663.665662	19.481039	0.798909	0	0
0	0	0	54.903798	6.234248	49.591566	6.234248	1.954666E+14	0.000605	1652.82028	19.518512	0.794466	0	0
0	0	0	54.807954	6.238097	49.459283	6.238097	1.887389E+14	0.000601	1663.162098	19.497179	0.790381	0	0
0	0	0	54.706353	6.243775	49.317628	6.243775	1.818385E+14	0.000605	1651.890907	19.459971	0.78611	0	0
0	0	0	54.610468	6.248272	49.184634	6.248272	1.75539E+14	0.000606	1650.156851	19.47602	0.781509	0	0
0	0	0	54.515074	6.251649	49.05323	6.251649	1.694709E+14	0.000602	1661.771481	19.511518	0.777119	0	0
0	0	0	54.412248	6.25621	48.91074	6.25621	1.631466E+14	0.000603	1659.607782	19.48687	0.773074	0	0
0	0	0	54.318323	6.260857	48.780114	6.260857	1.575607E+14	0.000607	1648.183689	19.445695	0.76912	0	0
0	0	0	54.222317	6.263743	48.648201	6.263743	1.520339E+14	0.000601	1662.878223	19.483545	0.76448	0	0
0	0	0	54.122553	6.267649	48.510281	6.267649	1.464814E+14	0.000602	1662.395927	19.505352	0.760513	0	0
0	0	0	54.027567	6.272047	48.378315	6.272047	1.413703E+14	0.000607	1648.390074	19.459603	0.756533	0	0
0	0	0	53.934949	6.275525	48.250329	6.275525	1.365467E+14	0.000608	1645.956052	19.42491	0.752501	0	0
0	0	0	53.834777	6.277502	48.113489	6.277502	1.315025E+14	0.000598	1673.282081	19.463379	0.748045	0	0
0	0	0	53.738607	6.280756	47.980852	6.280756	1.268239E+14	0.000597	1673.891457	19.485515	0.744012	0	0
0	0	0	53.647297	6.284662	47.854133	6.284662	1.225263E+14	0.000604	1656.661245	19.437321	0.740469	0	0
0	0	0	53.545981	6.287867	47.714529	6.287867	1.179177E+14	0.000604	1656.659121	19.420034	0.736251	0	0
0	0	0	53.448586	6.289911	47.581262	6.289911	1.136413E+14	0.000597	1676.170368	19.462326	0.731994	0	0
0	0	0	53.360011	6.292061	47.459771	6.292061	1.098793E+14	0.000593	1686.945138	19.466027	0.72816	0	0
0	0	0	53.262616	6.295033	47.325584	6.295033	1.058782E+14	0.000594	1683.82548	19.419091	0.724378	0	0
0	0	0	53.164486	6.298285	47.190107	6.298285	1.019863E+14	0.000598	1672.118591	19.41108	0.720332	0	0
0	0	0	53.074033	6.300868	47.065594	6.300868	9.85191E+13	0.000599	1668.520611	19.447969	0.716128	0	0
0	0	0	52.978557	6.302662	46.935032	6.302662	9.498065E+13	0.000593	1685.668815	19.435058	0.712439	0	0
0	0	0	52.876669	6.30432	46.795929	6.30432	9.133775E+13	0.000585	1709.659723	19.388006	0.708777	0	0
0	0	0	52.784297	6.30615	46.669484	6.30615	8.815018E+13	0.000581	1722.042745	19.403973	0.704652	0	0
0	0	0	52.689107	6.308567	46.538644	6.308567	8.497633E+13	0.000582	1718.591069	19.441895	0.700659	0	0
0	0	0	52.587914	6.31174	46.398933	6.31174	8.172192E+13	0.00059	1694.552006	19.406084	0.697062	0	0
0	0	0	52.494602	6.313716	46.271008	6.313716	7.882675E+13	0.000589	1697.078569	19.369769	0.693321	0	0
0	0	0	52.399575	6.315512	46.140925	6.315512	7.597932E+13	0.000587	1704.35737	19.390708	0.689301	0	0
0	0	0	52.299281	6.316507	46.004508	6.316507	7.308098E+13	0.000575	1739.522027	19.412959	0.685454	0	0
0	0	0	52.201355	6.318074	45.870705	6.318074	7.03536E+13	0.00057	1753.907127	19.352149	0.682029	0	0
0	0	0	52.107839	6.319535	45.742948	6.319535	6.78405E+13	0.000566	1767.576534	19.334904	0.678367	0	0
0	0	0	52.006278	6.321528	45.603772	6.321528	6.520904E+13	0.000566	1766.102668	19.394506	0.674176	0	0
0	0	0	51.909128	6.323774	45.470273	6.323774	6.278401E+13	0.000572	1749.110578	19.400166	0.670712	0	0
0	0	0	51.816061	6.325983	45.342304	6.325983	6.054263E+13	0.000579	1726.933059	19.346026	0.667393	0	0
0	0	0	51.709233	6.327339	45.196598	6.327339	5.8065E+13	0.000573	1745.004603	19.330645	0.663717	0	0
0	0	0	51.603956	6.328702	45.052965	6.328702	5.571939E+13	0.000568	1760.182048	19.387996	0.659672	0	0
0	0	0	51.505254	6.329676	44.918605	6.329676	5.360374E+13	0.00056	1786.378803	19.36127	0.656498	0	0
0	0	0	51.402387	6.330496	44.778766	6.330496	5.14817E+13	0.000549	1822.063	19.307918	0.653008	0	0
0	0	0	51.309075	6.331183	44.651969	6.331183	4.962744E+13	0.000538	1857.144359	19.324375	0.649108	0	0
0	0	0	51.207229	6.332524	44.512943	6.332524	4.76776E+13	0.000536	1866.106599	19.361434	0.645313	0	0
0	0	0	51.097337	6.333908	44.362984	6.333908	4.565728E+13	0.000533	1876.467282	19.317173	0.642259	0	0
0	0	0	51.001698	6.335023	44.232555	6.335023	4.396698E+13	0.00053	1888.180722	19.281411	0.638795	0	0
0	0	0	50.896095	6.336934	44.087794	6.336934	4.217138E+13	0.000537	1860.630108	19.320333	0.634709	0	0
0	0	0	50.795718	6.338332	43.950629	6.338332	4.053104E+13	0.000539	1853.792856	19.344758	0.631219	0	0
0	0	0	50.696608	6.339495	43.815415	6.339495	3.897256E+13	0.000539	1856.835649	19.283168	0.628164	0	0
0	0	0	50.589126	6.340777	43.668742	6.340777	3.734859E+13	0.000539	1855.800319	19.264814	0.624687	0	0
0	0	0	50.488015	6.341592	43.531177	6.341592	3.588138E+13	0.000533	1877.546935	19.312024	0.620945	0	0
0	0	0	50.383718	6.342389	43.389319	6.342389	3.442706E+13	0.000526	1901.741982	19.300248	0.617746	0	0
0	0	0	50.27791	6.34305	43.245558	6.34305	3.301071E+13	0.000517	1935.607346	19.252386	0.614652	0	0
0	0	0	50.170306	6.343657	43.099422	6.343657	3.162891E+13	0.000506	1974.487993	19.258729	0.611056	0	0
0	0	0	50.065111	6.344289	42.956507	6.344289	3.033296E+13	0.000498	2009.217117	19.297966	0.607525	0	0
0	0	0	49.950728	6.344759	42.801346	6.344759	2.898295E+13	0.000484	2064.179148	19.255655	0.604749	0	0
0	0	0	49.842266	6.345693	42.653657	6.345693	2.775743E+13	0.000482	2075.105216	19.2137	0.601576	0	0
0	0	0	49.7307	6.346283	42.502154	6.346283	2.655002E+13	0.000472	2116.563639	19.24946	0.598032	0	0
0	0	0	49.618563	6.347307	42.349374	6.347307	2.538852E+13	0.000472	2117.35105	19.262019	0.594872	0	0
0	0	0	49.503935	6.348307	42.19324	6.348307	2.425294E+13	0.000472	2118.224983	19.204371	0.591911	0	0
0	0	0	49.389551	6.349039	42.037735	6.349039	2.316971E+13	0.000467	2142.001544	19.187282	0.588738	0	0
0	0	0	49.270921	6.349933	41.87629	6.349933	2.209664E+13	0.000465	2149.703929	19.243389	0.585207	0	0
0	0	0	49.155272	6.351043	41.718611	6.351043	2.109778E+13	0.00047	2126.141716	19.217543	0.582325	0	0
0	0	0	49.031782	6.351655	41.5509	6.351655	2.008038E+13	0.000463	2161.16261	19.14112	0.579522	0	0
0	0	0	48.909885	6.352519	41.385038	6.352519	1.912366E+13	0.000463	2161.677733	19.171548	0.575965	0	0
0	0	0	48.783741	6.353443	41.213349	6.353443	1.818104E+13	0.000465	2152.731312	19.206864	0.572832	0	0
0	0	0	48.659352	6.35383	41.044664	6.35383	1.729656E+13	0.000453	2209.461489	19.165358	0.570095	0	0
0	0	0	48.526021	6.354418	40.863638	6.354418	1.639573E+13	0.000445	2245.525824	19.123501	0.567001	0	0
0	0	0	48.392567	6.354939	40.682517	6.354939	1.554059E+13	0.000437	2289.1437	19.154699	0.563802	0	0
0	0	0	48.256867	6.355214	40.498652	6.355214	1.471637E+13	0.000421	2372.811388	19.16103	0.560813	0	0
0	0	0	48.114143	6.35568	40.305049	6.35568	1.38962E+13	0.000411	2433.110834	19.092109	0.558222	0	0
0	0	0	47.969908	6.356061	40.109499	6.356061	1.311339E+13	0.000399	2508.996767	19.093424	0.554996	0	0
0	0	0	47.818813	6.356286	39.904859	6.356286	1.234024E+13	0.000381	2622.881415	19.133754	0.551849	0	0
0	0	0	47.663838	6.3567	39.69473	6.3567	1.159422E+13	0.000369	2706.577218	19.090315	0.549258	0	0
0	0	0	47.495469	6.356977	39.466651	6.356977	1.083441E+13	0.000353	2835.509074	19.044437	0.546362	0	0
0	0	0	47.322199	6.35706	39.232184	6.35706	1.01041E+13	0.000331	3020.762707	19.084505	0.54303	0	0
0	0	0	47.147949	6.3576	38.995805	6.3576	9.419012E+12	0.000322	3104.067568	19.105802	0.540148	0	0
0	0	0	46.955037	6.357805	38.734604	6.357805	8.7143E+12	0.000303	3298.842414	19.031663	0.537702	0	0
0	0	0	46.758858	6.358112	38.468848	6.358112	8.051428E+12	0.000287	3479.680818	19.02432	0.534595	0	0
0	0	0	46.551939	6.358407	38.188574	6.358407	7.406574E+12	0.000271	3687.909448	19.081153	0.53158	0	0
0	0	0	46.329625	6.358644	37.887544	6.358644	6.770933E+12	0.000253	3950.719223	19.04754	0.529029	0	0
0	0	0	46.096203	6.358776	37.571624	6.358776	6.161928E+12	0.000233	4290.102361	18.98585	0.526371	0	0
0	0	0	45.850448	6.359259	37.238543	6.359259	5.579635E+12	0.000221	4531.432529	19.017074	0.52329	0	0
0	0	0	45.586685	6.359792	36.88102	6.359792	5.015556E+12	0.000209	4788.167831	19.044703	0.520342	0	0
0	0	0	45.308547	6.360252	36.504136	6.360252	4.482217E+12	0.000196	5113.388127	18.972791	0.518028	0	0
0	0	0	45.012032	6.360495	36.102683	6.360495	3.975791E+12	0.000178	5618.814071	18.937104	0.515371	0	0
0	0	0	44.693548	6.360948	35.671203	6.360948	3.495253E+12	0.000164	6082.815668	18.998061	0.512184	0	0
0	0	0	44.360362	6.361498	35.219679	6.361498	3.054459E+12	0.000153	6531.199814	18.966788	0.509897	0	0
0	0	0	44.010883	6.361928	34.746268	6.361928	2.651614E+12	0.00014	7137.350829	18.906688	0.507385	0	0
0	0	0	43.648989	6.362177	34.256311	6.362177	2.290283E+12	0.000125	8004.130287	18.934105	0.50441	0	0
0	0	0	43.270597	6.362496	33.743921	6.362496	1.964956E+12	0.000112	8943.340569	18.970427	0.501766	0	0
0	0	0	42.8773	6.362919	33.211193	6.362919	1.675646E+12	0.000101	9885.519484	18.90682	0.499491	0	0
0	0	0	42.465381	6.363271	32.653363	6.363271	1.418156E+12	9.017546E-5	11089.491596	18.870466	0.497072	0	0
0	0	0	42.027531	6.363782	32.060183	6.363782	1.18766E+12	8.185969E-5	12216.024917	18.918635	0.494295	0	0
0	0	0	41.577512	6.363994	31.450991	6.363994	9.897118E+11	7.066922E-5	14150.43145	18.892767	0.492074	0	0
0	0	0	41.118713	6.364088	30.830098	6.364088	8.218092E+11	5.963884E-5	16767.596527	18.823985	0.489813	0	0
0	0	0	40.638556	6.364713	30.179433	6.364713	6.764978E+11	5.504003E-5	18168.595851	18.855962	0.487076	0	0
0	0	0	40.139942	6.365187	29.504012	6.365187	5.527207E+11	4.951769E-5	20194.803354	18.888887	0.484551	0	0
0	0	0	39.623277	6.365272	28.804804	6.365272	4.482925E+11	4.09032E-5	24447.964084	18.820013	0.482528	0	0
0	0	0	39.087093	6.365628	28.07871	6.365628	3.607245E+11	3.567691E-5	28029.330415	18.791277	0.480029	0	0
0	0	0	38.52465	6.365976	27.317082	6.365976	2.871854E+11	3.093695E-5	32323.810629	18.849205	0.477213	0	0
0	0	0	37.931295	6.366062	26.514072	6.366062	2.257889E+11	2.487124E-5	40207.085133	18.81079	0.475018	0	0
0	0	0	37.313886	6.366272	25.678285	6.366272	1.757942E+11	2.049313E-5	48796.833045	18.736244	0.472903	0	0
0	0	0	36.676468	6.36655	24.815281	6.36655	1.357627E+11	1.715017E-5	58308.460521	18.778545	0.470073	0	0
0	0	0	36.015609	6.36684	23.920516	6.36684	1.038548E+11	1.437433E-5	69568.442371	18.804866	0.467733	0	0
0	0	0	35.327227	6.366848	22.989035	6.366848	7.85642E+10	1.090168E-5	91728.962119	18.718455	0.46571	0	0
0	0	0	34.618059	6.367114	22.028916	6.367114	5.893337E+10	8.966077E-6	111531.494412	18.71316	0.463225	0	0
0	0	0	33.886471	6.367491	21.038215	6.367491	4.380756E+10	7.71988E-6	129535.693485	18.77093	0.460541	0	0
0	0	0	33.1303	6.367488	20.015	6.367488	3.224091E+10	5.674584E-6	176224.381361	18.732318	0.458399	0	0
0	0	0	32.34489	6.367737	18.951691	6.367737	2.344857E+10	4.607804E-6	217023.119643	18.657422	0.456257	0	0
0	0	0	31.557806	6.367879	17.886322	6.367879	1.704237E+10	3.588655E-6	278655.944441	18.703178	0.453652	0	0
0	0	0	30.753162	6.367951	16.797335	6.367951	1.229847E+10	2.686688E-6	372205.445937	18.72307	0.451325	0	0
0	0	0	29.940064	6.367889	15.697201	6.367889	8.844711E+9	1.871933E-6	534207.169065	18.63955	0.449329	0	0
0	0	0	29.109816	6.368108	14.573224	6.368108	6.316782E+9	1.502464E-6	665573.371232	18.635622	0.446896	0	0
0	0	0	28.259925	6.368305	13.422696	6.368305	4.47558E+9	1.198472E-6	834395.68377	18.678074	0.44437	0	0
0	0	0	27.40399	6.368285	12.264489	6.368285	3.163286E+9	8.361185E-7	1196002.717337	18.616348	0.442467	0	0
0	0	0	26.534619	6.368453	11.087644	6.368453	2.223627E+9	6.576577E-7	1520547.879756	18.587683	0.440259	0	0
0	0	0	25.652998	6.368657	9.894118	6.368657	1.55535E+9	5.371398E-7	1861712.783042	18.637687	0.437522	0	0
0	0	0	24.770561	6.36884	8.69952	6.36884	1.087553E+9	4.420143E-7	2262370.123432	18.620394	0.435591	0	0
0	0	0	23.882977	6.368777	7.498573	6.368777	7.588687E+8	2.906896E-7	3440095.212996	18.534385	0.433635	0	0
0	0	0	22.978038	6.368847	6.273797	6.368847	5.258077E+8	2.15217E-7	4646473.933006	18.555901	0.431122	0	0
0	0	0	22.100134	6.368833	5.085822	6.368833	3.683387E+8	1.487376E-7	6723247.298965	18.582761	0.428848	0	0
0	0	0	21.233581	6.368932	3.912906	6.368932	2.592189E+8	1.156062E-7	8650057.29851	18.514065	0.427129	0	0
0	0	0	20.381934	6.368988	2.760267	6.368988	1.835314E+8	8.704639E-8	1.148813E+7	18.48899	0.424789	0	0
0	0	0	19.542293	6.369065	1.623811	6.369065	1.305774E+8	6.785104E-8	1.473817E+7	18.536482	0.422237	0	0
0	0	0	18.717231	6.369191	0.506936	6.369191	9.345292E+7	5.75628E-8	1.737233E+7	18.498477	0.420532	0	0
0	0	0	17.910667	6.36903	-0.584081	6.36903	6.738681E+7	3.355905E-8	2.979822E+7	18.4378	0.418549	0	0
0	0	0	17.121704	6.369269	-1.652445	6.369269	4.89391E+7	3.399623E-8	2.941503E+7	18.490051	0.415957	0	0
0	0	0	16.35267	6.369156	-2.692813	6.369156	3.582993E+7	2.098954E-8	4.764277E+7	18.475146	0.414146	0	0
0	0	0	15.609607	6.369367	-3.699003	6.369367	2.650996E+7	2.199158E-8	4.547194E+7	18.385467	0.412308	0	0
0	0	0	14.885288	6.369226	-4.678766	6.369226	1.976389E+7	1.283509E-8	7.791142E+7	18.400922	0.409875	0	0
0	0	0	14.182736	6.369269	-5.629631	6.369269	1.486512E+7	1.032648E-8	9.683843E+7	18.429375	0.407813	0	0
0	0	0	13.493618	6.36924	-6.562097	6.36924	1.124165E+7	7.462653E-9	1.340006E+8	18.362181	0.406028	0	0
0	0	0	12.839661	6.369353	-7.447427	6.369353	8623483.375	6.960696E-9	1.436638E+8	18.336187	0.403886	0	0
0	0	0	12.210083	6.369605	-8.300225	6.369605	6680792.875	1.048794E-8	9.534758E+7	18.396329	0.40144	0	0
0	0	0	11.606274	6.369641	-9.117462	6.369641	5230105.375	9.450834E-9	1.058108E+8	18.34421	0.399853	0	0
0	0	0	11.030151	6.369591	-9.896956	6.369591	4140644.625	6.17607E-9	1.619153E+8	18.302884	0.397751	0	0
0	0	0	10.477305	6.369697	-10.645458	6.369697	3309207.875	7.88567E-9	1.268123E+8	18.355561	0.395424	0	0
0	0	0	9.94692	6.369655	-11.363079	6.369655	2668915.625	5.132908E-9	1.948214E+8	18.32987	0.393586	0	0
0	0	0	9.439811	6.369605	-12.049174	6.369605	2172922.25	3.411211E-9	2.93151E+8	18.237476	0.391828	0	0
0	0	0	8.954386	6.369711	-12.706446	6.369711	1784726.375	4.621137E-9	2.16397E+8	18.268753	0.389501	0	0
0	0	0	8.495547	6.369612	-13.32705	6.369612	1481767.5	2.388888E-9	4.186048E+8	18.304707	0.387412	0	0
0	0	0	8.052143	6.369605	-13.927074	6.369605	1237959.625	1.943441E-9	5.145513E+8	18.214118	0.385812	0	0
0	0	0	7.628504	6.369465	-14.499887	6.369465	1042588.75	1.073314E-9	9.316936E+8	18.201032	0.383644	0	0
0	0	0	7.22071	6.369549	-15.052037	6.369549	883709.375	1.146565E-9	8.721707E+8	18.240737	0.381634	0	0
0	0	0	6.832313	6.369697	-15.578163	6.369697	754955.5	1.799026E-9	5.558563E+8	18.184842	0.379902	0	0
0	0	0	6.46311	6.369641	-16.077601	6.369641	649999.125	1.174559E-9	8.513835E+8	18.147921	0.378011	0	0
0	0	0	6.109751	6.369423	-16.555021	6.369423	563240.75	5.255646E-10	1.902716E+9	18.206777	0.37583	0	0
0	0	0	5.768969	6.369711	-17.017219	6.369711	490557.625	1.270188E-9	7.87285E+8	18.177172	0.374164	0	0
0	0	0	5.439173	6.369641	-17.463274	6.369641	429160.875	7.755007E-10	1.28949E+9	18.089584	0.372484	0	0
0	0	0	5.121464	6.369626	-17.893172	6.369626	377293	6.429271E-10	1.555386E+9	18.141759	0.370091	0	0
0	0	0	4.804368	6.369816	-18.32298	6.369816	331776	2.449908E-9	4.081786E+8	18.136304	0.368505	0	0
0	0	0	4.505036	6.369697	-18.727627	6.369697	293859.125	7.002539E-10	1.428053E+9	18.044458	0.366958	0	0
0	0	0	4.220813	6.369746	-19.112441	6.369746	261875	8.653774E-10	1.155565E+9	18.061851	0.364869	0	0
0	0	0	3.938428	6.369928	-19.49526	6.369928	233545.875	-1.768217E-9	-5.655415E+8	18.079833	0.363057	0	0
0	0	0	3.675114	6.369732	-19.850876	6.369732	209898	6.246005E-10	1.601023E+9	17.989173	0.361563	0	0
0	0	0	3.416986	6.369872	-20.200717	6.369872	189041.75	1.130671E-7	8844306.402438	17.979831	0.35958	0	0
0	0	0	3.172007	6.369746	-20.531775	6.369746	171167.875	5.656318E-10	1.767935E+9	18.06112	0.357544	0	0
0	0	0	2.946671	6.369746	-20.83672	6.369746	156223.25	5.162466E-10	1.937059E+9	17.979604	0.356235	0	0
0	0	0	2.75233	6.369641	-21.099325	6.369641	144386.375	2.609086E-10	3.83276E+9	17.924971	0.354477	0	0
0	0	0	2.570688	6.369928	-21.346216	6.369928	134135.375	-1.015562E-9	-9.846764E+8	17.983934	0.352348	0	0
0	0	0	2.393784	6.369802	-21.585144	6.369802	124851.75	7.393726E-10	1.352498E+9	17.928192	0.350986	0	0
0	0	0	2.223006	6.369774	-21.816151	6.369774	116499.5	4.941913E-10	2.023508E+9	17.869493	0.349333	0	0
0	0	0	2.059537	6.369837	-22.03761	6.369837	109028.625	1.278676E-9	7.820591E+8	17.942745	0.347231	0	0
0	0	0	1.909585	6.369977	-22.241071	6.369977	102597.75	-4.118526E-10	-2.428053E+9	17.897946	0.345803	0	0
0	0	0	1.760858	6.369781	-22.441596	6.369781	96594	4.410309E-10	2.267415E+9	17.80774	0.344296	0	0
0	0	0	1.623688	6.369704	-22.626933	6.369704	91368.625	2.26762E-10	4.409911E+9	17.847386	0.342247	0	0
0	0	0	1.489417	6.369963	-22.80963	6.369963	86527.75	-4.011954E-10	-2.492551E+9	17.858797	0.340792	0	0
0	0	0	1.360414	6.369921	-22.984048	6.369921	82118.5	-7.118396E-10	-1.404811E+9	17.765137	0.339523	0	0
0	0	0	1.236965	6.369739	-23.150412	6.369739	78109.5	2.446024E-10	4.088268E+9	17.783236	0.337421	0	0
0	0	0	1.112128	6.369844	-23.319757	6.369844	74254.5	1.083251E-9	9.231472E+8	17.806634	0.335794	0	0
0	0	0	0.996438	6.369823	-23.476238	6.369823	70852.125	5.968768E-10	1.675388E+9	17.707658	0.334512	0	0
0	0	0	0.882341	6.369662	-23.630024	6.369662	67649.125	1.344268E-10	7.438993E+9	17.706078	0.332833	0	0
0	0	0	0.772694	6.369963	-23.779569	6.369963	64707.75	-3.000245E-10	-3.333061E+9	17.762758	0.330969	0	0
0	0	0	0.668234	6.369802	-23.920312	6.369802	62024.5	3.673094E-10	2.7225E+9	17.675789	0.329765	0	0
0	0	0	0.564346	6.369788	-24.060848	6.369788	59466.25	2.939513E-10	3.401924E+9	17.668985	0.327901	0	0
0	0	0	0.460458	6.369942	-24.202037	6.369942	57013.5	-3.444552E-10	-2.903135E+9	17.719971	0.326195	0	0
0	0	0	0.368412	6.369886	-24.326384	6.369886	54925.125	-1.729051E-9	-5.783521E+8	17.634135	0.325072	0	0
0	0	0	0.278735	6.369732	-24.447144	6.369732	52964	1.576068E-10	6.344905E+9	17.601215	0.323406	0	0
0	0	0	0.194938	6.36976	-24.560654	6.36976	51194.875	1.901914E-10	5.257862E+9	17.674792	0.321581	0	0
0	0	0	0.125026	6.369942	-24.655975	6.369942	49764.125	-3.00657E-10	-3.326049E+9	17.592726	0.320338	0	0
0	0	0	0.05981	6.369921	-24.74415	6.369921	48465.5	-4.201204E-10	-2.38027E+9	17.53275	0.318778	0	0
0	0	0	0.015829	6.37009	-24.804325	6.37009	47609	-9.215539E-11	-1.085124E+10	17.579049	0.31702	0	0
0	0	0	-0.026192	6.370027	-24.860946	6.370027	46804.75	-1.278309E-10	-7.822832E+9	17.529019	0.315869	0	0
0	0	0	-0.038402	6.369788	-24.87654	6.369788	46573.625	2.30221E-10	4.343653E+9	17.478901	0.314362	0	0
0	0	0	-0.057391	6.3699	-24.902675	6.3699	46216.5	-7.087982E-10	-1.410839E+9	17.547322	0.312419	0	0
0	0	0	-0.075768	6.369914	-24.927599	6.369914	45873.375	-4.650492E-10	-2.15031E+9	17.484141	0.311308	0	0
0	0	0	-0.087488	6.369956	-24.943624	6.369956	45655.875	-2.294774E-10	-4.357728E+9	17.396755	0.309973	0	0
0	0	0	-0.09247	6.369795	-24.949736	6.369795	45563.75	2.455199E-10	4.07299E+9	17.455412	0.308095	0	0
0	0	0	-0.097043	6.370034	-24.956857	6.370034	45479.375	-1.187871E-10	-8.418425E+9	17.424512	0.306852	0	0
0	0	0	-0.098922	6.36997	-24.959153	6.36997	45444.75	-1.955506E-10	-5.113767E+9	17.348122	0.305517	0	0
0	0	0	-0.09933	6.369893	-24.959404	6.369893	45437.25	-9.371394E-10	-1.067077E+9	17.404708	0.303758	0	0
0	0	0	-0.100433	6.369858	-24.960759	6.369858	45417	1.293568E-9	7.730555E+8	17.378595	0.302529	0	0
0	0	0	-0.100433	6.370062	-24.961553	6.370062	45417	-1.009849E-10	-9.902473E+9	17.294875	0.301365	0	0
0	0	0	-0.100555	6.369872	-24.96098	6.369872	45414.625	2.716351E-8	3.681409E+7	17.34787	0.299448	0	0
0	0	0	-0.101005	6.369984	-24.962026	6.369984	45406.375	-1.708087E-10	-5.854504E+9	17.328951	0.298404	0	0
0	0	0	-0.1008	6.370118	-24.96227	6.370118	45410.125	-7.78247E-11	-1.284939E+10	17.230112	0.297187	0	0
0	0	0	-0.102066	6.370055	-24.963737	6.370055	45386.875	-1.048143E-10	-9.54068E+9	17.285628	0.295336	0	0
0	0	0	-0.10129	6.369865	-24.961947	6.369865	45401.125	2.468676E-9	4.050754E+8	17.272653	0.294107	0	0
0	0	0	-0.101821	6.370012	-24.963241	6.370012	45391.375	-1.364302E-10	-7.329757E+9	17.147909	0.293062	0	0
0	0	0	-0.102597	6.369998	-24.964236	6.369998	45377.125	-1.516262E-10	-6.595168E+9	17.202544	0.291224	0	0
0	0	0	-0.103332	6.369956	-24.965066	6.369956	45363.5	-2.280078E-10	-4.385814E+9	17.21558	0.289968	0	0
0	0	0	-0.103128	6.370027	-24.965064	6.370027	45367.375	-1.239053E-10	-8.070683E+9	17.120365	0.288844	0	0
0	0	0	-0.103659	6.369942	-24.965454	6.369942	45357.625	-2.740345E-10	-3.649175E+9	17.149993	0.287218	0	0
0	0	0	-0.103741	6.369984	-24.965729	6.369984	45356.125	-1.706196E-10	-5.86099E+9	17.139203	0.285949	0	0
0	0	0	-0.10419	6.370048	-24.966583	6.370048	45347.75	-1.089298E-10	-9.180227E+9	17.032124	0.284891	0	0
0	0	0	-0.103945	6.369935	-24.965813	6.369935	45352.25	-3.047888E-10	-3.28096E+9	17.097087	0.283093	0	0
0	0	0	-0.10419	6.369977	-24.966309	6.369977	45347.75	-1.82037E-10	-5.493389E+9	17.090106	0.281916	0	0
0	0	0	-0.104925	6.36983	-24.966729	6.36983	45334.25	4.445154E-10	2.249641E+9	16.989167	0.280911	0	0
0	0	0	-0.104639	6.369928	-24.966725	6.369928	45339.5	-3.432731E-10	-2.913132E+9	17.043004	0.27914	0	0
0	0	0	-0.105211	6.369823	-24.967088	6.369823	45329	3.818633E-10	2.618738E+9	17.021253	0.277989	0	0
0	0	0	-0.105619	6.36983	-24.967668	6.36983	45321.5	4.443903E-10	2.250274E+9	16.899983	0.277051	0	0
0	0	0	-0.105047	6.369921	-24.96725	6.369921	45332	-3.929578E-10	-2.544802E+9	16.982567	0.275253	0	0
0	0	0	-0.105007	6.369865	-24.966976	6.369865	45332.75	2.464958E-9	4.056864E+8	16.977804	0.274155	0	0
0	0	0	-0.105211	6.370055	-24.967992	6.370055	45329	-1.046807E-10	-9.552861E+9	16.870357	0.273203	0	0
0	0	0	-0.105864	6.369781	-24.967808	6.369781	45317	2.069093E-10	4.833035E+9	16.920435	0.271431	0	0
0	0	0	-0.106599	6.369928	-24.969378	6.369928	45303.5	-3.430006E-10	-2.915447E+9	16.87932	0.270427	0	0
0	0	0	-0.10713	6.369767	-24.969466	6.369767	45293.75	1.79412E-10	5.573763E+9	16.768587	0.269276	0	0
0	0	0	-0.106844	6.369991	-24.969956	6.369991	45299	-1.603216E-10	-6.237462E+9	16.843635	0.26765	0	0
0	0	0	-0.106926	6.369935	-24.969847	6.369935	45297.5	-3.044209E-10	-3.284926E+9	16.816579	0.266645	0	0
0	0	0	-0.106926	6.369949	-24.969902	6.369949	45297.5	-2.485638E-10	-4.023112E+9	16.724331	0.265627	0	0
0	0	0	-0.106967	6.369823	-24.969464	6.369823	45296.75	3.815917E-10	2.620602E+9	16.805306	0.263908	0	0
0	0	0	-0.106517	6.370048	-24.969733	6.370048	45305	-1.088271E-10	-9.18889E+9	16.740288	0.263168	0	0
0	0	0	-0.106436	6.369991	-24.969403	6.369991	45306.5	-1.603482E-10	-6.23643E+9	16.666789	0.261899	0	0
0	0	0	-0.107048	6.369851	-24.969684	6.369851	45295.25	8.73939E-10	1.144245E+9	16.744166	0.260246	0	0
0	0	0	-0.106967	6.369872	-24.969656	6.369872	45296.75	2.709301E-8	3.690989E+7	16.649803	0.259506	0	0
0	0	0	-0.106191	6.369886	-24.968661	6.369886	45311	-1.426396E-9	-7.010674E+8	16.617833	0.258197	0	0
0	0	0	-0.106313	6.369893	-24.968854	6.369893	45308.75	-9.344891E-10	-1.070103E+9	16.691579	0.256703	0	0
0	0	0	-0.105333	6.369984	-24.967884	6.369984	45326.75	-1.705091E-10	-5.864789E+9	16.599698	0.255909	0	0
0	0	0	-0.105782	6.369753	-24.967588	6.369753	45318.5	1.585147E-10	6.308563E+9	16.553056	0.254587	0	0
0	0	0	-0.105456	6.370005	-24.968132	6.370005	45324.5	-1.434371E-10	-6.971699E+9	16.592394	0.253239	0	0
0	0	0	-0.105782	6.370048	-24.968738	6.370048	45318.5	-1.088595E-10	-9.186152E+9	16.482165	0.252591	0	0
0	0	0	-0.105497	6.369865	-24.967639	6.369865	45323.75	2.464469E-9	4.05767E+8	16.489947	0.251136	0	0
0	0	0	-0.105088	6.36997	-24.967497	6.36997	45331.25	-1.950622E-10	-5.12657E+9	16.541658	0.249933	0	0
0	0	0	-0.104639	6.369942	-24.96678	6.369942	45339.5	-2.73925E-10	-3.650634E+9	16.417419	0.249206	0	0
0	0	0	-0.105211	6.370055	-24.967992	6.370055	45329	-1.046807E-10	-9.552861E+9	16.431384	0.247725	0	0
0	0	0	-0.104598	6.370062	-24.96719	6.370062	45340.25	-1.008142E-10	-9.919235E+9	16.439599	0.246601	0	0
0	0	0	-0.104925	6.370055	-24.967605	6.370055	45334.25	-1.046928E-10	-9.551755E+9	16.316718	0.245821	0	0
0	0	0	-0.104884	6.370055	-24.96755	6.370055	45335	-1.046945E-10	-9.551597E+9	16.368681	0.244261	0	0
0	0	0	-0.104312	6.369774	-24.96568	6.369774	45345.5	1.923558E-10	5.1987E+9	16.380833	0.243375	0	0
0	0	0	-0.104026	6.370027	-24.96628	6.370027	45350.875	-1.238602E-10	-8.073619E+9	16.292697	0.242489	0	0
0	0	0	-0.104108	6.370027	-24.96639	6.370027	45349.375	-1.238561E-10	-8.073886E+9	16.361973	0.240889	0	0
0	0	0	-0.104312	6.369991	-24.96653	6.369991	45345.5	-1.604862E-10	-6.231066E+9	16.283307	0.240176	0	0
0	0	0	-0.104721	6.369858	-24.966562	6.369858	45338	1.291318E-9	7.744025E+8	16.209591	0.239065	0	0
0	0	0	-0.104149	6.370048	-24.966528	6.370048	45348.5	-1.089316E-10	-9.180075E+9	16.259913	0.237703	0	0
0	0	0	-0.104762	6.370019	-24.967247	6.370019	45337.25	-1.297475E-10	-7.707277E+9	16.176221	0.236923	0	0
0	0	0	-0.10468	6.370062	-24.967301	6.370062	45338.75	-1.008109E-10	-9.919564E+9	16.153743	0.235759	0	0
0	0	0	-0.104925	6.369823	-24.966701	6.369823	45334.25	3.819076E-10	2.618435E+9	16.235	0.234437	0	0
0	0	0	-0.105007	6.370069	-24.96777	6.370069	45332.75	-9.718473E-11	-1.028968E+10	16.101422	0.233842	0	0
0	0	0	-0.10615	6.369879	-24.968578	6.369879	45311.75	-3.011331E-9	-3.320791E+8	16.092561	0.232454	0	0
0	0	0	-0.106395	6.36997	-24.969266	6.36997	45307.25	-1.949589E-10	-5.129286E+9	16.119557	0.231502	0	0
0	0	0	-0.10615	6.369921	-24.968743	6.369921	45311.75	-3.927823E-10	-2.54594E+9	15.986269	0.230722	0	0
0	0	0	-0.106722	6.369956	-24.969653	6.369956	45301.25	-2.276949E-10	-4.391841E+9	16.048483	0.229387	0	0
0	0	0	-0.106599	6.369984	-24.969597	6.369984	45303.5	-1.704217E-10	-5.867799E+9	16.033248	0.22854	0	0
0	0	0	-0.106844	6.370041	-24.970148	6.370041	45299	-1.133655E-10	-8.821026E+9	15.942649	0.227522	0	0
0	0	0	-0.107988	6.370012	-24.971586	6.370012	45278	-1.360894E-10	-7.34811E+9	15.989224	0.226187	0	0
0	0	0	-0.108273	6.369963	-24.971781	6.369963	45272.75	-2.09912E-10	-4.7639E+9	15.926428	0.2255	0	0
0	0	0	-0.107171	6.369844	-24.969823	6.369844	45293	6.607504E-10	1.513431E+9	15.846085	0.224455	0	0
0	0	0	-0.107498	6.369851	-24.970292	6.369851	45287	8.737799E-10	1.144453E+9	15.924443	0.223027	0	0
0	0	0	-0.107743	6.369872	-24.970706	6.369872	45282.5	2.708448E-8	3.692151E+7	15.812002	0.222498	0	0
0	0	0	-0.107538	6.369802	-24.970156	6.369802	45286.25	2.681854E-10	3.728764E+9	15.823945	0.221163	0	0
0	0	0	-0.108478	6.370167	-24.972851	6.370167	45269	-6.46215E-11	-1.547473E+10	15.861143	0.220145	0	0
0	0	0	-0.108682	6.369865	-24.97195	6.369865	45265.25	2.461288E-9	4.062914E+8	15.730052	0.219603	0	0
0	0	0	-0.109784	6.370076	-24.974264	6.370076	45245	-9.364033E-11	-1.067916E+10	15.773213	0.218109	0	0
0	0	0	-0.111336	6.369865	-24.975542	6.369865	45216.625	2.458644E-9	4.067283E+8	15.740401	0.217289	0	0
0	0	0	-0.10958	6.369935	-24.97344	6.369935	45248.75	-3.040932E-10	-3.288465E+9	15.629781	0.216562	0	0
0	0	0	-0.110152	6.369893	-24.974049	6.369893	45238.25	-9.330351E-10	-1.071771E+9	15.726445	0.215068	0	0
0	0	0	-0.109254	6.369907	-24.972888	6.369907	45254.75	-5.524058E-10	-1.810263E+9	15.616405	0.214526	0	0
0	0	0	-0.109213	6.369872	-24.972696	6.369872	45255.5	2.706834E-8	3.694354E+7	15.582292	0.213296	0	0
0	0	0	-0.110111	6.369795	-24.97361	6.369795	45239.125	2.437706E-10	4.102217E+9	15.652751	0.212212	0	0
0	0	0	-0.109989	6.370034	-24.974376	6.370034	45241.375	-1.181654E-10	-8.462711E+9	15.521641	0.211696	0	0
0	0	0	-0.108804	6.369739	-24.971622	6.369739	45263.125	1.417429E-10	7.055027E+9	15.545062	0.210374	0	0
0	0	0	-0.108355	6.369949	-24.971836	6.369949	45271.25	-2.484198E-10	-4.025444E+9	15.527189	0.209567	0	0
0	0	0	-0.108151	6.369998	-24.971752	6.369998	45275	-1.512849E-10	-6.610045E+9	15.407743	0.20888	0	0
0	0	0	-0.107048	6.369984	-24.970205	6.369984	45295.25	-1.703906E-10	-5.868867E+9	15.51742	0.207492	0	0
0	0	0	-0.107212	6.369977	-24.970399	6.369977	45292.25	-1.818142E-10	-5.50012E+9	15.415818	0.207029	0	0
0	0	0	-0.107661	6.369893	-24.970678	6.369893	45284	-9.339787E-10	-1.070688E+9	15.369917	0.206011	0	0
0	0	0	-0.10713	6.369998	-24.97037	6.369998	45293.75	-1.513476E-10	-6.607308E+9	15.462149	0.204781	0	0
0	0	0	-0.106517	6.369977	-24.969459	6.369977	45305	-1.818654E-10	-5.498573E+9	15.32923	0.204371	0	0
0	0	0	-0.106436	6.369942	-24.969212	6.369942	45306.5	-2.737256E-10	-3.653293E+9	15.355509	0.203155	0	0
0	0	0	-0.106436	6.370019	-24.969513	6.370019	45306.5	-1.296595E-10	-7.712508E+9	15.342685	0.202375	0	0
0	0	0	-0.10615	6.369921	-24.968743	6.369921	45311.75	-3.927823E-10	-2.54594E+9	15.217304	0.201687	0	0
0	0	0	-0.105823	6.369984	-24.968547	6.369984	45317.75	-1.704753E-10	-5.865953E+9	15.299204	0.200392	0	0
0	0	0	-0.106232	6.369914	-24.968826	6.369914	45310.25	-4.593404E-10	-2.177035E+9	15.175189	0.199969	0	0
0	0	0	-0.105701	6.370118	-24.968902	6.370118	45320	-7.767024E-11	-1.287494E+10	15.186857	0.198779	0	0
0	0	0	-0.105823	6.369767	-24.967698	6.369767	45317.75	1.795071E-10	5.570811E+9	15.238766	0.19784	0	0
0	0	0	-0.104516	6.369935	-24.966587	6.369935	45341.75	-3.047182E-10	-3.28172E+9	15.088056	0.197483	0	0
0	0	0	-0.104312	6.369956	-24.966393	6.369956	45345.5	-2.279174E-10	-4.387555E+9	15.154598	0.196187	0	0
0	0	0	-0.105088	6.370005	-24.967634	6.370005	45331.25	-1.434584E-10	-6.970661E+9	15.058557	0.19583	0	0
0	0	0	-0.10517	6.369928	-24.967444	6.369928	45329.75	-3.431993E-10	-2.913759E+9	15.001584	0.19464	0	0
0	0	0	-0.10517	6.370005	-24.967745	6.370005	45329.75	-1.434537E-10	-6.970891E+9	15.063987	0.193622	0	0
0	0	0	-0.105374	6.370153	-24.968597	6.370153	45326	-6.794612E-11	-1.471754E+10	14.948753	0.19304	0	0
0	0	0	-0.105864	6.369914	-24.968328	6.369914	45317	-4.594088E-10	-2.176711E+9	14.990177	0.191903	0	0
0	0	0	-0.105987	6.369928	-24.968549	6.369928	45314.75	-3.430857E-10	-2.914723E+9	14.973352	0.191216	0	0
0	0	0	-0.106681	6.369928	-24.969488	6.369928	45302	-3.429892E-10	-2.915544E+9	14.857927	0.190608	0	0
0	0	0	-0.106558	6.369746	-24.96861	6.369746	45304.25	1.497099E-10	6.679585E+9	14.94725	0.189325	0	0
0	0	0	-0.10713	6.36983	-24.969713	6.36983	45293.75	4.441182E-10	2.251653E+9	14.813998	0.188902	0	0
0	0	0	-0.106926	6.369872	-24.969601	6.369872	45297.5	2.709346E-8	3.690928E+7	14.811755	0.187937	0	0
0	0	0	-0.107212	6.369942	-24.970262	6.369942	45292.25	-2.736396E-10	-3.654442E+9	14.832105	0.186998	0	0
0	0	0	-0.107783	6.369921	-24.970953	6.369921	45281.75	-3.925223E-10	-2.547626E+9	14.677338	0.186496	0	0
0	0	0	-0.107988	6.3699	-24.971147	6.3699	45278	-6.944049E-10	-1.440082E+9	14.761657	0.185372	0	0
0	0	0	-0.108233	6.369858	-24.971315	6.369858	45273.5	1.289481E-9	7.755058E+8	14.662672	0.18479	0	0
0	0	0	-0.108845	6.36997	-24.972582	6.36997	45262.25	-1.947653E-10	-5.134386E+9	14.659158	0.183785	0	0
0	0	0	-0.109009	6.36983	-24.972255	6.36983	45259.25	4.4378E-10	2.253369E+9	14.696157	0.182939	0	0
0	0	0	-0.108641	6.370104	-24.972826	6.370104	45266	-8.229366E-11	-1.21516E+10	14.553338	0.18249	0	0
0	0	0	-0.109376	6.3699	-24.973026	6.3699	45252.5	-6.940139E-10	-1.440893E+9	14.643838	0.181194	0	0
0	0	0	-0.109703	6.369837	-24.973222	6.369837	45246.5	5.306461E-10	1.884495E+9	14.543377	0.180757	0	0
0	0	0	-0.109499	6.369935	-24.973329	6.369935	45250.375	-3.041042E-10	-3.288347E+9	14.489647	0.179779	0	0
0	0	0	-0.109294	6.369921	-24.972998	6.369921	45254	-3.922817E-10	-2.549188E+9	14.542873	0.178854	0	0
0	0	0	-0.11101	6.369935	-24.975374	6.369935	45222.625	-3.039177E-10	-3.290365E+9	14.3863	0.178457	0	0
0	0	0	-0.111377	6.369886	-24.975679	6.369886	45215.875	-1.423402E-9	-7.025423E+8	14.474385	0.177254	0	0
0	0	0	-0.111459	6.369872	-24.975735	6.369872	45214.375	2.704374E-8	3.697714E+7	14.409638	0.176831	0	0
0	0	0	-0.11154	6.369942	-24.97612	6.369942	45212.875	-2.7316E-10	-3.660858E+9	14.40647	0.175799	0	0
0	0	0	-0.112275	6.369795	-24.976539	6.369795	45199.375	2.435564E-10	4.105824E+9	14.403168	0.175138	0	0
0	0	0	-0.111377	6.369928	-24.975844	6.369928	45215.875	-3.423371E-10	-2.921097E+9	14.273438	0.174451	0	0
0	0	0	-0.111173	6.370005	-24.975869	6.370005	45219.625	-1.431052E-10	-6.987868E+9	14.34332	0.173446	0	0
0	0	0	-0.11105	6.369879	-24.97521	6.369879	45221.875	-3.005358E-9	-3.327391E+8	14.213998	0.173089	0	0
0	0	0	-0.109989	6.369949	-24.974047	6.369949	45241.375	-2.482558E-10	-4.028103E+9	14.224682	0.172097	0	0
0	0	0	-0.109458	6.369921	-24.973219	6.369921	45251	-3.922557E-10	-2.549357E+9	14.22192	0.17141	0	0
0	0	0	-0.109009	6.369711	-24.971789	6.369711	45259.25	1.171886E-10	8.53325E+9	14.080812	0.170775	0	0
0	0	0	-0.108886	6.369956	-24.972582	6.369956	45261.5	-2.274952E-10	-4.395698E+9	14.163987	0.169546	0	0
0	0	0	-0.108069	6.369858	-24.971093	6.369858	45276.5	1.289566E-9	7.754544E+8	14.020237	0.169374	0	0
0	0	0	-0.108151	6.369984	-24.971697	6.369984	45275	-1.703145E-10	-5.871492E+9	14.082918	0.168091	0	0
0	0	0	-0.107089	6.370012	-24.97037	6.370012	45294.5	-1.36139E-10	-7.345434E+9	14.037911	0.167615	0	0
0	0	0	-0.107334	6.369984	-24.970592	6.369984	45290	-1.703709E-10	-5.869548E+9	13.971772	0.166994	0	0
0	0	0	-0.107253	6.36997	-24.970426	6.36997	45291.5	-1.948911E-10	-5.13107E+9	14.056423	0.165976	0	0
0	0	0	-0.105987	6.369949	-24.968631	6.369949	45314.75	-2.486585E-10	-4.02158E+9	13.893517	0.165698	0	0
0	0	0	-0.10664	6.369963	-24.96957	6.369963	45302.75	-2.100511E-10	-4.760746E+9	13.966283	0.164561	0	0
0	0	0	-0.106926	6.369977	-24.970012	6.369977	45297.5	-1.818353E-10	-5.499483E+9	13.859152	0.16423	0	0
0	0	0	-0.106599	6.369872	-24.969159	6.369872	45303.5	2.709704E-8	3.690439E+7	13.80964	0.163239	0	0
0	0	0	-0.106681	6.369921	-24.969461	6.369921	45302	-3.926978E-10	-2.546487E+9	13.809635	0.162617	0	0
0	0	0	-0.105987	6.369935	-24.968576	6.369935	45314.75	-3.045368E-10	-3.283676E+9	13.67259	0.162155	0	0
0	0	0	-0.105129	6.369956	-24.967498	6.369956	45330.5	-2.27842E-10	-4.389007E+9	13.783417	0.160925	0	0
0	0	0	-0.10566	6.369872	-24.967888	6.369872	45320.75	2.710736E-8	3.689035E+7	13.628045	0.160806	0	0
0	0	0	-0.105374	6.369928	-24.96772	6.369928	45326	-3.431709E-10	-2.914E+9	13.689764	0.15959	0	0
0	0	0	-0.105333	6.369963	-24.967802	6.369963	45326.75	-2.101624E-10	-4.758225E+9	13.643402	0.159312	0	0
0	0	0	-0.106109	6.369998	-24.968989	6.369998	45312.5	-1.514102E-10	-6.604574E+9	13.585101	0.158532	0	0
0	0	0	-0.105497	6.369991	-24.968132	6.369991	45323.75	-1.604092E-10	-6.234056E+9	13.614173	0.157699	0	0
0	0	0	-0.106436	6.369802	-24.968664	6.369802	45306.5	2.683053E-10	3.727097E+9	13.469274	0.157368	0	0
0	0	0	-0.105782	6.369914	-24.968218	6.369914	45318.5	-4.59424E-10	-2.176639E+9	13.558019	0.156218	0	0
0	0	0	-0.106395	6.370076	-24.969677	6.370076	45307.25	-9.376916E-11	-1.066449E+10	13.412674	0.155927	0	0
0	0	0	-0.107089	6.370076	-24.970616	6.370076	45294.5	-9.374277E-11	-1.066749E+10	13.446227	0.155015	0	0
0	0	0	-0.107293	6.369956	-24.970427	6.369956	45290.75	-2.276422E-10	-4.392859E+9	13.406204	0.154592	0	0
0	0	0	-0.107498	6.369998	-24.970868	6.369998	45287	-1.51325E-10	-6.608293E+9	13.324158	0.153944	0	0
0	0	0	-0.1086	6.369956	-24.972195	6.369956	45266.75	-2.275215E-10	-4.395188E+9	13.382372	0.153098	0	0
0	0	0	-0.108764	6.369928	-24.972307	6.369928	45263.75	-3.426996E-10	-2.918007E+9	13.251382	0.152728	0	0
0	0	0	-0.107947	6.369893	-24.971065	6.369893	45278.75	-9.338704E-10	-1.070812E+9	13.351063	0.151802	0	0
0	0	0	-0.108518	6.369956	-24.972085	6.369956	45268.25	-2.275291E-10	-4.395043E+9	13.193424	0.151696	0	0
0	0	0	-0.109539	6.369914	-24.973302	6.369914	45249.5	-4.587245E-10	-2.179958E+9	13.268881	0.150533	0	0
0	0	0	-0.10958	6.369851	-24.973111	6.369851	45248.75	8.730419E-10	1.14542E+9	13.187799	0.150295	0	0
0	0	0	-0.110724	6.370055	-24.975453	6.370055	45227.75	-1.044469E-10	-9.574247E+9	13.143147	0.149422	0	0
0	0	0	-0.109376	6.369942	-24.973191	6.369942	45252.5	-2.733994E-10	-3.657653E+9	13.180114	0.148748	0	0
0	0	0	-0.110928	6.369914	-24.975181	6.369914	45224.125	-4.584673E-10	-2.181181E+9	13.032219	0.148338	0	0
0	0	0	-0.110887	6.369984	-24.9754	6.369984	45224.875	-1.701259E-10	-5.878E+9	13.132019	0.147386	0	0
0	0	0	-0.110315	6.370034	-24.974818	6.370034	45235.375	-1.181498E-10	-8.463834E+9	12.927475	0.147294	0	0
0	0	0	-0.111908	6.369893	-24.976425	6.369893	45206.125	-9.323725E-10	-1.072533E+9	13.042551	0.14613	0	0
0	0	0	-0.112929	6.36976	-24.977286	6.36976	45187.375	1.678732E-10	5.956876E+9	12.913397	0.145945	0	0
0	0	0	-0.113011	6.370027	-24.978438	6.370027	45186	-1.234099E-10	-8.103078E+9	12.904455	0.144953	0	0
0	0	0	-0.113092	6.36997	-24.978329	6.36997	45184.375	-1.944302E-10	-5.143235E+9	12.874882	0.144517	0	0
0	0	0	-0.111663	6.370005	-24.976532	6.370005	45210.625	-1.430767E-10	-6.989259E+9	12.787488	0.144015	0	0
0	0	0	-0.112071	6.369893	-24.976646	6.369893	45203.125	-9.323106E-10	-1.072604E+9	12.843025	0.14338	0	0
0	0	0	-0.112316	6.369823	-24.976704	6.369823	45198.625	3.80765E-10	2.626292E+9	12.719467	0.142864	0	0
0	0	0	-0.111745	6.369809	-24.975875	6.369809	45209.125	2.971494E-10	3.36531E+9	12.793086	0.142005	0	0
0	0	0	-0.110356	6.370055	-24.974955	6.370055	45234.625	-1.044627E-10	-9.572791E+9	12.640888	0.141859	0	0
0	0	0	-0.110764	6.369865	-24.974768	6.369865	45227.125	2.459215E-9	4.066339E+8	12.745247	0.140722	0	0
0	0	0	-0.110152	6.370076	-24.974761	6.370076	45238.25	-9.362636E-11	-1.068075E+10	12.589327	0.140696	0	0
0	0	0	-0.11007	6.370012	-24.974404	6.370012	45239.875	-1.359748E-10	-7.354303E+9	12.66313	0.139651	0	0
0	0	0	-0.108723	6.370118	-24.972991	6.370118	45264.5	-7.757512E-11	-1.289073E+10	12.577335	0.139532	0	0
0	0	0	-0.108151	6.3699	-24.971368	6.3699	45275	-6.943589E-10	-1.440177E+9	12.556055	0.138567	0	0
0	0	0	-0.10762	6.370083	-24.971362	6.370083	45284.75	-9.058806E-11	-1.103898E+10	12.54259	0.138131	0	0
0	0	0	-0.107906	6.370048	-24.971612	6.370048	45279.5	-1.087658E-10	-9.194065E+9	12.441184	0.137562	0	0
0	0	0	-0.108028	6.369984	-24.971531	6.369984	45277.25	-1.703229E-10	-5.8712E+9	12.491265	0.136716	0	0
0	0	0	-0.107947	6.369886	-24.971037	6.369886	45278.75	-1.425381E-9	-7.015668E+8	12.350915	0.136465	0	0
0	0	0	-0.10762	6.369928	-24.970759	6.369928	45284.75	-3.428586E-10	-2.916654E+9	12.448544	0.135606	0	0
0	0	0	-0.10762	6.369879	-24.970568	6.369879	45284.75	-3.009537E-9	-3.322771E+8	12.303656	0.135341	0	0
0	0	0	-0.10713	6.369816	-24.969658	6.369816	45293.75	3.344594E-10	2.989899E+9	12.374902	0.134416	0	0
0	0	0	-0.106926	6.369984	-24.970039	6.369984	45297.5	-1.703991E-10	-5.868576E+9	12.222118	0.13435	0	0
0	0	0	-0.106722	6.369935	-24.969571	6.369935	45301.25	-3.044461E-10	-3.284654E+9	12.271405	0.13345	0	0
0	0	0	-0.106027	6.369858	-24.96833	6.369858	45314	1.290635E-9	7.748127E+8	12.164873	0.133014	0	0
0	0	0	-0.105742	6.37009	-24.968847	6.37009	45319.25	-8.772319E-11	-1.139949E+10	12.195706	0.132142	0	0
0	0	0	-0.105782	6.370027	-24.968656	6.370027	45318.5	-1.237718E-10	-8.079387E+9	12.118081	0.131996	0	0
0	0	0	-0.105456	6.370041	-24.968269	6.370041	45324.5	-1.134293E-10	-8.816063E+9	12.104654	0.131203	0	0
0	0	0	-0.105537	6.369851	-24.96764	6.369851	45323	8.744745E-10	1.143544E+9	12.079292	0.1307	0	0
0	0	0	-0.10566	6.369963	-24.968244	6.369963	45320.75	-2.101346E-10	-4.758855E+9	12.003712	0.130145	0	0
0	0	0	-0.106068	6.369942	-24.968714	6.369942	45313.25	-2.737664E-10	-3.652749E+9	12.00758	0.129722	0	0
0	0	0	-0.106722	6.369935	-24.969571	6.369935	45301.25	-3.044461E-10	-3.284654E+9	11.902903	0.12922	0	0
0	0	0	-0.107048	6.370012	-24.970315	6.370012	45295.25	-1.361413E-10	-7.345312E+9	11.943316	0.128479	0	0
0	0	0	-0.108396	6.370055	-24.972303	6.370055	45270.5	-1.045456E-10	-9.565205E+9	11.850255	0.12803	0	0
0	0	0	-0.107988	6.36983	-24.970873	6.36983	45278	4.439638E-10	2.252436E+9	11.884555	0.127408	0	0
0	0	0	-0.108682	6.369872	-24.971977	6.369872	45265.25	2.707417E-8	3.693558E+7	11.764257	0.127117	0	0
0	0	0	-0.108845	6.370055	-24.972911	6.370055	45262.25	-1.045265E-10	-9.566949E+9	11.859764	0.126152	0	0
0	0	0	-0.108764	6.369935	-24.972334	6.369935	45263.75	-3.04194E-10	-3.287375E+9	11.680256	0.126112	0	0
0	0	0	-0.108641	6.369963	-24.972278	6.369963	45266	-2.098807E-10	-4.764611E+9	11.803779	0.125161	0	0
0	0	0	-0.109294	6.370034	-24.973436	6.370034	45254	-1.181984E-10	-8.46035E+9	11.620548	0.124949	0	0
0	0	0	-0.110642	6.369886	-24.974685	6.369886	45229.375	-1.423827E-9	-7.023326E+8	11.70649	0.124142	0	0
0	0	0	-0.11056	6.370069	-24.975286	6.370069	45230.875	-9.696633E-11	-1.031286E+10	11.537003	0.12401	0	0
0	0	0	-0.110356	6.369865	-24.974216	6.369865	45234.625	2.459623E-9	4.065664E+8	11.599568	0.123124	0	0
0	0	0	-0.110805	6.370076	-24.975645	6.370076	45226.375	-9.360178E-11	-1.068356E+10	11.476743	0.123019	0	0
0	0	0	-0.109907	6.369865	-24.973608	6.369865	45242.75	2.460064E-9	4.064934E+8	11.5405	0.12212	0	0
0	0	0	-0.109539	6.370062	-24.973877	6.370062	45249.5	-1.006124E-10	-9.939129E+9	0	0	0	0
0	0	0	-0.110764	6.36983	-24.974631	6.36983	45227.125	4.43465E-10	2.25497E+9	0	0	0	0
0	0	0	-0.112316	6.369942	-24.97717	6.369942	45198.625	-2.730739E-10	-3.662012E+9	0	0	0	0
0	0	0	-0.113541	6.369823	-24.978362	6.369823	45176.25	3.805765E-10	2.627592E+9	0	0	0	0
0	0	0	-0.114113	6.3699	-24.979437	6.3699	45165.75	-6.926834E-10	-1.443661E+9	0	0	0	0
0	0	0	-0.114195	6.369935	-24.979684	6.369935	45164.25	-3.035253E-10	-3.294618E+9	0	0	0	0
0	0	0	-0.112602	6.369991	-24.977748	6.369991	45193.375	-1.599478E-10	-6.25204E+9	0	0	0	0
0	0	0	-0.113133	6.370012	-24.978549	6.370012	45183.75	-1.358061E-10	-7.363438E+9	0	0	0	0
0	0	0	-0.112602	6.369802	-24.977009	6.369802	45193.375	2.676354E-10	3.736426E+9	0	0	0	0
0	0	0	-0.113378	6.370041	-24.97899	6.370041	45179.25	-1.130658E-10	-8.844407E+9	0	0	0	0
0	0	0	-0.111867	6.369921	-24.97648	6.369921	45206.875	-3.918732E-10	-2.551846E+9	0	0	0	0
0	0	0	-0.111418	6.369732	-24.975132	6.369732	45215.125	1.345482E-10	7.432281E+9	0	0	0	0
0	0	0	-0.110438	6.369963	-24.97471	6.369963	45233.125	-2.097283E-10	-4.768074E+9	0	0	0	0
0	0	0	-0.109131	6.369921	-24.972777	6.369921	45257	-3.923077E-10	-2.549019E+9	0	0	0	0
0	0	0	-0.109172	6.369956	-24.972969	6.369956	45256.25	-2.274688E-10	-4.396208E+9	0	0	0	0
0	0	0	-0.109499	6.369844	-24.972973	6.369844	45250.375	6.601285E-10	1.514857E+9	0	0	0	0
0	0	0	-0.10811	6.369998	-24.971697	6.369998	45275.75	-1.512874E-10	-6.609935E+9	0	0	0	0
0	0	0	-0.108355	6.369879	-24.971562	6.369879	45271.25	-3.008639E-9	-3.323761E+8	0	0	0	0
0	0	0	-0.108314	6.369851	-24.971398	6.369851	45272	8.734904E-10	1.144832E+9	0	0	0	0
0	0	0	-0.10909	6.369928	-24.972749	6.369928	45257.75	-3.426542E-10	-2.918394E+9	0	0	0	0
0	0	0	-0.108437	0	-0.108437	0	45269.75	0	0	0	0	0	0
0	0	0	-0.107253	0	-0.107253	0	45291.5	0	0	0	0	0	0
