Vload_(V)	ILoad_(A)	RsLoad (ohm)	SunsVoc_Voltage_(V)	SunsVoc_Current_(A)	Model_Voltage_(V)	Model_Current_(A)	Carrier_Density_(cm-3)	Lifetime_(s)	Inverse_Lifetime_(s-1)	Efficiency_(%)	Intensity_(suns)	Dark_IV_Voltage_(V)	Dark_IV_Current_(A)
3.442738	6.048662	0	52.231829	-0.520023	52.523162	-0.520023	1.087731E+16	0.000737	1161.124707	19.616785	1.183003	0	0
3.377675	6.048497	2.224131	52.820856	-0.870945	53.288689	-0.870945	1.288102E+16	0.000828	932.171474	19.483361	1.182474	0	0
3.469238	6.049142	-0.579199	52.960435	-0.776776	53.373438	-0.776776	1.340463E+16	0.000874	846.36154	19.376659	1.181482	0	0
4.058448	6.046386	3.954908	52.946265	-0.47674	53.200006	-0.47674	1.335056E+16	0.00091	802.877832	19.31531	1.179261	0	0
5.959654	6.044858	3.998027	52.866062	-0.114112	52.927155	-0.114112	1.304844E+16	0.000942	779.084522	19.2861	1.175625	0	0
8.393277	6.042101	3.963073	52.767768	0.244578	52.635883	0.244578	1.268702E+16	0.000972	761.214974	19.264228	1.173166	0	0
10.89579	6.033781	4.268448	52.65461	0.592927	52.332254	0.592927	1.22827E+16	0.001001	748.071923	19.211926	1.171368	0	0
12.905486	6.032418	3.997162	52.54529	0.922482	52.039815	0.922482	1.190371E+16	0.001033	732.843299	19.15731	1.169239	0	0
14.920595	6.031365	3.703352	52.425435	1.236093	51.742312	1.236093	1.150091E+16	0.001063	721.098929	19.130069	1.166105	0	0
17.044642	6.032638	3.30376	52.311133	1.525249	51.461379	1.525249	1.112879E+16	0.001094	708.122965	19.124945	1.16202	0	0
19.337573	6.032018	2.948107	52.193116	1.792266	51.186313	1.792266	1.075649E+16	0.001124	697.469748	19.106011	1.158027	0	0
21.499336	6.028685	2.691912	52.076119	2.039026	50.921354	2.039026	1.039901E+16	0.001154	687.260477	19.071506	1.154008	0	0
23.66955	6.028496	2.337461	51.963328	2.271948	50.666613	2.271948	1.006497E+16	0.001186	675.352372	19.0271	1.150028	0	0
25.882579	6.029422	1.945914	51.844984	2.497166	50.408148	2.497166	9.725313E+15	0.001218	663.91219	18.990564	1.146048	0	0
28.002984	6.024884	1.706953	51.721698	2.705284	50.152048	2.705284	9.382903E+15	0.001248	654.869655	18.97752	1.142293	0	0
30.174342	6.028041	1.268415	51.602741	2.891111	49.911797	2.891111	9.063219E+15	0.001277	646.821146	18.99693	1.1383	0	0
32.338115	6.020927	1.085954	51.487378	3.063611	49.681697	3.063611	8.762917E+15	0.001306	638.294878	19.027082	1.133792	0	0
33.031778	6.013436	1.113389	51.377527	3.227431	49.461403	3.227431	8.485595E+15	0.001338	627.862805	19.038114	1.128344	0	0
33.745526	6.013969	0.985672	51.26	3.385955	49.23417	3.385955	8.197933E+15	0.00137	618.586062	19.007866	1.122619	0	0
34.446179	6.007165	0.968121	51.142186	3.536819	49.00977	3.536819	7.918665E+15	0.001402	608.979668	18.957838	1.117569	0	0
35.146647	6.001873	0.915379	51.026741	3.672594	48.795853	3.672594	7.653571E+15	0.001433	600.651383	18.939048	1.112809	0	0
35.850781	5.992916	0.89334	50.917299	3.800271	48.592561	3.800271	7.409849E+15	0.001466	590.966074	18.96497	1.107983	0	0
36.54708	5.977188	0.904614	50.801486	3.919079	48.386289	3.919079	7.159742E+15	0.001496	583.540147	18.987871	1.10288	0	0
37.246933	5.964992	0.870053	50.692534	4.029131	48.192319	4.029131	6.931558E+15	0.001527	575.197844	18.997946	1.097194	0	0
37.943377	5.94587	0.863149	50.576518	4.134926	47.991859	4.134926	6.695927E+15	0.001556	568.058459	18.970366	1.091694	0	0
38.638993	5.922596	0.852329	50.471486	4.228926	47.81067	4.228926	6.488954E+15	0.001586	560.516758	18.948856	1.0863	0	0
39.337245	5.89282	0.842498	50.356408	4.321808	47.617668	4.321808	6.268906E+15	0.001615	553.998809	18.954665	1.080958	0	0
40.040155	5.85808	0.825499	50.247456	4.40821	47.435147	4.40821	6.06686E+15	0.001645	546.743597	18.979174	1.075683	0	0
40.734143	5.813545	0.813482	50.137238	4.488848	47.254102	4.488848	5.868508E+15	0.001674	540.329186	19.001973	1.070394	0	0
41.431867	5.759415	0.798811	50.024407	4.56735	47.070661	4.56735	5.671564E+15	0.001703	533.735257	19.000555	1.064986	0	0
42.121755	5.69745	0.777349	49.913985	4.63881	46.893958	4.63881	5.484636E+15	0.001731	527.918541	18.981019	1.059288	0	0
42.815578	5.615715	0.761571	49.807891	4.705598	46.724825	4.705598	5.310296E+15	0.001759	521.740813	18.962609	1.053602	0	0
43.507505	5.520343	0.740664	49.695632	4.769788	46.549532	4.769788	5.131272E+15	0.001785	516.558441	18.973293	1.047666	0	0
44.186803	5.398965	0.726686	49.592887	4.827999	46.388959	4.827999	4.972197E+15	0.001812	510.83335	19.000062	1.041677	0	0
44.870005	5.261096	0.703616	49.481975	4.88436	46.219421	4.88436	4.805452E+15	0.001836	506.323592	19.009361	1.035912	0	0
45.541391	5.094325	0.682996	49.376902	4.937944	46.058231	4.937944	4.652119E+15	0.001863	500.79024	18.981617	1.030332	0	0
46.206394	4.88271	0.67024	49.26844	4.988902	45.894324	4.988902	4.498433E+15	0.001888	495.996292	18.962575	1.024502	0	0
46.863489	4.641532	0.653827	49.162755	5.037796	45.734712	5.037796	4.353046E+15	0.001916	490.570635	18.957043	1.018539	0	0
47.497144	4.361001	0.640963	49.051924	5.087213	45.568168	5.087213	4.205078E+15	0.001946	484.62428	18.968741	1.012827	0	0
48.125086	4.025726	0.634194	48.948526	5.128962	45.415403	5.128962	4.071067E+15	0.001969	480.331135	18.994981	1.00738	0	0
48.749139	3.655269	0.623366	48.839288	5.171067	45.255032	5.171067	3.933601E+15	0.001994	475.842808	19.002602	1.002395	0	0
49.354986	3.243088	0.61537	48.736258	5.207565	45.105684	5.207565	3.807712E+15	0.002014	472.494676	18.984608	0.997543	0	0
49.929223	2.802198	0.613297	48.634534	5.243759	44.957829	5.243759	3.686909E+15	0.002038	468.199193	18.973648	0.992545	0	0
50.483227	2.332429	0.615755	48.523295	5.281208	44.797318	5.281208	3.558667E+15	0.002063	463.771061	18.988533	0.987375	0	0
51.014572	1.849751	0.632167	48.423286	5.312506	44.654414	5.312506	3.44672E+15	0.002083	460.40563	19.022791	0.982126	0	0
51.502988	1.378917	0.638335	48.312537	5.345207	44.497275	5.345207	3.32635E+15	0.002103	457.033788	19.043984	0.976957	0	0
51.952574	0.929287	0.628016	48.211834	5.373314	44.355312	5.373314	3.220092E+15	0.002121	454.254157	19.037212	0.971932	0	0
52.335426	0.536346	0.567906	48.110233	5.401412	44.212045	5.401412	3.115886E+15	0.002141	450.846107	19.007769	0.96704	0	0
42.66399	5.63543	0.764589	48.001322	5.428272	44.060588	5.428272	3.007439E+15	0.002156	448.709646	19.006247	0.961805	0	0
52.747855	0	0	47.899148	5.453368	43.918368	5.453368	2.908684E+15	0.002174	446.028177	19.02541	0.956542	0	0
0	0	0	47.794443	5.4778	43.773359	5.4778	2.810395E+15	0.00219	443.509471	19.055932	0.950989	0	0
0	0	0	47.691127	5.500909	43.630814	5.500909	2.716223E+15	0.002206	441.079474	19.047892	0.945714	0	0
0	0	0	47.581766	5.525196	43.479856	5.525196	2.619505E+15	0.002226	437.83144	19.019478	0.940756	0	0
0	0	0	47.480982	5.544738	43.34267	5.544738	2.532998E+15	0.002236	436.569656	18.994566	0.935732	0	0
0	0	0	47.375052	5.565899	43.197849	5.565899	2.444716E+15	0.002253	433.991215	19.003617	0.930496	0	0
0	0	0	47.271082	5.585087	43.05673	5.585087	2.360631E+15	0.002265	432.201686	19.027395	0.925273	0	0
0	0	0	47.172012	5.602562	42.92273	5.602562	2.28281E+15	0.002276	430.641969	19.039609	0.920249	0	0
0	0	0	47.062121	5.622155	42.773775	5.622155	2.199046E+15	0.002294	427.969592	19.021112	0.915317	0	0
0	0	0	46.9635	5.637585	42.641604	5.637585	2.126104E+15	0.002301	427.137061	18.997511	0.910333	0	0
0	0	0	46.859612	5.653753	42.502311	5.653753	2.051487E+15	0.002311	425.746036	18.995166	0.905242	0	0
0	0	0	46.752784	5.67004	42.359201	5.67004	1.977074E+15	0.002323	424.012337	19.011825	0.900073	0	0
0	0	0	46.655756	5.68434	42.229486	5.68434	1.91147E+15	0.002334	422.394116	19.031675	0.894943	0	0
0	0	0	46.548519	5.698873	42.08699	5.698873	1.841101E+15	0.002341	421.463381	19.029929	0.890011	0	0
0	0	0	46.447612	5.711942	41.953272	5.711942	1.776883E+15	0.002347	420.750921	18.995479	0.885106	0	0
0	0	0	46.350053	5.723573	41.824687	5.723573	1.71659E+15	0.002349	420.831628	18.972984	0.88028	0	0
0	0	0	46.246083	5.736306	41.687285	5.736306	1.654228E+15	0.002356	419.926819	18.986146	0.875269	0	0
0	0	0	46.14734	5.747822	41.557155	5.747822	1.596764E+15	0.002361	419.299245	19.00793	0.870443	0	0
0	0	0	46.047046	5.758672	41.42557	5.758672	1.540111E+15	0.002363	419.33804	19.020209	0.865578	0	0
0	0	0	45.944015	5.768893	41.291052	5.768893	1.483665E+15	0.002359	420.238428	18.990985	0.861201	0	0
0	0	0	45.84515	5.779211	41.161481	5.779211	1.431131E+15	0.002363	419.84573	18.960908	0.856468	0	0
0	0	0	45.744896	5.788437	41.031016	5.788437	1.379446E+15	0.002358	420.909892	18.96302	0.851708	0	0
0	0	0	45.643866	5.797907	40.899326	5.797907	1.32894E+15	0.002358	421.233674	18.997808	0.846565	0	0
0	0	0	45.542877	5.8075	40.767511	5.8075	1.279997E+15	0.002361	420.816262	19.009492	0.841911	0	0
0	0	0	45.442052	5.815158	40.637419	5.815158	1.232634E+15	0.002348	423.323007	18.971455	0.837349	0	0
0	0	0	45.340573	5.823841	40.505613	5.823841	1.186441E+15	0.002348	423.635338	18.946736	0.832814	0	0
0	0	0	45.241544	5.831581	40.377535	5.831581	1.142755E+15	0.002342	424.862897	18.933776	0.827949	0	0
0	0	0	45.137329	5.840224	40.242268	5.840224	1.098229E+15	0.002344	424.652261	18.946763	0.82307	0	0
0	0	0	45.037729	5.846384	40.114691	5.846384	1.057027E+15	0.002325	428.32786	18.956445	0.818456	0	0
0	0	0	44.934167	5.85497	39.980146	5.85497	1.015553E+15	0.002332	427.033879	18.936917	0.814	0	0
0	0	0	44.836731	5.860296	39.855834	5.860296	9.777722E+14	0.002309	431.480512	18.891207	0.809478	0	0
0	0	0	44.735129	5.868029	39.724303	5.868029	9.396252E+14	0.002314	430.682802	18.876136	0.804824	0	0
0	0	0	44.631976	5.873831	39.592459	5.873831	9.021668E+14	0.002296	434.28274	18.903875	0.800078	0	0
0	0	0	44.535684	5.879431	39.469183	5.879431	8.683267E+14	0.002283	436.862964	18.916666	0.795648	0	0
0	0	0	44.430284	5.886455	39.333425	5.886455	8.325021E+14	0.002283	436.851519	18.89913	0.791272	0	0
0	0	0	44.330521	5.891273	39.206465	5.891273	7.99734E+14	0.00226	441.343757	18.865433	0.787332	0	0
0	0	0	44.232717	5.897066	39.081028	5.897066	7.686593E+14	0.002256	442.368207	18.851277	0.782797	0	0
0	0	0	44.124173	5.902862	38.942321	5.902862	7.353576E+14	0.002244	444.810993	18.864303	0.778209	0	0
0	0	0	44.029514	5.90628	38.822758	5.90628	7.073076E+14	0.00221	451.69012	18.884548	0.773965	0	0
0	0	0	43.92975	5.911778	38.695042	5.911778	6.787193E+14	0.002206	452.606219	18.877802	0.769853	0	0
0	0	0	43.822187	5.91744	38.55753	5.91744	6.489872E+14	0.0022	453.829496	18.833021	0.765913	0	0
0	0	0	43.725036	5.920646	38.434993	5.920646	6.23081E+14	0.002165	461.214017	18.811039	0.761576	0	0
0	0	0	43.618739	5.925588	38.299605	5.925588	5.95738E+14	0.002153	463.821331	18.832622	0.757213	0	0
0	0	0	43.515341	5.930538	38.16774	5.930538	5.701188E+14	0.002147	465.220107	18.85215	0.75289	0	0
0	0	0	43.417047	5.934214	38.043281	5.934214	5.466343E+14	0.002125	470.159377	18.828213	0.749042	0	0
0	0	0	43.307196	5.937491	37.904911	5.937491	5.213638E+14	0.002086	478.884777	18.797412	0.745036	0	0
0	0	0	43.205881	5.941043	37.776783	5.941043	4.989439E+14	0.002062	484.459276	18.765525	0.741003	0	0
0	0	0	43.101503	5.945446	37.64407	5.945446	4.767108E+14	0.002055	486.34452	18.783846	0.736587	0	0
0	0	0	42.996063	5.949282	37.510535	5.949282	4.55117E+14	0.002037	490.527934	18.8027	0.732515	0	0
0	0	0	42.888907	5.95206	37.375832	5.95206	4.340368E+14	0.001999	500.011162	18.79213	0.728496	0	0
0	0	0	42.782936	5.954561	37.242824	5.954561	4.140211E+14	0.001957	510.645775	18.727638	0.724714	0	0
0	0	0	42.676639	5.957777	37.108724	5.957777	3.947491E+14	0.001932	517.301948	18.695699	0.720576	0	0
0	0	0	42.568258	5.961504	36.971549	5.961504	3.759044E+14	0.001919	520.986067	18.705153	0.716438	0	0
0	0	0	42.465554	5.964928	36.841631	5.964928	3.587731E+14	0.001906	524.438978	18.721786	0.712378	0	0
0	0	0	42.344106	5.96788	36.689005	5.96788	3.393973E+14	0.001869	534.860758	18.696886	0.708544	0	0
0	0	0	42.234583	5.970022	36.551836	5.970022	3.227159E+14	0.001826	547.613725	18.65233	0.704829	0	0
0	0	0	42.122731	5.972601	36.411359	5.972601	3.06428E+14	0.001792	557.827332	18.632752	0.700942	0	0
0	0	0	42.014555	5.975381	36.275202	5.975381	2.913697E+14	0.001769	565.234326	18.640571	0.697002	0	0
0	0	0	41.905726	5.978679	36.137715	5.978679	2.768854E+14	0.00176	568.046999	18.661655	0.693115	0	0
0	0	0	41.790076	5.981964	35.991794	5.981964	2.621982E+14	0.001749	571.720487	18.639774	0.689439	0	0
0	0	0	41.677	5.984038	35.850199	5.984038	2.485141E+14	0.001711	584.460739	18.590196	0.685843	0	0
0	0	0	41.566945	5.985873	35.71255	5.985873	2.358137E+14	0.001671	598.464081	18.554216	0.682193	0	0
0	0	0	41.453746	5.987893	35.570821	5.987893	2.233623E+14	0.001635	611.509975	18.580879	0.678201	0	0
0	0	0	41.344713	5.989595	35.43453	5.989595	2.119334E+14	0.001596	626.441961	18.592114	0.674591	0	0
0	0	0	41.230983	5.992158	35.291574	5.992158	2.005793E+14	0.001579	633.190919	18.552845	0.671206	0	0
0	0	0	41.117375	5.994691	35.148775	5.994691	1.897925E+14	0.001564	639.184335	18.501095	0.667742	0	0
0	0	0	41.007035	5.996981	35.010232	5.996981	1.798254E+14	0.001548	645.993817	18.490394	0.664133	0	0
0	0	0	40.887343	5.998988	34.860404	5.998988	1.695575E+14	0.001518	658.52377	18.510791	0.660272	0	0
0	0	0	40.779207	6.000439	34.725391	6.000439	1.607475E+14	0.001483	674.326555	18.518688	0.656821	0	0
0	0	0	40.65972	6.002044	34.576189	6.002044	1.515049E+14	0.001446	691.66379	18.485375	0.65345	0	0
0	0	0	40.539538	6.003421	34.426345	6.003421	1.427072E+14	0.001403	712.611293	18.429416	0.650144	0	0
0	0	0	40.424011	6.004592	34.282451	6.004592	1.346999E+14	0.00136	735.440881	18.423358	0.646495	0	0
0	0	0	40.305136	6.005968	34.134198	6.005968	1.268992E+14	0.001322	756.279791	18.448371	0.64278	0	0
0	0	0	40.1921	6.007517	33.992968	6.007517	1.198755E+14	0.001296	771.537954	18.449188	0.639355	0	0
0	0	0	40.069386	6.008879	33.839961	6.008879	1.126641E+14	0.00126	793.750138	18.384562	0.636248	0	0
0	0	0	39.950061	6.010904	33.69044	6.010904	1.060451E+14	0.001249	800.388482	18.343162	0.632705	0	0
0	0	0	39.831472	6.01256	33.542192	6.01256	9.983186E+13	0.00123	812.899869	18.346333	0.629188	0	0
0	0	0	39.706308	6.01412	33.385906	6.01412	9.36488E+13	0.001206	829.126356	18.361653	0.625803	0	0
0	0	0	39.588658	6.015497	33.239083	6.015497	8.816986E+13	0.001183	845.539306	18.337823	0.622511	0	0
0	0	0	39.46235	6.016825	33.081601	6.016825	8.262794E+13	0.001155	866.123464	18.283251	0.619311	0	0
0	0	0	39.33641	6.017528	32.925227	6.017528	7.743419E+13	0.001106	903.816895	18.250681	0.616019	0	0
0	0	0	39.211205	6.018677	32.769276	6.018677	7.258135E+13	0.001077	928.66475	18.259377	0.612515	0	0
0	0	0	39.085347	6.01954	32.612815	6.01954	6.799797E+13	0.001039	962.752171	18.266675	0.609223	0	0
0	0	0	38.956426	6.020343	32.452624	6.020343	6.359219E+13	0.000999	1001.068293	18.234763	0.606143	0	0
0	0	0	38.823257	6.021038	32.287293	6.021038	5.933066E+13	0.000955	1046.606384	18.172268	0.603075	0	0
0	0	0	38.694745	6.021904	32.127523	6.021904	5.548046E+13	0.000922	1084.155139	18.150207	0.599796	0	0
0	0	0	38.559984	6.022923	31.959854	6.022923	5.170315E+13	0.000894	1119.084965	18.17714	0.596306	0	0
0	0	0	38.426857	6.023419	31.794769	6.023419	4.821712E+13	0.00085	1176.842613	18.169783	0.593238	0	0
0	0	0	38.287195	6.024709	31.620725	6.024709	4.480572E+13	0.000832	1201.757156	18.110846	0.590237	0	0
0	0	0	38.14684	6.025818	31.446009	6.025818	4.161453E+13	0.00081	1233.97853	18.063131	0.586984	0	0
0	0	0	38.003953	6.026699	31.268407	6.026699	3.859381E+13	0.000782	1279.272807	18.060243	0.583758	0	0
0	0	0	37.862536	6.028024	31.092112	6.028024	3.581551E+13	0.000772	1295.313116	18.070232	0.580466	0	0
0	0	0	37.718628	6.028878	30.913257	6.028878	3.318942E+13	0.000746	1339.997546	18.030664	0.577557	0	0
0	0	0	37.57182	6.029889	30.730628	6.029889	3.070507E+13	0.000728	1374.365601	17.979884	0.574741	0	0
0	0	0	37.423338	6.030726	30.546116	6.030726	2.837824E+13	0.000704	1420.735448	17.943188	0.571766	0	0
0	0	0	37.273182	6.031691	30.359379	6.031691	2.620159E+13	0.000687	1455.978816	17.959646	0.568368	0	0
0	0	0	37.116941	6.032201	30.165632	6.032201	2.411118E+13	0.000652	1534.693898	17.959446	0.565367	0	0
0	0	0	36.963763	6.032868	29.975483	6.032868	2.222154E+13	0.000626	1597.740637	17.903993	0.562683	0	0
0	0	0	36.806747	6.033659	29.780435	6.033659	2.043623E+13	0.000606	1650.309202	17.840566	0.55984	0	0
0	0	0	36.64777	6.034021	29.583456	6.034021	1.877302E+13	0.00057	1753.116805	17.839046	0.556667	0	0
0	0	0	36.483443	6.034572	29.379638	6.034572	1.719447E+13	0.000543	1842.105958	17.861372	0.553454	0	0
0	0	0	36.320097	6.035	29.177168	6.035	1.575562E+13	0.000513	1949.265524	17.829647	0.55085	0	0
0	0	0	36.147032	6.035421	28.962684	6.035421	1.436113E+13	0.000483	2072.534888	17.758738	0.548073	0	0
0	0	0	35.977886	6.035693	28.753221	6.035693	1.311659E+13	0.00045	2222.627929	17.728265	0.545112	0	0
0	0	0	35.803718	6.036066	28.537421	6.036066	1.194686E+13	0.000422	2370.076526	17.746155	0.542057	0	0
0	0	0	35.622322	6.03646	28.312653	6.03646	1.08386E+13	0.000395	2530.62911	17.746048	0.539215	0	0
0	0	0	35.446357	6.036705	28.094778	6.036705	9.861241E+12	0.000367	2725.60735	17.680761	0.536716	0	0
0	0	0	35.259775	6.036978	27.863735	6.036978	8.920462E+12	0.00034	2944.169194	17.637379	0.533807	0	0
0	0	0	35.076664	6.0374	27.636798	6.0374	8.084057E+12	0.000319	3131.431061	17.63561	0.530779	0	0
0	0	0	34.886243	6.037733	27.400926	6.037733	7.296957E+12	0.000297	3366.839734	17.645391	0.52795	0	0
0	0	0	34.696638	6.03819	27.165905	6.03819	6.589069E+12	0.00028	3572.689813	17.603063	0.525292	0	0
0	0	0	34.505237	6.038534	26.928796	6.038534	5.943843E+12	0.000261	3830.192438	17.537107	0.52278	0	0
0	0	0	34.308078	6.03893	26.684497	6.03893	5.344979E+12	0.000244	4093.062951	17.5058	0.51999	0	0
0	0	0	34.106836	6.039134	26.435385	6.039134	4.795703E+12	0.000224	4466.074712	17.505276	0.517029	0	0
0	0	0	33.905838	6.03956	26.186289	6.03956	4.303287E+12	0.00021	4754.409561	17.502827	0.514464	0	0
0	0	0	33.699531	6.039864	25.930778	6.039864	3.85027E+12	0.000195	5136.180709	17.445645	0.511925	0	0
0	0	0	33.489182	6.040289	25.670108	6.040289	3.437335E+12	0.000183	5475.886217	17.382707	0.509281	0	0
0	0	0	33.276709	6.040609	25.406939	6.040609	3.065086E+12	0.000169	5905.54409	17.379863	0.506438	0	0
0	0	0	33.064604	6.041081	25.144022	6.041081	2.733623E+12	0.00016	6233.972925	17.383511	0.503569	0	0
0	0	0	32.835021	6.041369	24.859725	6.041369	2.415058E+12	0.000147	6788.286862	17.326327	0.501335	0	0
0	0	0	32.615116	6.0416	24.587467	6.0416	2.144743E+12	0.000135	7401.51396	17.246546	0.498955	0	0
0	0	0	32.390555	6.042048	24.309157	6.042048	1.899867E+12	0.000128	7824.945394	17.218301	0.49598	0	0
0	0	0	32.164566	6.042359	24.029257	6.042359	1.68162E+12	0.000119	8425.371783	17.254856	0.493349	0	0
0	0	0	31.939229	6.042439	23.750473	6.042439	1.488947E+12	0.000106	9395.0085	17.230213	0.491009	0	0
0	0	0	31.711239	6.04333	23.467297	6.04333	1.316441E+12	0.00011	9104.505728	17.148843	0.488734	0	0
0	0	0	31.481165	6.043505	23.182513	6.043505	1.162599E+12	0.0001	9969.985618	17.107517	0.486209	0	0
0	0	0	31.246763	6.043566	22.892531	6.043566	1.024324E+12	8.942214E-5	11182.912335	17.132816	0.483406	0	0
0	0	0	31.010156	6.043791	22.599591	6.043791	9.014117E+11	8.232731E-5	12146.637486	17.123402	0.480921	0	0
0	0	0	30.773957	6.044133	22.306988	6.044133	7.934155E+11	7.794596E-5	12829.402087	17.04577	0.478845	0	0
0	0	0	30.532695	6.044428	22.008183	6.044428	6.964441E+11	7.318264E-5	13664.443035	16.993051	0.476227	0	0
0	0	0	30.29131	6.044654	21.709318	6.044654	6.112795E+11	6.786029E-5	14736.158633	16.992712	0.473701	0	0
0	0	0	30.047515	6.045032	21.407252	6.045032	5.358275E+11	6.567915E-5	15225.532314	16.994292	0.471163	0	0
0	0	0	29.799882	6.045163	21.100787	6.045163	4.687127E+11	5.959157E-5	16780.8967	16.917232	0.469166	0	0
0	0	0	29.551718	6.045478	20.793395	6.045478	4.098845E+11	5.727713E-5	17458.97488	16.863577	0.46672	0	0
0	0	0	29.300818	6.04572	20.482721	6.04572	3.579085E+11	5.411881E-5	18477.864763	16.8682	0.464155	0	0
0	0	0	29.043915	6.045674	20.165039	6.045674	3.115097E+11	4.638279E-5	21559.72179	16.87477	0.46167	0	0
0	0	0	28.785951	6.045927	19.845603	6.045927	2.709694E+11	4.40829E-5	22684.535137	16.812184	0.459568	0	0
0	0	0	28.5228	6.04608	19.519896	6.04608	2.350446E+11	4.050034E-5	24691.148627	16.742986	0.457412	0	0
0	0	0	28.25973	6.046218	19.194309	6.046218	2.038909E+11	3.712432E-5	26936.518315	16.73001	0.454795	0	0
0	0	0	27.99515	6.046443	18.86672	6.046443	1.767217E+11	3.543281E-5	28222.431249	16.7379	0.452335	0	0
0	0	0	27.725179	6.046494	18.532723	6.046494	1.527268E+11	3.133837E-5	31909.759405	16.681019	0.450193	0	0
0	0	0	27.45721	6.04665	18.201038	6.04665	1.321325E+11	2.922526E-5	34216.980583	16.612294	0.448052	0	0
0	0	0	27.184585	6.04664	17.863849	6.04664	1.140277E+11	2.509359E-5	39850.809848	16.576237	0.445751	0	0
0	0	0	26.907059	6.04699	17.520041	6.04699	9.814314E+10	2.611043E-5	38298.868795	16.590924	0.443226	0	0
0	0	0	26.62839	6.047065	17.175239	6.047065	8.441906E+10	2.352514E-5	42507.72092	16.555441	0.441137	0	0
0	0	0	26.344372	6.047114	16.82386	6.047114	7.240435E+10	2.081417E-5	48044.188613	16.479243	0.439246	0	0
0	0	0	26.059822	6.047216	16.471739	6.047216	6.208172E+10	1.910438E-5	52344.00433	16.437925	0.436932	0	0
0	0	0	25.770985	6.047564	16.11392	6.047564	5.310749E+10	2.152884E-5	46449.319906	16.445341	0.434605	0	0
0	0	0	25.481291	6.047446	15.755782	6.047446	4.540944E+10	1.661364E-5	60191.496098	16.41686	0.432569	0	0
0	0	0	25.191106	6.0475	15.39676	6.0475	3.881692E+10	1.486855E-5	67256.074655	16.323035	0.430665	0	0
0	0	0	24.89696	6.047641	15.032697	6.047641	3.311051E+10	1.443577E-5	69272.364552	16.277774	0.428523	0	0
0	0	0	24.60069	6.047655	14.666212	6.047655	2.821057E+10	1.247318E-5	80172.018147	16.292305	0.426077	0	0
0	0	0	24.301644	6.047903	14.295906	6.047903	2.39997E+10	1.407084E-5	71068.978522	16.264666	0.424067	0	0
0	0	0	23.998146	6.047944	13.920433	6.047944	2.036829E+10	1.261845E-5	79249.031128	16.178446	0.422349	0	0
0	0	0	23.693996	6.047944	13.544218	6.047944	1.728024E+10	1.071479E-5	93328.927124	16.140516	0.420022	0	0
0	0	0	23.372938	6.048045	13.146922	6.048045	1.452699E+10	1.047597E-5	95456.579139	16.159255	0.417615	0	0
0	0	0	23.056618	6.048052	12.755642	6.048052	1.224373E+10	8.932774E-6	111947.304557	16.126595	0.415738	0	0
0	0	0	22.739481	6.048052	12.363363	6.048052	1.031477E+10	7.530305E-6	132796.743306	16.043378	0.413821	0	0
0	0	0	22.425325	6.047966	11.974921	6.047966	8.703734E+9	5.565784E-6	179669.195745	15.984249	0.411692	0	0
0	0	0	22.1068	6.048033	11.58081	6.048033	7.326991E+9	5.184149E-6	192895.673469	15.997233	0.409378	0	0
0	0	0	21.785334	6.048013	11.183213	6.048013	6.158221E+9	4.224488E-6	236715.087323	15.974403	0.407421	0	0
0	0	0	21.460234	6.048	10.781108	6.048	5.165729E+9	3.473365E-6	287905.279218	15.897587	0.405663	0	0
0	0	0	21.134522	6.048093	10.378057	6.048093	4.331757E+9	3.391847E-6	294824.611777	15.857195	0.403746	0	0
0	0	0	20.802602	6.048187	9.967325	6.048187	3.620256E+9	3.392824E-6	294739.710889	15.861473	0.4013	0	0
0	0	0	20.470151	6.048394	9.55573	6.048394	3.024753E+9	5.021762E-6	199133.280655	15.824963	0.399475	0	0
0	0	0	20.133045	6.04828	9.138953	6.04828	2.520853E+9	2.942265E-6	339874.243464	15.74212	0.397862	0	0
0	0	0	19.791039	6.048314	8.715848	6.048314	2.09534E+9	2.680637E-6	373045.629566	15.706979	0.395694	0	0
0	0	0	19.441641	6.048381	8.283539	6.048381	1.734708E+9	2.746262E-6	364131.271838	15.708648	0.393512	0	0
0	0	0	19.086567	6.048347	7.844392	6.048347	1.431744E+9	2.026773E-6	493395.057646	15.679619	0.391688	0	0
0	0	0	18.729369	6.048287	7.402669	6.048287	1.180337E+9	1.403288E-6	712611.906607	15.592914	0.389942	0	0
0	0	0	18.365066	6.048274	6.952071	6.048274	9.69345E+8	1.112938E-6	898522.427947	15.556823	0.38788	0	0
0	0	0	17.997577	6.048541	6.497001	6.048541	7.946996E+8	2.925684E-6	341800.365008	15.563365	0.385698	0	0
0	0	0	17.622248	6.048441	6.032927	6.048441	6.487641E+8	1.30727E-6	764952.848849	15.527328	0.383927	0	0
0	0	0	17.238466	6.048361	5.558362	6.048361	5.272129E+8	7.799183E-7	1282185.629382	15.433362	0.382155	0	0
0	0	0	16.844148	6.048554	5.070234	6.048554	4.260022E+8	1.764242E-6	566815.666713	15.407871	0.380053	0	0
0	0	0	16.444603	6.048494	4.576132	6.048494	3.432499E+8	9.122887E-7	1096144.194435	15.403787	0.378069	0	0
0	0	0	16.036196	6.048454	4.071031	6.048454	2.752508E+8	5.905386E-7	1693369.509252	15.341342	0.376351	0	0
0	0	0	15.625788	6.048548	3.56319	6.048548	2.204839E+8	8.601606E-7	1162573.562206	15.244759	0.374632	0	0
0	0	0	15.201088	6.048568	3.037814	6.048568	1.752547E+8	8.291876E-7	1205999.765107	15.231262	0.372609	0	0
0	0	0	14.769118	6.048668	2.503284	6.048668	1.387574E+8	-1.036418E-5	-96486.145345	15.231907	0.37056	0	0
0	0	0	14.327348	6.048454	1.957268	6.048454	1.092802E+8	2.345065E-7	4264274.365889	15.159526	0.369026	0	0
0	0	0	13.870591	6.048554	1.392075	6.048554	8.537058E+7	3.538497E-7	2826058.367407	15.089753	0.367162	0	0
0	0	0	13.407708	6.048621	0.819371	6.048621	6.647174E+7	7.269874E-7	1375539.632659	15.09521	0.365046	0	0
0	0	0	12.944785	6.048561	0.24688	6.048561	5.175546E+7	2.287454E-7	4371672.495742	15.072936	0.36342	0	0
0	0	0	12.471693	6.048514	-0.338216	6.048514	4.007635E+7	1.210326E-7	8262234.892633	14.971953	0.361833	0	0
0	0	0	11.992802	6.048628	-0.930824	6.048628	3.093561E+7	4.047667E-7	2470559.144778	14.916345	0.359969	0	0
0	0	0	11.510685	6.048548	-1.52701	6.048548	2.383812E+7	9.304455E-8	1.074754E+7	14.935462	0.358025	0	0
0	0	0	11.024076	6.048741	-2.129344	6.048741	1.832443E+7	-1.027924E-7	-9728348.100042	14.904234	0.356346	0	0
0	0	0	10.536569	6.048508	-2.73186	6.048508	1.407921E+7	4.068162E-8	2.458113E+7	14.796548	0.354865	0	0
0	0	0	10.044611	6.048728	-3.340877	6.048728	1.079148E+7	-7.276333E-8	-1.374319E+7	14.751666	0.352948	0	0
0	0	0	9.558737	6.048588	-3.941572	6.048588	8298736.5	4.990212E-8	2.003923E+7	14.772501	0.351058	0	0
0	0	0	9.082174	6.048668	-4.53124	6.048668	6414000.875	-4.758471E-7	-2101515.231788	14.709108	0.349643	0	0
0	0	0	8.620149	6.048748	-5.102929	6.048748	4996422	-2.585362E-8	-3.867931E+7	14.610377	0.348003	0	0
0	0	0	8.175357	6.048848	-5.653349	6.048848	3928574.625	-9.398922E-9	-1.063952E+8	14.598777	0.346205	0	0
0	0	0	7.74057	6.048708	-6.190844	6.048708	3105702	-3.004436E-8	-3.328411E+7	14.591389	0.34442	0	0
0	0	0	7.327426	6.048861	-6.702243	6.048861	2484081.25	-5.5455E-9	-1.803264E+8	14.501789	0.342979	0	0
0	0	0	6.936579	6.048901	-7.185801	6.048901	2010973.875	-3.739019E-9	-2.674498E+8	14.442988	0.3413	0	0
0	0	0	6.562883	6.048648	-7.647456	6.048648	1643136.75	5.222597E-8	1.914756E+7	14.436048	0.339356	0	0
0	0	0	6.19564	6.048754	-8.101974	6.048754	1347273.5	-6.469747E-9	-1.545655E+8	14.392608	0.337942	0	0
0	0	0	5.823537	6.048721	-8.562172	6.048721	1101785.25	-8.263304E-9	-1.21017E+8	14.308968	0.336434	0	0
0	0	0	5.452169	6.048741	-9.021588	6.048741	901385.75	-5.056031E-9	-1.977836E+8	14.27839	0.334636	0	0
0	0	0	5.080393	6.048868	-9.481767	6.048868	737273.375	-1.592631E-9	-6.278918E+8	14.277171	0.332825	0	0
0	0	0	4.702001	6.048694	-9.949406	6.048694	600887.625	-8.185473E-9	-1.221677E+8	14.188003	0.331516	0	0
0	0	0	4.348029	6.048781	-10.387466	6.048781	496239.25	-1.850475E-9	-5.404018E+8	14.11409	0.330048	0	0
0	0	0	3.995977	6.048788	-10.822959	6.048788	410241.625	-1.448849E-9	-6.902033E+8	14.129745	0.328052	0	0
0	0	0	3.662669	6.048888	-11.235495	6.048888	342601	-6.745806E-10	-1.482403E+9	14.094936	0.326637	0	0
0	0	0	3.341448	6.048774	-11.632555	6.048774	287988.75	-1.137454E-9	-8.791565E+8	13.977698	0.325461	0	0
0	0	0	3.02864	6.048554	-12.01894	6.048554	243185.375	1.008222E-9	9.918451E+8	13.92998	0.323742	0	0
0	0	0	2.726245	6.048754	-12.393489	6.048754	206511.375	-9.916859E-10	-1.008384E+9	13.95837	0.32193	0	0
0	0	0	2.436999	6.048728	-12.751209	6.048728	176619.125	-1.190824E-9	-8.397548E+8	13.897813	0.320701	0	0
0	0	0	2.162128	6.048648	-13.091012	6.048648	152232	4.838722E-9	2.066661E+8	13.806166	0.319431	0	0
0	0	0	1.899876	6.048734	-13.415628	6.048734	132110.375	-8.090127E-10	-1.236075E+9	13.80443	0.317475	0	0
0	0	0	1.652488	6.048674	-13.721485	6.048674	115573.25	-4.060215E-9	-2.462924E+8	13.779655	0.31606	0	0
0	0	0	1.425926	6.048654	-14.001682	6.048654	102251	6.204674E-9	1.611688E+8	13.679466	0.314751	0	0
0	0	0	1.217374	6.048748	-14.259891	6.048748	91349.375	-4.726729E-10	-2.115628E+9	13.62956	0.31327	0	0
0	0	0	1.039	6.048761	-14.480568	6.048761	82952.25	-3.716094E-10	-2.690998E+9	13.635157	0.311538	0	0
0	0	0	0.88035	6.048688	-14.676624	6.048688	76134.625	-1.303054E-9	-7.674278E+8	13.547247	0.310375	0	0
0	0	0	0.746446	6.048594	-14.842016	6.048594	70818.375	4.680253E-10	2.136637E+9	13.447421	0.309052	0	0
0	0	0	0.632186	6.048674	-14.983559	6.048674	66576.375	-2.338899E-9	-4.275516E+8	13.479218	0.307188	0	0
0	0	0	0.531809	6.048741	-15.107893	6.048741	63060.125	-3.537143E-10	-2.82714E+9	13.447372	0.305919	0	0
0	0	0	0.44985	6.048808	-15.209445	6.048808	60327.25	-1.838714E-10	-5.438584E+9	13.312121	0.304663	0	0
0	0	0	0.381163	6.048781	-15.29434	6.048781	58128.25	-2.167599E-10	-4.613399E+9	13.296838	0.30297	0	0
0	0	0	0.324319	6.048701	-15.364447	6.048701	56369.25	-6.377273E-10	-1.568068E+9	13.288825	0.301424	0	0
0	0	0	0.269393	6.048628	-15.432197	6.048628	54720.125	7.161791E-10	1.396299E+9	13.186887	0.300392	0	0
0	0	0	0.245626	6.048648	-15.461648	6.048648	54021.625	1.71709E-9	5.823806E+8	13.125439	0.298859	0	0
0	0	0	0.202258	6.048947	-15.516072	6.048947	52769.875	-8.210575E-11	-1.217942E+10	13.138244	0.297166	0	0
0	0	0	0.18139	6.048774	-15.541434	6.048774	52178	-2.060846E-10	-4.852377E+9	13.052065	0.296082	0	0
0	0	0	0.170242	6.048681	-15.554982	6.048681	51864.375	-1.193757E-9	-8.376914E+8	12.954487	0.2948	0	0
0	0	0	0.14231	6.048841	-15.589949	6.048841	51087.125	-1.267663E-10	-7.888529E+9	12.964606	0.292962	0	0
0	0	0	0.119156	6.048668	-15.618139	6.048668	50451.75	-3.741782E-9	-2.672523E+8	12.919153	0.291759	0	0
0	0	0	0.110498	6.048794	-15.629178	6.048794	50216.125	-1.68436E-10	-5.936973E+9	12.789967	0.290701	0	0
0	0	0	0.106129	6.048808	-15.634617	6.048808	50097.625	-1.526925E-10	-6.549109E+9	12.778216	0.289035	0	0
0	0	0	0.101718	6.048821	-15.640107	6.048821	49978.375	-1.395819E-10	-7.164254E+9	12.77008	0.287607	0	0
0	0	0	0.093592	6.048714	-15.649882	6.048714	49759.375	-4.204289E-10	-2.378523E+9	12.664074	0.286695	0	0
0	0	0	0.083301	6.048681	-15.662525	6.048681	49483.25	-1.138951E-9	-8.78001E+8	12.624577	0.285174	0	0
0	0	0	0.071499	6.048914	-15.67773	6.048914	49168.625	-8.659516E-11	-1.154799E+10	12.621476	0.283773	0	0
0	0	0	0.06227	6.048821	-15.688903	6.048821	48923.875	-1.366368E-10	-7.318672E+9	12.524185	0.282596	0	0
0	0	0	0.054021	6.048708	-15.698812	6.048708	48706.25	-4.71173E-10	-2.122363E+9	12.460522	0.281115	0	0
0	0	0	0.046956	6.048728	-15.707603	6.048728	48520.5	-3.271409E-10	-3.056787E+9	12.47103	0.2797	0	0
0	0	0	0.042709	6.048947	-15.713429	6.048947	48409.25	-7.532096E-11	-1.327652E+10	12.397261	0.278762	0	0
0	0	0	0.040137	6.048808	-15.716247	6.048808	48342	-1.473416E-10	-6.786951E+9	12.304229	0.277479	0	0
0	0	0	0.039442	6.048861	-15.717245	6.048861	48323.875	-1.078786E-10	-9.269678E+9	12.290695	0.275826	0	0
0	0	0	0.036829	6.048854	-15.72046	6.048854	48255.625	-1.114538E-10	-8.972328E+9	12.22931	0.274703	0	0
0	0	0	0.036584	6.048641	-15.720208	6.048641	48249.25	1.0389E-9	9.625568E+8	12.125539	0.273552	0	0
0	0	0	0.036257	6.048701	-15.720768	6.048701	48240.75	-5.457664E-10	-1.832286E+9	12.134159	0.272045	0	0
0	0	0	0.035686	6.048888	-15.721961	6.048888	48225.875	-9.495661E-11	-1.053113E+10	12.098532	0.271027	0	0
0	0	0	0.035318	6.048661	-15.721826	6.048661	48216.25	3.218386E-8	3.107147E+7	11.966895	0.270009	0	0
0	0	0	0.034542	6.048814	-15.723185	6.048814	48196	-1.404819E-10	-7.118356E+9	11.977659	0.268277	0	0
0	0	0	0.03393	6.048907	-15.724185	6.048907	48180.125	-8.71538E-11	-1.147397E+10	11.935176	0.267206	0	0
0	0	0	0.033031	6.048701	-15.724759	6.048701	48156.625	-5.448147E-10	-1.835487E+9	11.825858	0.266188	0	0
0	0	0	0.031643	6.048927	-15.727066	6.048927	48120.5	-8.050114E-11	-1.242218E+10	11.82585	0.264681	0	0
0	0	0	0.030499	6.048848	-15.728272	6.048848	48090.75	-1.150541E-10	-8.691563E+9	11.79428	0.263557	0	0
0	0	0	0.028702	6.048927	-15.730703	6.048927	48044.125	-8.037337E-11	-1.244193E+10	11.654596	0.262512	0	0
0	0	0	0.028172	6.048674	-15.7307	6.048674	48030.375	-1.687358E-9	-5.926426E+8	11.637756	0.261058	0	0
0	0	0	0.024374	6.048714	-15.735502	6.048714	47931.875	-4.049879E-10	-2.469209E+9	11.616688	0.259894	0	0
0	0	0	0.021801	6.048734	-15.738736	6.048734	47865.25	-2.931154E-10	-3.411626E+9	11.506083	0.259009	0	0
0	0	0	0.01833	6.048861	-15.74336	6.048861	47775.5	-1.066544E-10	-9.376077E+9	11.482493	0.257501	0	0
0	0	0	0.014818	6.048708	-15.747305	6.048708	47684.875	-4.612924E-10	-2.167822E+9	11.487968	0.256298	0	0
0	0	0	0.012409	6.048901	-15.750789	6.048901	47622.75	-8.854515E-11	-1.129367E+10	11.330468	0.255465	0	0
0	0	0	0.007018	6.048761	-15.757092	6.048761	47484.25	-2.127199E-10	-4.701018E+9	11.289311	0.254024	0	0
0	0	0	0.002975	6.048721	-15.761988	6.048721	47380.625	-3.553494E-10	-2.814132E+9	11.276372	0.2529	0	0
0	0	0	0.000484	6.048821	-15.76533	6.048821	47316.875	-1.321487E-10	-7.567232E+9	11.151884	0.251975	0	0
0	0	0	-0.003722	6.048721	-15.770273	6.048721	47209.375	-3.54065E-10	-2.82434E+9	11.138475	0.250467	0	0
0	0	0	-0.00658	6.048768	-15.77393	6.048768	47136.375	-1.978809E-10	-5.053545E+9	11.104118	0.249396	0	0
0	0	0	-0.008091	6.048788	-15.775851	6.048788	47098	-1.663357E-10	-6.011939E+9	10.954667	0.248682	0	0
0	0	0	-0.01144	6.048901	-15.780289	6.048901	47012.75	-8.741098E-11	-1.144021E+10	10.957016	0.247096	0	0
0	0	0	-0.013441	6.048794	-15.782486	6.048794	46962	-1.575209E-10	-6.348363E+9	10.923889	0.246104	0	0
0	0	0	-0.016749	6.048761	-15.786491	6.048761	46878	-2.10004E-10	-4.761814E+9	10.810825	0.245205	0	0
0	0	0	-0.02071	6.048888	-15.791721	6.048888	46777.75	-9.210525E-11	-1.085714E+10	10.845616	0.243738	0	0
0	0	0	-0.022752	6.048821	-15.794072	6.048821	46726.25	-1.304992E-10	-7.662883E+9	10.787232	0.242852	0	0
0	0	0	-0.024344	6.048774	-15.795921	6.048774	46686	-1.843931E-10	-5.423196E+9	10.64943	0.241873	0	0
0	0	0	-0.025651	6.048694	-15.797329	6.048694	46653	-6.355186E-10	-1.573518E+9	10.671484	0.240419	0	0
0	0	0	-0.025365	6.048888	-15.797479	6.048888	46660.25	-9.18739E-11	-1.088448E+10	10.567244	0.239718	0	0
0	0	0	-0.024916	6.048754	-15.796576	6.048754	46671.5	-2.241206E-10	-4.461884E+9	10.487714	0.238489	0	0
0	0	0	-0.024957	6.048714	-15.796522	6.048714	46670.5	-3.943303E-10	-2.535945E+9	10.501007	0.237272	0	0
0	0	0	-0.024548	6.048808	-15.79626	6.048808	46680.75	-1.422782E-10	-7.028482E+9	10.398601	0.236585	0	0
0	0	0	-0.023405	6.048888	-15.795054	6.048888	46709.625	-9.197112E-11	-1.087298E+10	10.339701	0.235196	0	0
0	0	0	-0.021445	6.048788	-15.792369	6.048788	46759.25	-1.651393E-10	-6.055493E+9	10.340143	0.233967	0	0
0	0	0	-0.019771	6.048634	-15.789898	6.048634	46801.5	7.619399E-10	1.31244E+9	10.204946	0.233438	0	0
0	0	0	-0.01924	6.048821	-15.789728	6.048821	46815	-1.307471E-10	-7.648356E+9	10.181945	0.23201	0	0
0	0	0	-0.01875	6.048894	-15.789313	6.048894	46827.375	-8.956105E-11	-1.116557E+10	10.130488	0.231018	0	0
0	0	0	-0.017606	6.048721	-15.787447	6.048721	46856.375	-3.514176E-10	-2.845618E+9	10.01676	0.230106	0	0
0	0	0	-0.01732	6.048601	-15.786781	6.048601	46863.625	3.437473E-10	2.909114E+9	10.035118	0.228943	0	0
0	0	0	-0.016136	6.048761	-15.785733	6.048761	46893.625	-2.10074E-10	-4.760227E+9	9.94661	0.228123	0	0
0	0	0	-0.016708	6.048821	-15.786596	6.048821	46879.125	-1.309261E-10	-7.637894E+9	9.850467	0.226999	0	0
0	0	0	-0.015034	6.048774	-15.784404	6.048774	46921.5	-1.853233E-10	-5.395976E+9	9.853481	0.225664	0	0
0	0	0	-0.016095	6.048881	-15.785995	6.048881	46894.625	-9.514193E-11	-1.051061E+10	9.705802	0.225095	0	0
0	0	0	-0.013849	6.048694	-15.78273	6.048694	46951.625	-6.395865E-10	-1.56351E+9	9.692424	0.223641	0	0
0	0	0	-0.013359	6.048774	-15.782333	6.048774	46964	-1.854911E-10	-5.391093E+9	9.6482	0.222821	0	0
0	0	0	-0.012093	6.048927	-15.781166	6.048927	46996.25	-7.862037E-11	-1.271935E+10	9.532144	0.222001	0	0
0	0	0	-0.010909	6.048841	-15.779476	6.048841	47026.25	-1.166898E-10	-8.56973E+9	9.550543	0.220653	0	0
0	0	0	-0.009112	6.048721	-15.77694	6.048721	47072	-3.530347E-10	-2.832583E+9	9.457079	0.219912	0	0
0	0	0	-0.006621	6.048808	-15.774085	6.048808	47135.375	-1.436639E-10	-6.960691E+9	9.390275	0.218775	0	0
0	0	0	-0.003926	6.048694	-15.770456	6.048694	47204.125	-6.430262E-10	-1.555147E+9	9.360139	0.217691	0	0
0	0	0	-0.005927	6.048834	-15.773296	6.048834	47153.125	-1.215222E-10	-8.228952E+9	9.210174	0.217017	0	0
0	0	0	-0.005274	6.048694	-15.772123	6.048694	47169.75	-6.425579E-10	-1.55628E+9	9.209436	0.215536	0	0
0	0	0	-0.005519	6.048628	-15.772252	6.048628	47163.5	6.172777E-10	1.620016E+9	9.12102	0.214875	0	0
0	0	0	-0.009153	6.048774	-15.77713	6.048774	47070.875	-1.859132E-10	-5.378853E+9	9.029602	0.213962	0	0
0	0	0	-0.011195	6.048814	-15.77976	6.048814	47019	-1.370511E-10	-7.296546E+9	9.060734	0.212746	0	0
0	0	0	-0.015115	6.048907	-15.784852	6.048907	46919.5	-8.487344E-11	-1.178225E+10	8.933835	0.212045	0	0
0	0	0	-0.018178	6.048708	-15.78812	6.048708	46841.875	-4.531374E-10	-2.206836E+9	8.93787	0.210776	0	0
0	0	0	-0.018627	6.048801	-15.788918	6.048801	46830.5	-1.495641E-10	-6.686098E+9	8.858127	0.210022	0	0
0	0	0	-0.020546	6.048841	-15.791397	6.048841	46781.875	-1.160834E-10	-8.614496E+9	8.744408	0.209004	0	0
0	0	0	-0.024181	6.048947	-15.796171	6.048947	46690.125	-7.264614E-11	-1.376536E+10	8.741904	0.20788	0	0
0	0	0	-0.024508	6.048734	-15.796019	6.048734	46681.875	-2.858687E-10	-3.49811E+9	8.603594	0.207193	0	0
0	0	0	-0.026427	6.048754	-15.798445	6.048754	46633.5	-2.239381E-10	-4.46552E+9	8.609222	0.205884	0	0
0	0	0	-0.028918	6.048834	-15.801735	6.048834	46570.625	-1.20021E-10	-8.331878E+9	8.4924	0.205355	0	0
0	0	0	-0.029367	6.048708	-15.80196	6.048708	46559.375	-4.504046E-10	-2.220226E+9	8.430863	0.204245	0	0
0	0	0	-0.029612	6.048848	-15.802628	6.048848	46553.25	-1.113757E-10	-8.978617E+9	8.427666	0.203425	0	0
0	0	0	-0.030429	6.048861	-15.803673	6.048861	46532.625	-1.038798E-10	-9.62651E+9	8.304878	0.202539	0	0
0	0	0	-0.031001	6.048668	-15.803876	6.048668	46518.25	-3.450052E-9	-2.898507E+8	8.316149	0.201455	0	0
0	0	0	-0.033287	6.048754	-15.806931	6.048754	46460.875	-2.231091E-10	-4.482111E+9	8.197914	0.200728	0	0
0	0	0	-0.033737	6.048828	-15.807678	6.048828	46449.5	-1.245164E-10	-8.031072E+9	8.186908	0.199577	0	0
0	0	0	-0.033451	6.048708	-15.807012	6.048708	46456.75	-4.494118E-10	-2.225131E+9	8.117429	0.198824	0	0
0	0	0	-0.035942	6.048801	-15.810336	6.048801	46394.25	-1.481708E-10	-6.748968E+9	8.016808	0.197977	0	0
0	0	0	-0.036146	6.048654	-15.810206	6.048654	46389.125	2.814934E-9	3.552481E+8	7.996434	0.196999	0	0
0	0	0	-0.035819	6.048668	-15.809837	6.048668	46397.25	-3.441078E-9	-2.906066E+8	7.864766	0.196391	0	0
0	0	0	-0.03586	6.048688	-15.80994	6.048688	46396.25	-7.940778E-10	-1.259322E+9	7.878845	0.195214	0	0
0	0	0	-0.036636	6.048774	-15.811125	6.048774	46376.75	-1.831717E-10	-5.459359E+9	7.742243	0.194685	0	0
0	0	0	-0.036432	6.048814	-15.810977	6.048814	46381.875	-1.351941E-10	-7.396775E+9	7.720872	0.193548	0	0
0	0	0	-0.036473	6.048714	-15.810767	6.048714	46380.875	-3.918832E-10	-2.551781E+9	7.614946	0.192834	0	0
0	0	0	-0.03537	6.048761	-15.809525	6.048761	46408.5	-2.079007E-10	-4.809988E+9	7.577367	0.191882	0	0
0	0	0	-0.035166	6.048701	-15.809116	6.048701	46413.625	-5.250954E-10	-1.904416E+9	7.506668	0.191261	0	0
0	0	0	-0.034186	6.048788	-15.808129	6.048788	46438.25	-1.640057E-10	-6.097351E+9	7.435495	0.190362	0	0
0	0	0	-0.033696	6.048721	-15.807349	6.048721	46450.625	-3.483745E-10	-2.870474E+9	7.409185	0.189489	0	0
0	0	0	-0.033451	6.048688	-15.806959	6.048688	46456.75	-7.951132E-10	-1.257682E+9	7.30611	0.188762	0	0
0	0	0	-0.033287	6.048821	-15.807105	6.048821	46460.875	-1.29758E-10	-7.706652E+9	7.318855	0.187651	0	0
0	0	0	-0.032226	6.048874	-15.805931	6.048874	46487.5	-9.727255E-11	-1.028039E+10	7.17406	0.187136	0	0
0	0	0	-0.031695	6.048734	-15.804909	6.048734	46500.875	-2.847603E-10	-3.511726E+9	7.192209	0.186118	0	0
0	0	0	-0.031164	6.048934	-15.804774	6.048934	46514.125	-7.591128E-11	-1.317327E+10	7.066848	0.185549	0	0
0	0	0	-0.029898	6.048681	-15.802547	6.048681	46546	-1.071344E-9	-9.334066E+8	7.068229	0.184491	0	0
0	0	0	-0.029245	6.048774	-15.801982	6.048774	46562.5	-1.839053E-10	-5.43758E+9	6.943906	0.184108	0	0
0	0	0	-0.029081	6.048901	-15.802111	6.048901	46566.625	-8.65815E-11	-1.154981E+10	6.915776	0.182931	0	0
0	0	0	-0.028959	6.048648	-15.801299	6.048648	46569.625	1.480227E-9	6.755722E+8	6.81647	0.182416	0	0
0	0	0	-0.029081	6.048741	-15.801693	6.048741	46566.625	-2.611996E-10	-3.828489E+9	6.769216	0.181464	0	0
0	0	0	-0.027775	6.048721	-15.800025	6.048721	46599.5	-3.49491E-10	-2.861304E+9	6.695545	0.180816	0	0
0	0	0	-0.025651	6.048668	-15.797259	6.048668	46653	-3.460046E-9	-2.890135E+8	6.645027	0.179904	0	0
0	0	0	-0.023487	6.048608	-15.794426	6.048608	46707.625	3.848997E-10	2.59808E+9	6.556327	0.179361	0	0
0	0	0	-0.022752	6.048754	-15.793899	6.048754	46726.25	-2.243835E-10	-4.456656E+9	6.498449	0.178304	0	0
0	0	0	-0.023528	6.048788	-15.794945	6.048788	46706.625	-1.649535E-10	-6.062316E+9	6.41991	0.177907	0	0
0	0	0	-0.022956	6.048828	-15.794342	6.048828	46721	-1.252442E-10	-7.984403E+9	6.385835	0.176863	0	0
0	0	0	-0.022017	6.048947	-15.793493	6.048947	46744.75	-7.273113E-11	-1.374927E+10	6.303875	0.17636	0	0
0	0	0	-0.024058	6.048841	-15.795741	6.048841	46693.25	-1.158635E-10	-8.630847E+9	6.241125	0.175355	0	0
0	0	0	-0.026264	6.048868	-15.798538	6.048868	46637.5	-1.007445E-10	-9.926095E+9	6.159062	0.174826	0	0
0	0	0	-0.026264	6.048788	-15.79833	6.048788	46637.5	-1.647093E-10	-6.071301E+9	6.11776	0.173941	0	0
0	0	0	-0.02753	6.048608	-15.799426	6.048608	46605.625	3.840591E-10	2.603766E+9	6.026973	0.173465	0	0
0	0	0	-0.02851	6.048701	-15.800882	6.048701	46581	-5.26989E-10	-1.897573E+9	5.988694	0.172433	0	0
0	0	0	-0.029653	6.048941	-15.802922	6.048941	46552.125	-7.416009E-11	-1.348434E+10	5.899838	0.171918	0	0
0	0	0	-0.031246	6.048781	-15.804475	6.048781	46512.125	-1.734435E-10	-5.765568E+9	5.871097	0.170952	0	0
0	0	0	-0.032797	6.048761	-15.806342	6.048761	46473.125	-2.081902E-10	-4.803299E+9	5.76449	0.17045	0	0
0	0	0	-0.033982	6.048614	-15.807425	6.048614	46443.375	4.366266E-10	2.290286E+9	5.751925	0.169525	0	0
0	0	0	-0.033778	6.048781	-15.807607	6.048781	46448.5	-1.732062E-10	-5.773465E+9	5.630004	0.169062	0	0
0	0	0	-0.034717	6.048668	-15.808473	6.048668	46425	-3.443136E-9	-2.904329E+8	5.62201	0.168136	0	0
0	0	0	-0.035003	6.048774	-15.809105	6.048774	46417.75	-1.833336E-10	-5.454536E+9	5.52418	0.167488	0	0
0	0	0	-0.035207	6.048728	-15.809236	6.048728	46412.625	-3.129289E-10	-3.195614E+9	5.491626	0.166801	0	0
0	0	0	-0.035942	6.048754	-15.810214	6.048754	46394.25	-2.227892E-10	-4.488548E+9	5.387107	0.166087	0	0
0	0	0	-0.036514	6.048814	-15.811078	6.048814	46379.875	-1.351882E-10	-7.397094E+9	5.303309	0.165479	0	0
0	0	0	-0.036636	6.048654	-15.810813	6.048654	46376.75	2.814183E-9	3.553429E+8	5.243846	0.164447	0	0
0	0	0	-0.036963	6.048794	-15.811582	6.048794	46368.625	-1.555306E-10	-6.429602E+9	5.139122	0.164077	0	0
0	0	0	-0.036595	6.048701	-15.810884	6.048701	46377.75	-5.246896E-10	-1.905889E+9	5.100424	0.163152	0	0
0	0	0	-0.037249	6.048828	-15.812022	6.048828	46361.375	-1.242801E-10	-8.046338E+9	4.993413	0.162676	0	0
0	0	0	-0.038433	6.048788	-15.813383	6.048788	46331.75	-1.636295E-10	-6.111366E+9	4.961982	0.161869	0	0
0	0	0	-0.038637	6.048861	-15.813826	6.048861	46326.625	-1.034199E-10	-9.669316E+9	4.864634	0.161116	0	0
0	0	0	-0.038433	6.048841	-15.813522	6.048841	46331.75	-1.149665E-10	-8.698188E+9	4.790968	0.160732	0	0
0	0	0	-0.038515	6.048788	-15.813484	6.048788	46329.75	-1.636225E-10	-6.11163E+9	4.767984	0.159767	0	0
0	0	0	-0.039045	6.048741	-15.814019	6.048741	46316.5	-2.597966E-10	-3.849164E+9	4.669594	0.159225	0	0
0	0	0	-0.037575	6.048608	-15.811853	6.048608	46353.25	3.819794E-10	2.617942E+9	4.636141	0.158643	0	0
0	0	0	-0.037902	6.048714	-15.812535	6.048714	46345.125	-3.915811E-10	-2.553749E+9	4.544331	0.157916	0	0
0	0	0	-0.037371	6.048701	-15.811843	6.048701	46358.375	-5.244704E-10	-1.906685E+9	4.480748	0.157202	0	0
0	0	0	-0.037208	6.048828	-15.811972	6.048828	46362.5	-1.242832E-10	-8.046143E+9	4.425653	0.156435	0	0
0	0	0	-0.037208	6.048748	-15.811763	6.048748	46362.5	-2.398954E-10	-4.168484E+9	4.31206	0.155986	0	0
0	0	0	-0.036718	6.048688	-15.811	6.048688	46374.75	-7.937098E-10	-1.259906E+9	4.266984	0.155285	0	0
0	0	0	-0.036473	6.048741	-15.810836	6.048741	46380.875	-2.601577E-10	-3.843822E+9	4.170382	0.154544	0	0
0	0	0	-0.035819	6.048814	-15.810219	6.048814	46397.25	-1.352389E-10	-7.394324E+9	4.110502	0.154055	0	0
0	0	0	-0.035493	6.048634	-15.809346	6.048634	46405.5	7.554929E-10	1.323639E+9	4.034499	0.153394	0	0
0	0	0	-0.03537	6.048754	-15.809507	6.048754	46408.5	-2.228576E-10	-4.48717E+9	3.975952	0.152707	0	0
0	0	0	-0.034431	6.048734	-15.808293	6.048734	46432.125	-2.843393E-10	-3.516925E+9	3.873123	0.152112	0	0
0	0	0	-0.035288	6.048754	-15.809406	6.048754	46410.625	-2.228678E-10	-4.486964E+9	3.826814	0.151464	0	0
0	0	0	-0.034227	6.048874	-15.808406	6.048874	46437.25	-9.71674E-11	-1.029152E+10	3.715396	0.150776	0	0
0	0	0	-0.034431	6.048927	-15.808797	6.048927	46432.125	-7.767664E-11	-1.287388E+10	3.644408	0.150261	0	0
0	0	0	-0.033818	6.048674	-15.807379	6.048674	46447.5	-1.63175E-9	-6.128391E+8	3.587981	0.14956	0	0
0	0	0	-0.033614	6.048888	-15.807683	6.048888	46452.625	-9.146508E-11	-1.093313E+10	3.507649	0.148965	0	0
0	0	0	-0.03243	6.048788	-15.805957	6.048788	46482.375	-1.641615E-10	-6.091563E+9	3.412541	0.148172	0	0
0	0	0	-0.030796	6.048828	-15.804041	6.048828	46523.375	-1.247144E-10	-8.01832E+9	3.353004	0.147629	0	0
0	0	0	-0.029939	6.048754	-15.802789	6.048754	46545	-2.235131E-10	-4.47401E+9	3.270766	0.147074	0	0
0	0	0	-0.030021	6.048961	-15.803429	6.048961	46543	-6.919151E-11	-1.445264E+10	3.21173	0.1464	0	0
0	0	0	-0.029735	6.048741	-15.802502	6.048741	46550.125	-2.611071E-10	-3.829846E+9	3.162601	0.145845	0	0
0	0	0	-0.029612	6.048721	-15.802298	6.048721	46553.25	-3.491442E-10	-2.864147E+9	3.11619	0.14521	0	0
0	0	0	-0.029857	6.048634	-15.802375	6.048634	46547	7.577965E-10	1.319615E+9	3.066234	0.144641	0	0
0	0	0	-0.030184	6.048927	-15.803544	6.048927	46538.875	-7.785522E-11	-1.284435E+10	3.049567	0.144271	0	0
0	0	0	-0.030347	6.048728	-15.803225	6.048728	46534.75	-3.137523E-10	-3.187227E+9	2.990228	0.143359	0	0
0	0	0	-0.03243	6.048761	-15.805888	6.048761	46482.375	-2.082317E-10	-4.802343E+9	2.963702	0.142724	0	0
0	0	0	-0.033859	6.048628	-15.807308	6.048628	46446.5	6.078936E-10	1.645025E+9	2.941184	0.142367	0	0
0	0	0	-0.03439	6.048854	-15.808556	6.048854	46433.125	-1.072445E-10	-9.324491E+9	2.923925	0.141574	0	0
0	0	0	-0.034186	6.048681	-15.807851	6.048681	46438.25	-1.068864E-9	-9.355724E+8	2.885744	0.140926	0	0
0	0	0	-0.03488	6.048741	-15.808866	6.048741	46420.875	-2.603821E-10	-3.84051E+9	2.890832	0.140516	0	0
0	0	0	-0.035656	6.048788	-15.809948	6.048788	46401.375	-1.638754E-10	-6.102196E+9	2.853246	0.139987	0	0
0	0	0	-0.035983	6.048788	-15.810352	6.048788	46393.125	-1.638463E-10	-6.103282E+9	2.822356	0.139128	0	0
0	0	0	-0.037004	6.048774	-15.81158	6.048774	46367.625	-1.831357E-10	-5.460433E+9	2.786174	0.138758	0	0
0	0	0	-0.037208	6.048694	-15.811624	6.048694	46362.5	-6.315613E-10	-1.583377E+9	2.760305	0.138242	0	0
0	0	0	-0.037657	6.048828	-15.812527	6.048828	46351.25	-1.24253E-10	-8.048096E+9	2.744758	0.137568	0	0
0	0	0	-0.037575	6.048688	-15.812061	6.048688	46353.25	-7.933418E-10	-1.260491E+9	2.718591	0.136946	0	0
0	0	0	-0.037616	6.048748	-15.812268	6.048748	46352.25	-2.398424E-10	-4.169405E+9	2.709307	0.136576	0	0
0	0	0	-0.037861	6.048654	-15.812328	6.048654	46346.125	2.812325E-9	3.555777E+8	2.669603	0.135968	0	0
0	0	0	-0.03782	6.048868	-15.812834	6.048868	46347.125	-1.001173E-10	-9.988285E+9	2.652242	0.135161	0	0
0	0	0	-0.038065	6.048748	-15.812824	6.048748	46341	-2.397841E-10	-4.170418E+9	2.619256	0.134844	0	0
0	0	0	-0.038719	6.048561	-15.813145	6.048561	46324.625	2.047763E-10	4.883377E+9	2.599285	0.134236	0	0
0	0	0	-0.039127	6.048894	-15.81452	6.048894	46314.375	-8.857989E-11	-1.128924E+10	2.568283	0.133601	0	0
0	0	0	-0.039658	6.048708	-15.81469	6.048708	46301.125	-4.479064E-10	-2.23261E+9	2.56407	0.13294	0	0
0	0	0	-0.039045	6.048794	-15.814158	6.048794	46316.5	-1.553558E-10	-6.436838E+9	2.549254	0.132544	0	0
0	0	0	-0.039127	6.048601	-15.813755	6.048601	46314.375	3.397185E-10	2.943614E+9	2.532878	0.132094	0	0
0	0	0	-0.039454	6.048721	-15.814472	6.048721	46306.25	-3.472917E-10	-2.879424E+9	2.510341	0.131288	0	0
0	0	0	-0.039495	6.048801	-15.814731	6.048801	46305.25	-1.478866E-10	-6.761939E+9	2.448862	0.130798	0	0
0	0	0	-0.038882	6.048668	-15.813626	6.048668	46320.5	-3.435386E-9	-2.910881E+8	2.421516	0.130217	0	0
0	0	0	-0.038882	6.048754	-15.813851	6.048754	46320.5	-2.22435E-10	-4.495694E+9	2.392213	0.129503	0	0
0	0	0	-0.038351	6.048761	-15.813212	6.048761	46333.875	-2.075664E-10	-4.817735E+9	2.368698	0.128987	0	0
0	0	0	-0.038474	6.048728	-15.813277	6.048728	46330.75	-3.123769E-10	-3.201261E+9	2.353936	0.12863	0	0
0	0	0	-0.038147	6.048708	-15.812821	6.048708	46338.875	-4.482715E-10	-2.230791E+9	2.343413	0.128128	0	0
0	0	0	-0.037453	6.048848	-15.812327	6.048848	46356.375	-1.109047E-10	-9.016749E+9	2.321897	0.127374	0	0
0	0	0	-0.037453	6.048808	-15.812223	6.048808	46356.375	-1.412896E-10	-7.077663E+9	2.295858	0.126858	0	0
0	0	0	-0.037004	6.048841	-15.811754	6.048841	46367.625	-1.150555E-10	-8.691458E+9	2.250016	0.126541	0	0
0	0	0	-0.036595	6.048781	-15.811092	6.048781	46377.75	-1.729424E-10	-5.782273E+9	2.222351	0.125972	0	0
0	0	0	-0.037044	6.048921	-15.812013	6.048921	46366.5	-7.956086E-11	-1.256899E+10	2.186591	0.125285	0	0
0	0	0	-0.03684	6.048741	-15.811291	6.048741	46371.75	-2.601066E-10	-3.844578E+9	2.165577	0.124862	0	0
0	0	0	-0.036228	6.048561	-15.810064	6.048561	46387	2.05052E-10	4.876811E+9	2.13618	0.124571	0	0
0	0	0	-0.035819	6.048921	-15.810497	6.048921	46397.25	-7.961363E-11	-1.256066E+10	2.135617	0.124002	0	0
0	0	0	-0.035656	6.048914	-15.810278	6.048914	46401.375	-8.172152E-11	-1.223668E+10	2.119439	0.123288	0	0
0	0	0	-0.03586	6.048868	-15.810409	6.048868	46396.25	-1.002234E-10	-9.977709E+9	0	0	0	0
0	0	0	-0.035003	6.048794	-15.809157	6.048794	46417.75	-1.556954E-10	-6.422797E+9	0	0	0	0
0	0	0	-0.035329	6.048808	-15.809596	6.048808	46409.5	-1.414515E-10	-7.069561E+9	0	0	0	0
0	0	0	-0.033083	6.048754	-15.806679	6.048754	46466	-2.231337E-10	-4.481617E+9	0	0	0	0
0	0	0	-0.033614	6.048801	-15.807457	6.048801	46452.625	-1.483572E-10	-6.740487E+9	0	0	0	0
0	0	0	-0.033124	6.048734	-15.806677	6.048734	46464.875	-2.845398E-10	-3.514447E+9	0	0	0	0
0	0	0	-0.032634	6.048721	-15.806036	6.048721	46477.25	-3.485742E-10	-2.86883E+9	0	0	0	0
0	0	0	-0.032675	6.048734	-15.806121	6.048734	46476.125	-2.846087E-10	-3.513596E+9	0	0	0	0
0	0	0	-0.03341	6.048854	-15.807343	6.048854	46457.75	-1.073013E-10	-9.319549E+9	0	0	0	0
0	0	0	-0.033083	6.048714	-15.806574	6.048714	46466	-3.926024E-10	-2.547106E+9	0	0	0	0
0	0	0	-0.034472	6.048768	-15.808431	6.048768	46431.125	-1.949202E-10	-5.130305E+9	0	0	0	0
0	0	0	-0.034635	6.048734	-15.808546	6.048734	46427	-2.843079E-10	-3.517314E+9	0	0	0	0
0	0	0	-0.035656	6.048834	-15.810069	6.048834	46401.375	-1.195848E-10	-8.362269E+9	0	0	0	0
0	0	0	-0.036064	6.048907	-15.810766	6.048907	46391.125	-8.391765E-11	-1.191644E+10	0	0	0	0
0	0	0	-0.036432	6.048874	-15.811133	6.048874	46381.875	-9.705153E-11	-1.03038E+10	0	0	0	0
0	0	0	-0.036595	6.048728	-15.810953	6.048728	46377.75	-3.126938E-10	-3.198017E+9	0	0	0	0
0	0	0	-0.03684	6.048694	-15.811169	6.048694	46371.75	-6.316873E-10	-1.583062E+9	0	0	0	0
0	0	0	-0.037412	6.048794	-15.812137	6.048794	46357.375	-1.554929E-10	-6.431162E+9	0	0	0	0
0	0	0	-0.038229	6.048688	-15.812869	6.048688	46336.875	-7.930616E-10	-1.260936E+9	0	0	0	0
0	0	0	-0.038637	6.048714	-15.813444	6.048714	46326.625	-3.914248E-10	-2.554769E+9	0	0	0	0
0	0	0	-0.037943	0	-0.037943	0	46344	0	0	0	0	0	0
0	0	0	-0.039045	0	-0.039045	0	46316.5	0	0	0	0	0	0
