Vload_(V)	ILoad_(A)	RsLoad (ohm)	SunsVoc_Voltage_(V)	SunsVoc_Current_(A)	Model_Voltage_(V)	Model_Current_(A)	Carrier_Density_(cm-3)	Lifetime_(s)	Inverse_Lifetime_(s-1)	Efficiency_(%)	Intensity_(suns)	Dark_IV_Voltage_(V)	Dark_IV_Current_(A)
3.196953	6.026446	0	51.990629	-0.750049	52.415286	-0.750049	1.014489E+16	0.000666	1330.739778	19.017782	1.189029	0	0
3.201929	6.031271	-0.54319	52.432807	-0.96152	52.966876	-0.96152	1.152531E+16	0.000734	1142.479567	19.003531	1.187363	0	0
3.283922	6.028711	-0.557418	52.504475	-0.792785	52.943443	-0.792785	1.176507E+16	0.000767	1073.193363	18.967351	1.185459	0	0
3.959292	6.026236	2.173856	52.459555	-0.463425	52.71666	-0.463425	1.161425E+16	0.000796	1032.218075	18.918928	1.183278	0	0
5.955703	6.026264	1.772679	52.358893	-0.066547	52.395976	-0.066547	1.128287E+16	0.000824	1002.632698	18.871828	1.179721	0	0
8.43185	6.023616	3.539216	52.235403	0.313781	52.059613	0.313781	1.088852E+16	0.000848	982.592003	18.81481	1.176297	0	0
10.900176	6.018458	3.798763	52.113914	0.669796	51.736698	0.669796	1.051326E+16	0.000873	961.898412	18.770887	1.17397	0	0
12.932671	6.01859	3.448882	51.987239	1.001578	51.420091	1.001578	1.013493E+16	0.000897	944.030264	18.771271	1.171378	0	0
14.979225	6.020166	2.955501	51.864035	1.297126	51.125653	1.297126	9.779257E+15	0.00092	928.386109	18.803859	1.167914	0	0
17.083996	6.015955	2.979648	51.734461	1.590607	50.824015	1.590607	9.417819E+15	0.000944	911.574146	18.822818	1.163829	0	0
19.441314	6.010869	2.924192	51.601946	1.858747	50.532042	1.858747	9.061117E+15	0.000967	897.674283	18.796503	1.159677	0	0
21.631427	6.008207	2.65064	51.478946	2.101614	50.262974	2.101614	8.741336E+15	0.000991	882.492384	18.76657	1.155314	0	0
23.832422	6.004866	2.367088	51.353986	2.329475	49.999112	2.329475	8.427236E+15	0.001014	868.281987	18.757251	1.151189	0	0
26.018166	6.001375	2.084828	51.234212	2.549408	49.74401	2.549408	8.136038E+15	0.001041	850.817537	18.77009	1.146852	0	0
28.133381	6.00449	1.660179	51.105087	2.754902	49.486136	2.754902	7.832564E+15	0.001065	837.1069	18.789841	1.14282	0	0
30.285767	6.001626	1.368018	50.982537	2.944311	49.24352	2.944311	7.554253E+15	0.00109	822.443834	18.795173	1.138998	0	0
32.427648	5.999368	1.065487	50.857617	3.123169	49.003493	3.123169	7.279975E+15	0.001115	808.523594	18.796596	1.134596	0	0
33.12788	5.997758	0.983163	50.742417	3.283152	48.784138	3.283152	7.035189E+15	0.001141	794.414003	18.787979	1.129651	0	0
33.836318	5.996977	0.880509	50.617866	3.439799	48.555756	3.439799	6.779051E+15	0.001166	781.462834	18.783197	1.124336	0	0
34.542761	5.996238	0.776507	50.502012	3.578072	48.34695	3.578072	6.548498E+15	0.00119	769.295753	18.786063	1.119311	0	0
35.239216	5.994165	0.696114	50.38571	3.708618	48.141553	3.708618	6.32428E+15	0.001214	757.481896	18.799759	1.114287	0	0
35.940206	5.982272	0.740691	50.262669	3.834309	47.931006	3.834309	6.094711E+15	0.001237	746.887791	18.810366	1.109091	0	0
36.641043	5.969825	0.750347	50.152574	3.946991	47.741843	3.946991	5.895749E+15	0.001261	735.169603	18.797733	1.103763	0	0
37.334239	5.956008	0.739086	50.032433	4.060164	47.54074	4.060164	5.685372E+15	0.001286	723.804261	18.778936	1.098236	0	0
38.032682	5.933298	0.758009	49.913394	4.163986	47.345959	4.163986	5.483651E+15	0.00131	713.583188	18.780171	1.092207	0	0
38.72792	5.908277	0.756066	49.800562	4.259236	47.162735	4.259236	5.298439E+15	0.001334	703.175184	18.791532	1.085702	0	0
39.425468	5.876121	0.7516	49.684178	4.349542	46.978138	4.349542	5.113316E+15	0.001356	693.818262	18.806548	1.079263	0	0
40.121667	5.833896	0.749337	49.574287	4.432001	46.805127	4.432001	4.943877E+15	0.001379	684.41915	18.802205	1.073168	0	0
40.8251	5.783875	0.737148	49.460434	4.511235	46.629304	4.511235	4.773655E+15	0.001401	675.704883	18.782666	1.067324	0	0
41.518863	5.722725	0.723986	49.348869	4.586723	46.457946	4.586723	4.611955E+15	0.001425	666.446796	18.774568	1.061163	0	0
42.204681	5.650557	0.706744	49.237303	4.655058	46.290707	4.655058	4.455157E+15	0.001445	659.024363	18.772093	1.055266	0	0
42.897433	5.550252	0.699129	49.127535	4.722296	46.125798	4.722296	4.305531E+15	0.001469	650.141963	18.784646	1.049792	0	0
43.586554	5.436671	0.681171	49.014417	4.785851	45.959145	4.785851	4.156022E+15	0.00149	642.360847	18.809774	1.044622	0	0
44.26671	5.293481	0.667823	48.90718	4.844902	45.801602	4.844902	4.018546E+15	0.001513	634.149421	18.839205	1.039453	0	0
44.939723	5.126393	0.651559	48.791245	4.903698	45.634183	4.903698	3.87445E+15	0.001535	626.505685	18.839867	1.034072	0	0
45.604164	4.92246	0.637329	48.687724	4.954854	45.48528	4.954854	3.749649E+15	0.001557	619.097744	18.827116	1.028624	0	0
46.258678	4.683473	0.623769	48.576322	5.00568	45.327495	5.00568	3.619304E+15	0.001577	612.260529	18.831896	1.023256	0	0
46.9041	4.40152	0.613518	48.4688	5.051575	45.177004	5.051575	3.497279E+15	0.001596	606.32292	18.855019	1.017558	0	0
47.52549	4.085399	0.602582	48.36385	5.096335	45.029908	5.096335	3.381657E+15	0.001617	599.313872	18.875932	1.012044	0	0
48.140233	3.724472	0.594065	48.254203	5.139298	44.878481	5.139298	3.264433E+15	0.001637	593.224228	18.880703	1.006504	0	0
48.749148	3.321799	0.584316	48.148927	5.180049	44.733203	5.180049	3.155221E+15	0.001658	586.500165	18.860735	1.000832	0	0
49.337967	2.88429	0.578588	48.041526	5.217579	44.587457	5.217579	3.047086E+15	0.001676	581.326232	18.839511	0.995121	0	0
49.904427	2.429108	0.57006	47.935841	5.253264	44.444676	5.253264	2.943822E+15	0.001694	576.035719	18.843359	0.989409	0	0
50.428572	1.953634	0.58744	47.827788	5.286979	44.300352	5.286979	2.841381E+15	0.001709	571.631768	18.860433	0.983737	0	0
50.929602	1.481083	0.590278	47.727575	5.318454	44.166206	5.318454	2.74913E+15	0.001727	566.382529	18.879963	0.978051	0	0
51.379378	1.034358	0.584483	47.615846	5.352154	44.017399	5.352154	2.649323E+15	0.001748	560.491886	18.872647	0.972657	0	0
51.773269	0.626839	0.550699	47.512202	5.380417	43.881221	5.380417	2.559531E+15	0.001762	556.517222	18.854871	0.967183	0	0
42.155075	5.653464	0.711635	47.406762	5.408806	43.742783	5.408806	2.470864E+15	0.00178	551.790229	18.84241	0.961789	0	0
52.285729	0	0	47.30169	5.435746	43.605601	5.435746	2.385125E+15	0.001796	547.289903	18.853914	0.956527	0	0
0	0	0	47.203233	5.460009	43.477601	5.460009	2.307096E+15	0.001812	543.085983	18.881923	0.951238	0	0
0	0	0	47.095588	5.484693	43.338785	5.484693	2.224276E+15	0.001826	539.313091	18.899717	0.94628	0	0
0	0	0	46.995946	5.507161	43.210438	5.507161	2.149872E+15	0.001842	535.308379	18.888716	0.941428	0	0
0	0	0	46.896305	5.527633	43.083358	5.527633	2.077585E+15	0.001853	532.55692	18.867037	0.936747	0	0
0	0	0	46.793315	5.548183	42.952327	5.548183	2.005035E+15	0.001865	529.538354	18.864527	0.931868	0	0
0	0	0	46.694613	5.56745	42.826951	5.56745	1.93752E+15	0.001878	526.310779	18.888093	0.926738	0	0
0	0	0	46.595299	5.585618	42.701553	5.585618	1.871526E+15	0.001889	523.684043	18.911412	0.921899	0	0
0	0	0	46.49284	5.604148	42.572244	5.604148	1.80543E+15	0.001902	520.400856	18.91046	0.917351	0	0
0	0	0	46.394709	5.620787	42.449088	5.620787	1.743972E+15	0.001912	517.844692	18.895842	0.912935	0	0
0	0	0	46.296375	5.636593	42.326207	5.636593	1.684153E+15	0.001922	515.660201	18.881667	0.908413	0	0
0	0	0	46.197754	5.651555	42.203522	5.651555	1.625891E+15	0.001929	513.939805	18.883613	0.903667	0	0
0	0	0	46.100808	5.665824	42.083163	5.665824	1.570267E+15	0.001937	512.168896	18.91484	0.89855	0	0
0	0	0	46.00178	5.679595	41.96072	5.679595	1.515095E+15	0.001943	510.818239	18.936382	0.893526	0	0
0	0	0	45.903568	5.692837	41.839518	5.692837	1.461982E+15	0.001949	509.416092	18.911886	0.888594	0	0
0	0	0	45.806417	5.70554	41.719848	5.70554	1.410975E+15	0.001956	507.963804	18.889688	0.883583	0	0
0	0	0	45.708777	5.717518	41.600081	5.717518	1.36121E+15	0.00196	507.103931	18.863848	0.879021	0	0
0	0	0	45.608115	5.729838	41.476569	5.729838	1.311439E+15	0.001967	505.568832	18.869702	0.874248	0	0
0	0	0	45.514068	5.740736	41.361563	5.740736	1.266313E+15	0.001972	504.534838	18.9009	0.869343	0	0
0	0	0	45.41602	5.751281	41.242202	5.751281	1.220645E+15	0.001973	504.278242	18.909847	0.864597	0	0
0	0	0	45.316909	5.761361	41.12192	5.761361	1.175878E+15	0.001973	504.478681	18.883589	0.85985	0	0
0	0	0	45.222413	5.77163	41.006711	5.77163	1.134471E+15	0.001981	502.785794	18.861403	0.855064	0	0
0	0	0	45.123466	5.781193	40.886898	5.781193	1.092415E+15	0.001981	502.700477	18.855353	0.850251	0	0
0	0	0	45.025213	5.790156	40.768271	5.790156	1.051941E+15	0.00198	503.10987	18.869788	0.84528	0	0
0	0	0	44.930718	5.799529	40.653585	5.799529	1.014195E+15	0.001988	501.255883	18.881079	0.840546	0	0
0	0	0	44.835037	5.806832	40.539036	5.806832	9.77126E+14	0.001979	503.657404	18.864289	0.835919	0	0
0	0	0	44.735559	5.815184	40.419341	5.815184	9.39784E+14	0.001979	503.875851	18.832796	0.831331	0	0
0	0	0	44.643187	5.822586	40.308423	5.822586	9.061768E+14	0.001977	504.357269	18.810831	0.826545	0	0
0	0	0	44.549345	5.829976	40.195802	5.829976	8.730624E+14	0.001977	504.608006	18.814637	0.821944	0	0
0	0	0	44.448274	5.836472	40.075566	5.836472	8.385282E+14	0.001964	508.125354	18.840546	0.817356	0	0
0	0	0	44.354023	5.844459	39.961964	5.844459	8.073552E+14	0.001973	505.637641	18.836258	0.813059	0	0
0	0	0	44.261692	5.850283	39.852147	5.850283	7.777585E+14	0.001964	508.164372	18.815972	0.808603	0	0
0	0	0	44.161969	5.857596	39.732737	5.857596	7.46814E+14	0.001968	507.327683	18.784107	0.804412	0	0
0	0	0	44.064696	5.862728	39.617744	5.862728	7.176266E+14	0.00195	511.992938	18.787665	0.799744	0	0
0	0	0	43.977265	5.868928	39.513158	5.868928	6.92212E+14	0.001955	510.746096	18.811538	0.795368	0	0
0	0	0	43.879788	5.874442	39.397591	5.874442	6.6477E+14	0.001945	513.279038	18.829344	0.790952	0	0
0	0	0	43.78227	5.879361	39.282407	5.879361	6.382356E+14	0.00193	517.382732	18.808576	0.786814	0	0
0	0	0	43.691531	5.885339	39.174133	5.885339	6.143507E+14	0.001937	515.696418	18.777766	0.782622	0	0
0	0	0	43.596995	5.889473	39.062912	5.889473	5.902712E+14	0.001917	521.067096	18.762205	0.778339	0	0
0	0	0	43.496659	5.893892	38.944823	5.893892	5.655908E+14	0.001898	526.310255	18.78057	0.773962	0	0
0	0	0	43.40494	5.899162	38.835905	5.899162	5.437992E+14	0.001901	525.678609	18.796023	0.76948	0	0
0	0	0	43.312813	5.903751	38.727024	5.903751	5.226313E+14	0.001895	527.287882	18.781736	0.765434	0	0
0	0	0	43.212967	5.907279	38.610125	5.907279	5.004848E+14	0.001868	534.831419	18.731451	0.761428	0	0
0	0	0	43.119411	5.911407	38.499931	5.911407	4.80464E+14	0.001858	537.854559	18.705997	0.757224	0	0
0	0	0	43.026957	5.916286	38.39039	5.916286	4.613555E+14	0.001863	536.402405	18.719628	0.752847	0	0
0	0	0	42.929153	5.919622	38.275923	5.919622	4.418536E+14	0.00184	543.152306	18.74205	0.74859	0	0
0	0	0	42.831227	5.922425	38.16172	5.922425	4.230412E+14	0.001809	552.453038	18.732589	0.744623	0	0
0	0	0	42.736363	5.926191	38.050244	5.926191	4.054795E+14	0.001799	555.537271	18.710147	0.740512	0	0
0	0	0	42.640112	5.929778	37.937305	5.929778	3.883084E+14	0.001787	559.371065	18.675227	0.736532	0	0
0	0	0	42.543043	5.933222	37.82353	5.933222	3.716338E+14	0.001773	563.672375	18.671324	0.732195	0	0
0	0	0	42.44867	5.935319	37.713895	5.935319	3.560228E+14	0.001738	575.172828	18.696158	0.72811	0	0
0	0	0	42.34568	5.938478	37.593543	5.938478	3.396423E+14	0.001718	582.035828	18.693739	0.72413	0	0
0	0	0	42.238157	5.94242	37.467361	5.94242	3.232487E+14	0.001711	584.17042	18.661502	0.720362	0	0
0	0	0	42.143294	5.946129	37.355832	5.946129	3.093668E+14	0.001713	583.454563	18.631308	0.716435	0	0
0	0	0	42.041161	5.948731	37.23686	5.948731	2.950113E+14	0.001689	592.037371	18.617649	0.712455	0	0
0	0	0	41.944052	5.950613	37.124208	5.950613	2.819117E+14	0.001654	604.562173	18.632822	0.708343	0	0
0	0	0	41.848903	5.952494	37.013791	5.952494	2.695799E+14	0.001622	616.546332	18.64382	0.704403	0	0
0	0	0	41.741135	5.955268	36.888195	5.955268	2.561949E+14	0.001601	624.435614	18.612238	0.700847	0	0
0	0	0	41.641902	5.958183	36.77224	5.958183	2.443987E+14	0.001593	627.782189	18.56721	0.696999	0	0
0	0	0	41.546875	5.961133	36.661055	5.961133	2.335615E+14	0.001591	628.52885	18.544111	0.693218	0	0
0	0	0	41.442456	5.963759	36.539371	5.963759	2.221536E+14	0.001576	634.242918	18.561451	0.689225	0	0
0	0	0	41.345469	5.965639	36.426798	5.965639	2.120109E+14	0.001551	644.662365	18.576224	0.685523	0	0
0	0	0	41.248237	5.967071	36.314307	5.967071	2.022656E+14	0.001515	659.825043	18.552131	0.681979	0	0
0	0	0	41.142838	5.968807	36.192205	5.968807	1.921631E+14	0.001483	674.212865	18.517327	0.678436	0	0
0	0	0	41.047035	5.970713	36.08094	5.970713	1.833819E+14	0.001464	683.135523	18.490047	0.674893	0	0
0	0	0	40.948129	5.972556	35.966166	5.972556	1.747029E+14	0.001442	693.369693	18.50289	0.670979	0	0
0	0	0	40.84224	5.9752	35.842717	5.9752	1.658302E+14	0.00144	694.634404	18.506506	0.667422	0	0
0	0	0	40.74754	5.977006	35.732771	5.977006	1.582485E+14	0.001424	702.269346	18.49554	0.663971	0	0
0	0	0	40.643815	5.979083	35.612253	5.979083	1.503125E+14	0.001412	708.283067	18.448032	0.660574	0	0
0	0	0	40.533638	5.980697	35.484727	5.980697	1.422878E+14	0.001384	722.737621	18.414556	0.657149	0	0
0	0	0	40.436283	5.981661	35.372427	5.981661	1.355302E+14	0.001346	742.78344	18.439846	0.653341	0	0
0	0	0	40.328107	5.982881	35.247512	5.982881	1.283729E+14	0.001311	762.845923	18.447698	0.649838	0	0
0	0	0	40.22769	5.983907	35.131642	5.983907	1.220467E+14	0.001276	783.494835	18.419392	0.646506	0	0
0	0	0	40.122618	5.985285	35.010135	5.985285	1.157407E+14	0.001251	799.422419	18.385146	0.642949	0	0
0	0	0	40.017749	5.986441	34.889044	5.986441	1.097534E+14	0.00122	819.352991	18.350695	0.639511	0	0
0	0	0	39.911656	5.987894	34.766289	5.987894	1.03994E+14	0.0012	833.322157	18.351731	0.635783	0	0
0	0	0	39.80593	5.989629	34.643705	5.989629	9.853949E+13	0.001191	839.869534	18.369715	0.632213	0	0
0	0	0	39.6971	5.991399	34.517527	5.991399	9.32086E+13	0.001183	845.222596	18.349448	0.629053	0	0
0	0	0	39.587658	5.992654	34.391085	5.992654	8.812465E+13	0.00116	861.990324	18.294103	0.625827	0	0
0	0	0	39.481197	5.994051	34.267926	5.994051	8.343327E+13	0.001146	872.803366	18.263693	0.622522	0	0
0	0	0	39.364936	5.995324	34.133643	5.995324	7.85825E+13	0.001123	890.269469	18.282686	0.618872	0	0
0	0	0	39.259373	5.996136	34.012011	5.996136	7.441276E+13	0.001092	915.627081	18.28744	0.615594	0	0
0	0	0	39.144295	5.997085	33.879356	5.997085	7.010897E+13	0.001062	941.422818	18.252854	0.612434	0	0
0	0	0	39.031668	5.997752	33.74975	5.997752	6.612897E+13	0.001025	975.389376	18.212969	0.609274	0	0
0	0	0	38.916917	5.998415	33.617712	5.998415	6.2298E+13	0.000989	1011.463108	18.185005	0.606047	0	0
0	0	0	38.798042	5.999238	33.480803	5.999238	5.855539E+13	0.000957	1044.511085	18.194454	0.602663	0	0
0	0	0	38.68468	6.00008	33.350189	6.00008	5.518934E+13	0.000931	1073.932214	18.195306	0.599529	0	0
0	0	0	38.561925	6.000869	33.208856	6.000869	5.175574E+13	0.0009	1110.886584	18.169889	0.596568	0	0
0	0	0	38.443254	6.001776	33.072092	6.001776	4.863383E+13	0.000877	1140.26356	18.114437	0.593513	0	0
0	0	0	38.323072	6.002527	32.933731	6.002527	4.565893E+13	0.000849	1177.58079	18.087628	0.590261	0	0
0	0	0	38.194518	6.003973	32.78515	6.003973	4.267289E+13	0.000845	1183.834009	18.104175	0.587048	0	0
0	0	0	38.070171	6.004766	32.641968	6.004766	3.996609E+13	0.00082	1219.389717	18.107632	0.583928	0	0
0	0	0	37.944312	6.005721	32.496903	6.005721	3.739731E+13	0.000803	1245.737607	18.066879	0.580953	0	0
0	0	0	37.816902	6.006635	32.350093	6.006635	3.496147E+13	0.000785	1273.809748	18.01647	0.578004	0	0
0	0	0	37.684796	6.007489	32.19795	6.007489	3.259998E+13	0.000765	1307.194495	18.010124	0.574765	0	0
0	0	0	37.554037	6.008231	32.047448	6.008231	3.041681E+13	0.000743	1346.154836	18.021406	0.571513	0	0
0	0	0	37.421686	6.009437	31.89469	6.009437	2.835334E+13	0.000742	1348.488164	18.007704	0.568617	0	0
0	0	0	37.285496	6.009994	31.738125	6.009994	2.637372E+13	0.000713	1402.224813	17.96305	0.565629	0	0
0	0	0	37.148938	6.010577	31.581112	6.010577	2.452545E+13	0.000688	1454.498565	17.919862	0.562786	0	0
0	0	0	37.007766	6.011133	31.418832	6.011133	2.274889E+13	0.000661	1513.180088	17.894618	0.559798	0	0
0	0	0	36.869575	6.011646	31.260003	6.011646	2.113294E+13	0.000635	1574.283762	17.91706	0.556731	0	0
0	0	0	36.725177	6.012187	31.094033	6.012187	1.956543E+13	0.00061	1638.201769	17.899596	0.553941	0	0
0	0	0	36.583065	6.012427	30.930962	6.012427	1.813504E+13	0.000575	1737.666681	17.83151	0.551244	0	0
0	0	0	36.433073	6.012978	30.758565	6.012978	1.673743E+13	0.000553	1808.780823	17.793369	0.548348	0	0
0	0	0	36.284795	6.013321	30.588326	6.013321	1.546068E+13	0.000524	1908.310214	17.808172	0.545347	0	0
0	0	0	36.1308	6.013518	30.411672	6.013518	1.423679E+13	0.00049	2041.217707	17.809307	0.542399	0	0
0	0	0	35.9775	6.01392	30.235616	6.01392	1.311387E+13	0.000466	2147.11402	17.774934	0.539926	0	0
0	0	0	35.818441	6.014151	30.053124	6.014151	1.20416E+13	0.000436	2295.288313	17.727929	0.537255	0	0
0	0	0	35.657382	6.014563	29.868161	6.014563	1.104453E+13	0.000413	2418.641807	17.694268	0.534347	0	0
0	0	0	35.495873	6.014973	29.682683	6.014973	1.012705E+13	0.000393	2546.700879	17.685345	0.531438	0	0
0	0	0	35.331832	6.015315	29.494366	6.015315	9.272717E+12	0.000371	2698.426225	17.6933	0.528555	0	0
0	0	0	35.164157	6.015554	29.301982	6.015554	8.473496E+12	0.000346	2889.453333	17.654534	0.526109	0	0
0	0	0	34.992113	6.015888	29.104495	6.015888	7.724647E+12	0.000325	3072.451758	17.594791	0.523399	0	0
0	0	0	34.822968	6.01646	28.910095	6.01646	7.05268E+12	0.000314	3182.905133	17.573173	0.520517	0	0
0	0	0	34.644553	6.016858	28.705238	6.016858	6.406875E+12	0.000297	3363.972982	17.591551	0.517608	0	0
0	0	0	34.47063	6.017244	28.505537	6.017244	5.834086E+12	0.000282	3545.386161	17.565108	0.515017	0	0
0	0	0	34.290132	6.017226	28.298701	6.017226	5.293549E+12	0.000255	3915.286331	17.493216	0.512478	0	0
0	0	0	34.103386	6.017718	28.084194	6.017718	4.786795E+12	0.000244	4098.535132	17.455096	0.509715	0	0
0	0	0	33.919213	6.018018	27.872825	6.018018	4.334428E+12	0.000229	4371.039026	17.465793	0.506978	0	0
0	0	0	33.72822	6.01844	27.653514	6.01844	3.910298E+12	0.000217	4602.448412	17.472636	0.504254	0	0
0	0	0	33.532776	6.018871	27.429088	6.018871	3.519118E+12	0.000207	4838.616141	17.430827	0.501835	0	0
0	0	0	33.336924	6.019322	27.20417	6.019322	3.166295E+12	0.000198	5057.610251	17.367489	0.499521	0	0
0	0	0	33.136743	6.019665	26.974397	6.019665	2.842134E+12	0.000186	5362.894644	17.337053	0.496744	0	0
0	0	0	32.926149	6.020144	26.732546	6.020144	2.53681E+12	0.000179	5584.313869	17.33802	0.494113	0	0
0	0	0	32.711226	6.0204	26.48596	6.0204	2.258954E+12	0.000166	6015.879694	17.328133	0.491548	0	0
0	0	0	32.501653	6.020584	26.245577	6.020584	2.017311E+12	0.000153	6531.30641	17.276404	0.489248	0	0
0	0	0	32.281666	6.020794	25.99323	6.020794	1.791386E+12	0.000141	7092.028179	17.221838	0.486907	0	0
0	0	0	32.064456	6.021197	25.743861	6.021197	1.593125E+12	0.000135	7405.515275	17.205973	0.484289	0	0
0	0	0	31.845409	6.021598	25.492384	6.021598	1.41538E+12	0.00013	7698.341698	17.227481	0.481592	0	0
0	0	0	31.622359	6.021747	25.236584	6.021747	1.254736E+12	0.000119	8418.754284	17.195187	0.479358	0	0
0	0	0	31.393797	6.02196	24.974394	6.02196	1.109004E+12	0.00011	9092.463699	17.114505	0.47715	0	0
0	0	0	31.160334	6.02247	24.706268	6.02247	9.775959E+11	0.000109	9141.82227	17.080213	0.474638	0	0
0	0	0	30.92487	6.022725	24.436116	6.022725	8.60819E+11	0.000103	9714.950994	17.097384	0.472046	0	0
0	0	0	30.688549	6.022886	24.165081	6.022886	7.576336E+11	9.469314E-5	10560.42712	17.093407	0.4696	0	0
0	0	0	30.448838	6.02296	23.890255	6.02296	6.655915E+11	8.49382E-5	11773.265922	17.025511	0.467472	0	0
0	0	0	30.202063	6.023125	23.607229	6.023125	5.82499E+11	7.803994E-5	12813.950632	16.969304	0.465131	0	0
0	0	0	29.952224	6.023369	23.320605	6.023369	5.089334E+11	7.358393E-5	13589.923034	16.970578	0.462566	0	0
0	0	0	29.702754	6.02385	23.034137	6.02385	4.447443E+11	7.621697E-5	13120.438416	16.97593	0.460134	0	0
0	0	0	29.446014	6.023945	22.739761	6.023945	3.871253E+11	6.887419E-5	14519.227522	16.9327	0.457939	0	0
0	0	0	29.18858	6.024205	22.444403	6.024205	3.36843E+11	6.689262E-5	14949.332468	16.858833	0.45585	0	0
0	0	0	28.925429	6.024266	22.142713	6.024266	2.921863E+11	5.963552E-5	16768.528561	16.824567	0.45339	0	0
0	0	0	28.653784	6.02422	21.831409	6.02422	2.522881E+11	5.042006E-5	19833.374237	16.8293	0.450971	0	0
0	0	0	28.385161	6.024332	21.523388	6.024332	2.181933E+11	4.591743E-5	21778.223678	16.802517	0.448763	0	0
0	0	0	28.109963	6.024589	21.207663	6.024589	1.880362E+11	4.506081E-5	22192.231538	16.738948	0.446766	0	0
0	0	0	27.83207	6.02464	20.889083	6.02464	1.618109E+11	3.987282E-5	25079.741917	16.69186	0.444453	0	0
0	0	0	27.550135	6.024784	20.565762	6.024784	1.389389E+11	3.719242E-5	26887.197698	16.702884	0.44198	0	0
0	0	0	27.26824	6.024927	20.242486	6.024927	1.193022E+11	3.494037E-5	28620.190757	16.698841	0.439772	0	0
0	0	0	26.978504	6.025043	19.910253	6.025043	1.020075E+11	3.234686E-5	30914.904944	16.638815	0.437815	0	0
0	0	0	26.687094	6.025099	19.57617	6.025099	8.714083E+10	2.877922E-5	34747.290189	16.569402	0.435673	0	0
0	0	0	26.39111	6.025148	19.236852	6.025148	7.425694E+10	2.544831E-5	39295.338781	16.547725	0.433254	0	0
0	0	0	26.090594	6.025143	18.892401	6.025143	6.312301E+10	2.155791E-5	46386.687656	16.562439	0.430861	0	0
0	0	0	25.789424	6.025178	18.547154	6.025178	5.363948E+10	1.882518E-5	53120.348116	16.522475	0.428917	0	0
0	0	0	25.485028	6.025392	18.197993	6.025392	4.550128E+10	1.921383E-5	52045.83348	16.457788	0.426934	0	0
0	0	0	25.175569	6.0255	17.843153	6.0255	3.849227E+10	1.810304E-5	55239.336171	16.410527	0.4247	0	0
0	0	0	24.86517	6.025581	17.487268	6.025581	3.254638E+10	1.673717E-5	59747.264238	16.418958	0.422439	0	0
0	0	0	24.54983	6.025601	17.125792	6.025601	2.744552E+10	1.446308E-5	69141.583218	16.403547	0.420416	0	0
0	0	0	24.230937	6.025556	16.760326	6.025556	2.309968E+10	1.154875E-5	86589.483351	16.325002	0.418538	0	0
0	0	0	23.903468	6.025908	16.384534	6.025908	1.935205E+10	1.602885E-5	62387.523555	16.264606	0.416383	0	0
0	0	0	23.576122	6.025883	16.009352	6.025883	1.62135E+10	1.28119E-5	78052.453873	16.273119	0.414109	0	0
0	0	0	23.226316	6.025943	15.608317	6.025943	1.342002E+10	1.187877E-5	84183.795009	16.260739	0.412073	0	0
0	0	0	22.885126	6.02587	15.217326	6.02587	1.11597E+10	8.631868E-6	115849.778455	16.181765	0.410367	0	0
0	0	0	22.5412	6.025977	14.822972	6.025977	9.266367E+9	8.799147E-6	113647.385124	16.127561	0.408199	0	0
0	0	0	22.194416	6.025918	14.425553	6.025918	7.68237E+9	6.473968E-6	154464.776606	16.130209	0.406004	0	0
0	0	0	21.839954	6.026031	14.01911	6.026031	6.342762E+9	6.803885E-6	146974.855644	16.138541	0.403875	0	0
0	0	0	21.478714	6.025971	13.605122	6.025971	5.217592E+9	4.894591E-6	204307.159056	16.057846	0.402249	0	0
0	0	0	21.116167	6.025892	13.189663	6.025892	4.288989E+9	3.445982E-6	290193.047022	15.997458	0.400292	0	0
0	0	0	20.74439	6.025939	12.763459	6.025939	3.508109E+9	3.077976E-6	324888.787458	15.990804	0.398177	0	0
0	0	0	20.368939	6.025899	12.333158	6.025899	2.863705E+9	2.330179E-6	429151.609722	15.994423	0.395929	0	0
0	0	0	19.983686	6.026145	11.891239	6.026145	2.325319E+9	3.437832E-6	290880.975179	15.932784	0.394158	0	0
0	0	0	19.591451	6.026165	11.441617	6.026165	1.881037E+9	2.979327E-6	335646.327875	15.859467	0.39232	0	0
0	0	0	19.187822	6.026039	10.979134	6.026039	1.512297E+9	1.653226E-6	604877.961388	15.837688	0.390165	0	0
0	0	0	18.779742	6.025946	10.511506	6.025946	1.21292E+9	1.079539E-6	926321.32648	15.852435	0.388062	0	0
0	0	0	18.362025	6.026012	10.032613	6.026012	9.677528E+8	9.934379E-7	1006605.465236	15.802933	0.386423	0	0
0	0	0	17.937814	6.026278	9.545999	6.026278	7.694357E+8	2.041123E-6	489926.488968	15.735932	0.384559	0	0
0	0	0	17.50221	6.026105	9.046934	6.026105	6.080026E+8	7.948219E-7	1258143.518039	15.706797	0.38243	0	0
0	0	0	17.056479	6.026378	8.535635	6.026378	4.778162E+8	3.12532E-6	319967.22189	15.699471	0.380407	0	0
0	0	0	16.59817	6.026258	8.010472	6.026258	3.72961E+8	8.848565E-7	1130126.732787	15.655799	0.378794	0	0
0	0	0	16.133817	6.026311	7.478136	6.026311	2.901664E+8	9.607314E-7	1040873.655085	15.582789	0.377022	0	0
0	0	0	15.660072	6.026291	6.935139	6.026291	2.246082E+8	6.477306E-7	1543851.661411	15.536905	0.37529	0	0
0	0	0	15.177261	6.026271	6.38175	6.026271	1.730119E+8	4.419146E-7	2262880.758804	15.552002	0.37299	0	0
0	0	0	14.682403	6.026378	5.814368	6.026378	1.32403E+8	8.673519E-7	1152934.576611	15.511685	0.371337	0	0
0	0	0	14.175458	6.026318	5.233374	6.026318	1.006658E+8	3.50793E-7	2850683.685871	15.434339	0.36983	0	0
0	0	0	13.65426	6.026291	4.635995	6.026291	7.594867E+7	2.190912E-7	4564309.160446	15.40637	0.36778	0	0
0	0	0	13.129878	6.026305	4.034906	6.026305	5.720192E+7	1.805697E-7	5538026.378258	15.404368	0.36581	0	0
0	0	0	12.603494	6.026384	3.431423	6.026384	4.303593E+7	3.12632E-7	3198648.922431	15.365009	0.364171	0	0
0	0	0	12.068535	6.026418	2.818178	6.026418	3.222838E+7	5.114349E-7	1955282.886879	15.286005	0.362584	0	0
0	0	0	11.530758	6.026278	2.20197	6.026278	2.409818E+7	6.40118E-8	1.562212E+7	15.25896	0.36076	0	0
0	0	0	10.98906	6.026411	1.580848	6.026411	1.798083E+7	2.3073E-7	4334069.944249	15.260191	0.358829	0	0
0	0	0	10.453366	6.026298	0.966989	6.026298	1.345998E+7	4.058166E-8	2.464167E+7	15.211033	0.357243	0	0
0	0	0	9.931883	6.026544	0.368854	6.026544	1.015349E+7	-4.602554E-8	-2.172707E+7	15.130754	0.355709	0	0
0	0	0	9.419628	6.026491	-0.218231	6.026491	7697564.875	-7.606603E-8	-1.314647E+7	15.105685	0.353818	0	0
0	0	0	8.915542	6.026404	-0.7959	6.026404	5861497.75	6.31308E-8	1.584013E+7	15.106841	0.351914	0	0
0	0	0	8.422358	6.026391	-1.361186	6.026391	4489765.375	3.659177E-8	2.732855E+7	15.049925	0.35042	0	0
0	0	0	7.936934	6.026484	-1.917753	6.026484	3453506.375	-4.003014E-8	-2.498118E+7	14.974182	0.3489	0	0
0	0	0	7.460738	6.026477	-2.463579	6.026477	2669706.875	-3.741875E-8	-2.672457E+7	14.950232	0.347062	0	0
0	0	0	6.997325	6.026364	-2.994577	6.026364	2078106.125	1.139295E-8	8.777358E+7	14.951309	0.34533	0	0
0	0	0	6.548408	6.026491	-3.509355	6.026491	1630329.25	-1.61099E-8	-6.207364E+7	14.874471	0.343876	0	0
0	0	0	6.11701	6.026298	-4.00352	6.026298	1291206.875	3.893082E-9	2.568659E+8	14.798393	0.342474	0	0
0	0	0	5.697128	6.026484	-4.48512	6.026484	1029010.875	-1.192719E-8	-8.384207E+7	14.796864	0.340597	0	0
0	0	0	5.292519	6.026418	-4.948788	6.026418	826855.625	1.312674E-8	7.618039E+7	14.792443	0.338706	0	0
0	0	0	4.887706	6.026437	-5.412837	6.026437	664341.625	3.648093E-8	2.741158E+7	14.716556	0.337384	0	0
0	0	0	4.50176	6.026378	-5.855123	6.026378	539240.625	3.534872E-9	2.828956E+8	14.637975	0.335837	0	0
0	0	0	4.135251	6.026457	-6.275368	6.026457	442320.625	-1.664806E-8	-6.006706E+7	14.646957	0.333893	0	0
0	0	0	3.783118	6.026285	-6.6787	6.026285	365650.75	1.011428E-9	9.887012E+8	14.637004	0.33232	0	0
0	0	0	3.445766	6.026451	-7.065675	6.026451	304695.75	-2.617097E-8	-3.821027E+7	14.527808	0.330932	0	0
0	0	0	3.122953	6.026504	-7.435791	6.026504	255905.375	-1.952667E-9	-5.121202E+8	14.450862	0.329239	0	0
0	0	0	2.805449	6.026577	-7.799858	6.026577	215545.375	-7.300547E-10	-1.36976E+9	14.470576	0.327428	0	0
0	0	0	2.506076	6.026384	-8.142674	6.026384	183338.875	1.33219E-9	7.506436E+8	14.453271	0.325894	0	0
0	0	0	2.215728	6.026278	-8.475295	6.026278	156707.375	4.162815E-10	2.402221E+9	14.335792	0.324704	0	0
0	0	0	1.940081	6.026418	-8.791501	6.026418	135013	2.143412E-9	4.665459E+8	14.278084	0.322933	0	0
0	0	0	1.681177	6.026238	-9.087947	6.026238	117379.625	2.518852E-10	3.970063E+9	14.313793	0.321015	0	0
0	0	0	1.440853	6.02663	-9.364118	6.02663	103079.375	-2.485893E-10	-4.0227E+9	14.252342	0.319746	0	0
0	0	0	1.225604	6.026424	-9.610478	6.026424	91756.625	1.90908E-9	5.238124E+8	14.162768	0.318226	0	0
0	0	0	1.036653	6.026391	-9.827002	6.026391	82847.125	6.752248E-10	1.480988E+9	14.135509	0.31652	0	0
0	0	0	0.871183	6.026437	-10.016754	6.026437	75758.25	4.160185E-9	2.403739E+8	14.151364	0.31492	0	0
0	0	0	0.735238	6.026437	-10.17258	6.026437	70390.5	3.865421E-9	2.58704E+8	14.081224	0.313585	0	0
0	0	0	0.614525	6.026358	-10.310802	6.026358	65943.875	3.341841E-10	2.992362E+9	13.987261	0.312117	0	0
0	0	0	0.510882	6.026517	-10.429892	6.026517	62350.75	-3.874947E-10	-2.58068E+9	13.989145	0.310306	0	0
0	0	0	0.426595	6.026471	-10.526421	6.026471	59573.625	-1.055857E-9	-9.47098E+8	13.965676	0.308904	0	0
0	0	0	0.355213	6.026517	-10.608327	6.026517	57318.625	-3.562213E-10	-2.807244E+9	13.868984	0.307662	0	0
0	0	0	0.294611	6.026484	-10.677731	6.026484	55471.25	-6.429585E-10	-1.55531E+9	13.832612	0.305956	0	0
0	0	0	0.240748	6.026524	-10.739544	6.026524	53879.375	-3.064221E-10	-3.263472E+9	13.828713	0.30429	0	0
0	0	0	0.210978	6.026457	-10.773547	6.026457	53019.25	-1.995522E-9	-5.011221E+8	13.740659	0.303127	0	0
0	0	0	0.168753	6.026637	-10.822274	6.026637	51822.75	-1.206348E-10	-8.289484E+9	13.666254	0.301672	0	0
0	0	0	0.143842	6.026457	-10.8505	6.026457	51129.5	-1.924396E-9	-5.196436E+8	13.661349	0.300086	0	0
0	0	0	0.127671	6.026404	-10.86894	6.026404	50684.5	5.459182E-10	1.831776E+9	13.643061	0.298631	0	0
0	0	0	0.097779	6.02651	-10.903398	6.02651	49872.125	-3.416346E-10	-2.927104E+9	13.532793	0.297534	0	0
0	0	0	0.076095	6.02651	-10.928253	6.02651	49290.875	-3.376529E-10	-2.961621E+9	13.477172	0.296013	0	0
0	0	0	0.069765	6.026371	-10.935254	6.026371	49122.5	2.933124E-10	3.409334E+9	13.491074	0.294347	0	0
0	0	0	0.064211	6.026444	-10.941753	6.026444	48975.25	1.491409E-8	6.70507E+7	13.443581	0.293157	0	0
0	0	0	0.054002	6.026617	-10.953771	6.026617	48705.75	-1.265727E-10	-7.900596E+9	13.331845	0.291968	0	0
0	0	0	0.042037	6.026577	-10.967413	6.026577	48391.75	-1.639034E-10	-6.101156E+9	13.308537	0.290354	0	0
0	0	0	0.031542	6.026398	-10.979115	6.026398	48117.875	4.464903E-10	2.23969E+9	13.316879	0.288913	0	0
0	0	0	0.020598	6.026491	-10.99183	6.026491	47834.125	-4.726623E-10	-2.115675E+9	13.22506	0.287895	0	0
0	0	0	0.013206	6.026504	-11.000327	6.026504	47643.375	-3.635388E-10	-2.750738E+9	13.171453	0.286362	0	0
0	0	0	0.005774	6.02659	-11.009004	6.02659	47452.25	-1.459627E-10	-6.851067E+9	13.172242	0.284801	0	0
0	0	0	0.002139	6.026384	-11.012793	6.026384	47359.125	3.441245E-10	2.905925E+9	13.107804	0.283664	0	0
0	0	0	-0.000801	6.026584	-11.016528	6.026584	47284	-1.524444E-10	-6.559768E+9	13.011643	0.282527	0	0
0	0	0	-0.001985	6.02653	-11.017788	6.02653	47253.75	-2.477127E-10	-4.036935E+9	13.030259	0.280927	0	0
0	0	0	-0.003455	6.026597	-11.019594	6.026597	47216.125	-1.388607E-10	-7.20146E+9	13.009687	0.279619	0	0
0	0	0	-0.005579	6.026577	-11.021992	6.026577	47162	-1.597382E-10	-6.260244E+9	12.871229	0.278667	0	0
0	0	0	-0.005987	6.02657	-11.022448	6.02657	47151.5	-1.682065E-10	-5.945074E+9	12.827324	0.27712	0	0
0	0	0	-0.009295	6.02661	-11.026312	6.02661	47067.375	-1.272511E-10	-7.858479E+9	12.844319	0.275665	0	0
0	0	0	-0.011377	6.02651	-11.028518	6.02651	47014.375	-3.220584E-10	-3.105027E+9	12.76012	0.274621	0	0
0	0	0	-0.013583	6.026437	-11.030912	6.026437	46958.375	2.578672E-9	3.877966E+8	12.670687	0.273431	0	0
0	0	0	-0.01783	6.026424	-11.035756	6.026424	46850.625	9.747704E-10	1.025883E+9	12.68032	0.271871	0	0
0	0	0	-0.021627	6.026484	-11.040218	6.026484	46754.625	-5.419255E-10	-1.845272E+9	12.618207	0.270892	0	0
0	0	0	-0.025629	6.026564	-11.044951	6.026564	46653.625	-1.757909E-10	-5.688576E+9	12.517779	0.269795	0	0
0	0	0	-0.029427	6.026404	-11.049013	6.026404	46557.875	5.014707E-10	1.994134E+9	12.543942	0.268235	0	0
0	0	0	-0.030979	6.026484	-11.050937	6.026484	46518.875	-5.391929E-10	-1.854624E+9	12.518287	0.267045	0	0
0	0	0	-0.035757	6.026491	-11.056426	6.026491	46398.875	-4.584802E-10	-2.181119E+9	12.403919	0.265961	0	0
0	0	0	-0.037758	6.02651	-11.058756	6.02651	46348.625	-3.174979E-10	-3.149627E+9	12.363188	0.264572	0	0
0	0	0	-0.041474	6.026418	-11.062846	6.026418	46255.625	7.343362E-10	1.361774E+9	12.3742	0.26329	0	0
0	0	0	-0.043965	6.026437	-11.065737	6.026437	46193.375	2.536662E-9	3.942188E+8	12.29015	0.262391	0	0
0	0	0	-0.049029	6.026451	-11.071566	6.026451	46067.125	-3.956757E-9	-2.527322E+8	12.209962	0.261135	0	0
0	0	0	-0.053194	6.026371	-11.076195	6.026371	45963.5	2.744499E-10	3.643652E+9	12.216783	0.259707	0	0
0	0	0	-0.0574	6.02659	-11.081417	6.02659	45859.125	-1.410622E-10	-7.08907E+9	12.12196	0.258768	0	0
0	0	0	-0.059605	6.026378	-11.083556	6.026378	45804.5	3.002618E-10	3.330427E+9	12.032268	0.257631	0	0
0	0	0	-0.060545	6.026391	-11.084657	6.026391	45781.25	3.731287E-10	2.68004E+9	12.060807	0.25611	0	0
0	0	0	-0.061361	6.026418	-11.085641	6.026418	45761	7.264837E-10	1.376493E+9	11.996658	0.255198	0	0
0	0	0	-0.062668	6.026384	-11.087079	6.026384	45728.75	3.322777E-10	3.009531E+9	11.878522	0.254246	0	0
0	0	0	-0.062137	6.026471	-11.086628	6.026471	45741.875	-8.10709E-10	-1.233488E+9	11.902295	0.252646	0	0
0	0	0	-0.061198	6.026431	-11.085479	6.026431	45765.125	1.381098E-9	7.240616E+8	11.854414	0.251615	0	0
0	0	0	-0.060463	6.026484	-11.084733	6.026484	45783.25	-5.306664E-10	-1.884423E+9	11.762687	0.250729	0	0
0	0	0	-0.059932	6.026584	-11.084307	6.026584	45796.375	-1.476483E-10	-6.772853E+9	11.752838	0.249288	0	0
0	0	0	-0.057727	6.026404	-11.081451	6.026404	45851	4.93857E-10	2.024877E+9	11.725885	0.24823	0	0
0	0	0	-0.056379	6.026497	-11.080077	6.026497	45884.5	-3.951202E-10	-2.530875E+9	11.597469	0.247318	0	0
0	0	0	-0.054583	6.026524	-11.078066	6.026524	45929	-2.612068E-10	-3.828384E+9	11.56707	0.24589	0	0
0	0	0	-0.055277	6.026437	-11.078703	6.026437	45911.875	2.521204E-9	3.966359E+8	11.580083	0.244753	0	0
0	0	0	-0.053357	6.026557	-11.076722	6.026557	45959.5	-1.834958E-10	-5.449716E+9	11.47013	0.243986	0	0
0	0	0	-0.053276	6.026703	-11.076896	6.026703	45961.5	-7.940159E-11	-1.259421E+10	11.437442	0.242796	0	0
0	0	0	-0.052377	6.026404	-11.075319	6.026404	45983.875	4.952882E-10	2.019026E+9	11.440118	0.24154	0	0
0	0	0	-0.052255	6.026444	-11.075252	6.026444	45986.875	1.400406E-8	7.140785E+7	11.318068	0.240654	0	0
0	0	0	-0.050458	6.026344	-11.07301	6.026344	46031.5	2.026205E-10	4.935336E+9	11.27596	0.239398	0	0
0	0	0	-0.048498	6.026603	-11.071237	6.026603	46080.375	-1.298216E-10	-7.702878E+9	11.259142	0.238314	0	0
0	0	0	-0.049601	6.026584	-11.072464	6.026584	46052.875	-1.484752E-10	-6.73513E+9	11.151654	0.23764	0	0
0	0	0	-0.049723	6.026404	-11.072277	6.026404	46049.875	4.959991E-10	2.016133E+9	11.106971	0.236291	0	0
0	0	0	-0.048294	6.026584	-11.070966	6.026584	46085.5	-1.485804E-10	-6.730362E+9	11.07804	0.235128	0	0
0	0	0	-0.046497	6.026603	-11.068943	6.026603	46130.25	-1.299621E-10	-7.69455E+9	10.936996	0.234401	0	0
0	0	0	-0.044823	6.026418	-11.066684	6.026418	46172	7.330086E-10	1.364241E+9	10.909718	0.233025	0	0
0	0	0	-0.043843	6.026431	-11.065585	6.026431	46196.5	1.394116E-9	7.173004E+8	10.916061	0.231968	0	0
0	0	0	-0.041842	6.026597	-11.063595	6.026597	46246.5	-1.360091E-10	-7.352449E+9	10.821824	0.231188	0	0
0	0	0	-0.042985	6.026484	-11.064699	6.026484	46217.875	-5.357041E-10	-1.866702E+9	10.805632	0.229905	0	0
0	0	0	-0.043924	6.026418	-11.065654	6.026418	46194.375	7.333638E-10	1.36358E+9	10.765521	0.228808	0	0
0	0	0	-0.045353	6.026404	-11.067268	6.026404	46158.75	4.971718E-10	2.011377E+9	10.637489	0.22816	0	0
0	0	0	-0.048906	6.02655	-11.071608	6.02655	46070.125	-1.955939E-10	-5.112635E+9	10.625062	0.226825	0	0
0	0	0	-0.051071	6.026424	-11.073858	6.026424	46016.375	9.574131E-10	1.044481E+9	10.597896	0.225833	0	0
0	0	0	-0.055808	6.026457	-11.079348	6.026457	45898.625	-1.727518E-9	-5.788653E+8	10.487821	0.225092	0	0
0	0	0	-0.057074	6.026477	-11.080836	6.026477	45867.25	-6.428618E-10	-1.555544E+9	10.504109	0.223691	0	0
0	0	0	-0.059442	6.026524	-11.083636	6.026524	45808.5	-2.605215E-10	-3.838454E+9	10.4623	0.222726	0	0
0	0	0	-0.06177	6.02661	-11.086462	6.02661	45750.875	-1.236918E-10	-8.08461E+9	10.330751	0.222065	0	0
0	0	0	-0.064465	6.026557	-11.089454	6.026557	45684.375	-1.823974E-10	-5.482535E+9	10.328515	0.220769	0	0
0	0	0	-0.065241	6.02651	-11.090258	6.02651	45665.125	-3.128158E-10	-3.19677E+9	10.236379	0.220029	0	0
0	0	0	-0.067405	6.026305	-11.092363	6.026305	45611.75	1.440039E-10	6.944258E+9	10.164314	0.218865	0	0
0	0	0	-0.068263	6.026371	-11.093467	6.026371	45590.625	2.722234E-10	3.673453E+9	10.171781	0.217781	0	0
0	0	0	-0.069692	6.026318	-11.095008	6.026318	45555.5	1.587926E-10	6.297523E+9	10.08081	0.217107	0	0
0	0	0	-0.069733	6.026537	-11.095456	6.026537	45554.375	-2.214745E-10	-4.515193E+9	10.026526	0.216049	0	0
0	0	0	-0.070713	6.026537	-11.096579	6.026537	45530.375	-2.213578E-10	-4.517573E+9	9.999871	0.215123	0	0
0	0	0	-0.070386	6.026311	-11.095792	6.026311	45538.375	1.508826E-10	6.627669E+9	9.876364	0.21433	0	0
0	0	0	-0.071734	6.026311	-11.097337	6.026311	45505.25	1.507729E-10	6.632493E+9	9.863352	0.2131	0	0
0	0	0	-0.071979	6.026418	-11.097812	6.026418	45499.125	7.223263E-10	1.384416E+9	9.824014	0.212215	0	0
0	0	0	-0.073612	6.02651	-11.099854	6.02651	45459	-3.114038E-10	-3.211265E+9	9.716874	0.211501	0	0
0	0	0	-0.07447	6.026424	-11.100679	6.026424	45437.875	9.453768E-10	1.057779E+9	9.753829	0.210231	0	0
0	0	0	-0.074797	6.026464	-11.101127	6.026464	45429.875	-1.094812E-9	-9.133988E+8	9.67883	0.209531	0	0
0	0	0	-0.074919	6.026325	-11.101012	6.026325	45426.875	1.670349E-10	5.986772E+9	9.605428	0.208486	0	0
0	0	0	-0.075695	6.026424	-11.102083	6.026424	45407.875	9.447527E-10	1.058478E+9	9.578037	0.207468	0	0
0	0	0	-0.075164	6.026577	-11.101754	6.026577	45420.875	-1.53841E-10	-6.500219E+9	9.436004	0.206952	0	0
0	0	0	-0.074143	6.026544	-11.100523	6.026544	45446	-2.059985E-10	-4.854404E+9	9.440235	0.205617	0	0
0	0	0	-0.074511	6.026411	-11.100702	6.026411	45436.875	5.831507E-10	1.714823E+9	9.370003	0.204969	0	0
0	0	0	-0.074388	6.026404	-11.100549	6.026404	45439.875	4.894289E-10	2.043198E+9	9.274466	0.20411	0	0
0	0	0	-0.073531	6.026451	-11.099651	6.026451	45461	-3.904696E-9	-2.561019E+8	9.312053	0.20292	0	0
0	0	0	-0.072551	6.026617	-11.098832	6.026617	45485.125	-1.182032E-10	-8.460007E+9	9.185683	0.202431	0	0
0	0	0	-0.071693	6.026504	-11.097642	6.026504	45506.125	-3.472307E-10	-2.879929E+9	9.156951	0.20132	0	0
0	0	0	-0.071693	6.026371	-11.097399	6.026371	45506.125	2.717189E-10	3.680274E+9	9.130086	0.200421	0	0
0	0	0	-0.070999	6.026451	-11.096749	6.026451	45523.25	-3.910043E-9	-2.557517E+8	8.994701	0.199614	0	0
0	0	0	-0.070591	6.026471	-11.096317	6.026471	45533.25	-8.070114E-10	-1.23914E+9	9.004411	0.198491	0	0
0	0	0	-0.07104	6.026504	-11.096893	6.026504	45522.25	-3.473538E-10	-2.878909E+9	8.882895	0.19812	0	0
0	0	0	-0.069651	6.02655	-11.095387	6.02655	45556.375	-1.934127E-10	-5.170291E+9	8.849476	0.19697	0	0
0	0	0	-0.068671	6.026537	-11.094239	6.026537	45580.5	-2.216015E-10	-4.512605E+9	8.830173	0.196137	0	0
0	0	0	-0.068263	6.026391	-11.093504	6.026391	45590.625	3.715751E-10	2.691246E+9	8.735068	0.195357	0	0
0	0	0	-0.068385	6.026457	-11.093765	6.026457	45587.625	-1.715812E-9	-5.828143E+8	8.763198	0.194246	0	0
0	0	0	-0.067487	6.02663	-11.093052	6.02663	45609.75	-1.099938E-10	-9.09142E+9	8.652971	0.193929	0	0
0	0	0	-0.06859	6.026477	-11.094036	6.026477	45582.625	-6.388726E-10	-1.565257E+9	8.63437	0.192541	0	0
0	0	0	-0.067405	6.026544	-11.0928	6.026544	45611.75	-2.067498E-10	-4.836764E+9	8.575654	0.192012	0	0
0	0	0	-0.064833	6.026431	-11.089645	6.026431	45675.25	1.378386E-9	7.254863E+8	8.460359	0.191126	0	0
0	0	0	-0.063689	6.026411	-11.088297	6.026411	45703.5	5.865726E-10	1.704819E+9	8.468184	0.190015	0	0
0	0	0	-0.062995	6.02659	-11.08783	6.02659	45720.625	-1.406362E-10	-7.110545E+9	8.323483	0.189566	0	0
0	0	0	-0.062872	6.026477	-11.087483	6.026477	45723.625	-6.408488E-10	-1.56043E+9	8.314243	0.188336	0	0
0	0	0	-0.061892	6.026491	-11.086384	6.026491	45747.875	-4.520475E-10	-2.212157E+9	8.223335	0.187887	0	0
0	0	0	-0.063036	6.026471	-11.087658	6.026471	45719.625	-8.103146E-10	-1.234089E+9	8.165273	0.186922	0	0
0	0	0	-0.063199	6.026484	-11.087869	6.026484	45715.625	-5.298826E-10	-1.887211E+9	8.157541	0.186049	0	0
0	0	0	-0.064914	6.026471	-11.089811	6.026471	45673.25	-8.094927E-10	-1.235342E+9	8.053193	0.185388	0	0
0	0	0	-0.06667	6.026524	-11.091921	6.026524	45629.875	-2.595056E-10	-3.853481E+9	8.062011	0.184317	0	0
0	0	0	-0.068018	6.026437	-11.093308	6.026437	45596.625	2.503893E-9	3.993782E+8	7.946186	0.183894	0	0
0	0	0	-0.068835	6.026484	-11.094329	6.026484	45576.5	-5.2827E-10	-1.892971E+9	7.917213	0.182664	0	0
0	0	0	-0.069651	6.026537	-11.095362	6.026537	45556.375	-2.214842E-10	-4.514995E+9	7.835676	0.182228	0	0
0	0	0	-0.070876	6.026398	-11.096511	6.026398	45526.25	4.224424E-10	2.367187E+9	7.779023	0.181289	0	0
0	0	0	-0.071121	6.026331	-11.096671	6.026331	45520.25	1.770983E-10	5.646583E+9	7.737929	0.180602	0	0
0	0	0	-0.072796	6.026391	-11.098699	6.026391	45479.125	3.706663E-10	2.697844E+9	7.617001	0.179874	0	0
0	0	0	-0.073327	6.026477	-11.099466	6.026477	45466	-6.37238E-10	-1.569272E+9	7.634949	0.178909	0	0
0	0	0	-0.074347	6.026404	-11.100502	6.026404	45441	4.89441E-10	2.043147E+9	7.498765	0.178407	0	0
0	0	0	-0.074388	6.026537	-11.100792	6.026537	45439.875	-2.209178E-10	-4.52657E+9	7.486142	0.177151	0	0
0	0	0	-0.074797	6.026411	-11.101029	6.026411	45429.875	5.830608E-10	1.715087E+9	7.365455	0.17686	0	0
0	0	0	-0.07447	6.026437	-11.100704	6.026437	45437.875	2.495175E-9	4.007735E+8	7.359061	0.175763	0	0
0	0	0	-0.075246	6.026444	-11.101605	6.026444	45418.875	1.383109E-8	7.230086E+7	7.257572	0.175392	0	0
0	0	0	-0.075368	6.026424	-11.101709	6.026424	45415.875	9.449191E-10	1.058292E+9	7.212535	0.174414	0	0
0	0	0	-0.075858	6.026411	-11.102246	6.026411	45403.875	5.827271E-10	1.716069E+9	7.174204	0.173779	0	0
0	0	0	-0.076308	6.026444	-11.102822	6.026444	45392.875	1.382318E-8	7.234228E+7	7.09794	0.172986	0	0
0	0	0	-0.07643	6.026378	-11.102841	6.026378	45389.75	2.97543E-10	3.360859E+9	7.060588	0.172246	0	0
0	0	0	-0.076553	6.026404	-11.10303	6.026404	45386.75	4.888566E-10	2.045589E+9	6.97168	0.171585	0	0
0	0	0	-0.07741	6.026504	-11.104195	6.026504	45365.75	-3.461596E-10	-2.888841E+9	6.953578	0.170804	0	0
0	0	0	-0.076634	6.026457	-11.103221	6.026457	45384.75	-1.708177E-9	-5.854196E+8	6.862814	0.170196	0	0
0	0	0	-0.0779	6.026431	-11.104623	6.026431	45353.75	1.368684E-9	7.306291E+8	6.845543	0.169416	0	0
0	0	0	-0.077288	6.026577	-11.104188	6.026577	45368.75	-1.536644E-10	-6.507687E+9	6.731037	0.168676	0	0
0	0	0	-0.076879	6.026431	-11.103453	6.026431	45378.75	1.369438E-9	7.302266E+8	6.723096	0.167869	0	0
0	0	0	-0.077124	6.026597	-11.104038	6.026597	45372.75	-1.334394E-10	-7.494036E+9	6.609525	0.16734	0	0
0	0	0	-0.076063	6.026544	-11.102723	6.026544	45398.75	-2.057843E-10	-4.859457E+9	6.62297	0.166362	0	0
0	0	0	-0.075491	6.026437	-11.101874	6.026437	45412.875	2.493802E-9	4.009941E+8	6.490251	0.166005	0	0
0	0	0	-0.07496	6.02651	-11.101399	6.02651	45425.875	-3.111768E-10	-3.213607E+9	6.487817	0.164921	0	0
0	0	0	-0.075328	6.026318	-11.101468	6.026318	45416.875	1.583094E-10	6.316745E+9	6.381944	0.164458	0	0
0	0	0	-0.07496	6.026477	-11.101338	6.026477	45425.875	-6.366756E-10	-1.570659E+9	6.360789	0.163612	0	0
0	0	0	-0.075205	6.026398	-11.101473	6.026398	45419.875	4.214553E-10	2.372731E+9	6.244743	0.163162	0	0
0	0	0	-0.07447	6.026471	-11.100764	6.026471	45437.875	-8.05321E-10	-1.241741E+9	6.2368	0.162184	0	0
0	0	0	-0.074715	6.026477	-11.101057	6.026477	45431.875	-6.367597E-10	-1.570451E+9	6.126261	0.16188	0	0
0	0	0	-0.073408	6.02651	-11.09962	6.02651	45464	-3.11438E-10	-3.210912E+9	6.117183	0.160928	0	0
0	0	0	-0.07349	6.026464	-11.099629	6.026464	45462	-1.095586E-9	-9.127534E+8	6.009824	0.160333	0	0
0	0	0	-0.073245	6.026557	-11.099518	6.026557	45468	-1.815335E-10	-5.508626E+9	5.984186	0.159592	0	0
0	0	0	-0.072673	6.026484	-11.098729	6.026484	45482	-5.271747E-10	-1.896904E+9	5.899469	0.158958	0	0
0	0	0	-0.072265	6.026431	-11.098164	6.026431	45492.125	1.372859E-9	7.284067E+8	5.833748	0.158376	0	0
0	0	0	-0.073082	6.026418	-11.099076	6.026418	45472	7.218957E-10	1.385242E+9	5.737023	0.157622	0	0
0	0	0	-0.071285	6.026517	-11.097198	6.026517	45516.25	-2.828724E-10	-3.535163E+9	5.7023	0.156922	0	0
0	0	0	-0.069651	6.026192	-11.094731	6.026192	45556.375	7.985485E-11	1.252272E+10	5.64294	0.156234	0	0
0	0	0	-0.069774	6.026431	-11.095308	6.026431	45553.375	1.374708E-9	7.274273E+8	5.551384	0.155785	0	0
0	0	0	-0.069447	6.026444	-11.094958	6.026444	45561.5	1.387453E-8	7.207453E+7	5.520887	0.154819	0	0
0	0	0	-0.069284	6.02661	-11.095075	6.02661	45565.5	-1.231906E-10	-8.117501E+9	5.412179	0.154277	0	0
0	0	0	-0.069896	6.026331	-11.095267	6.026331	45550.375	1.772155E-10	5.642848E+9	5.370975	0.15355	0	0
0	0	0	-0.069406	6.026564	-11.09513	6.026564	45562.5	-1.716796E-10	-5.824805E+9	5.253612	0.152942	0	0
0	0	0	-0.070509	6.026537	-11.096345	6.026537	45535.375	-2.213821E-10	-4.517077E+9	5.233458	0.152268	0	0
0	0	0	-0.071611	6.026471	-11.097488	6.026471	45508.125	-8.065661E-10	-1.239824E+9	5.121158	0.15162	0	0
0	0	0	-0.072101	6.02653	-11.098159	6.02653	45496.125	-2.384989E-10	-4.192891E+9	5.086936	0.151104	0	0
0	0	0	-0.072265	6.02651	-11.098309	6.02651	45492.125	-3.116307E-10	-3.208927E+9	5.035043	0.150337	0	0
0	0	0	-0.073245	6.026398	-11.099226	6.026398	45468	4.219019E-10	2.370219E+9	4.982783	0.149861	0	0
0	0	0	-0.074102	6.026457	-11.100319	6.026457	45446.875	-1.710515E-9	-5.846193E+8	4.968546	0.149042	0	0
0	0	0	-0.07447	6.026378	-11.100594	6.026378	45437.875	2.978585E-10	3.357299E+9	4.874941	0.148539	0	0
0	0	0	-0.074919	6.026564	-11.101449	6.026564	45426.875	-1.711685E-10	-5.842195E+9	4.823611	0.148129	0	0
0	0	0	-0.07545	6.026378	-11.101718	6.026378	45413.875	2.977011E-10	3.359074E+9	4.750363	0.147217	0	0
0	0	0	-0.075818	6.026471	-11.102309	6.026471	45404.875	-8.047361E-10	-1.242643E+9	4.6461	0.146715	0	0
0	0	0	-0.076022	6.026444	-11.102494	6.026444	45399.75	1.382527E-8	7.233132E+7	4.591941	0.145974	0	0
0	0	0	-0.076103	6.026464	-11.102624	6.026464	45397.875	-1.094041E-9	-9.140426E+8	4.505382	0.145366	0	0
0	0	0	-0.076389	6.026404	-11.102843	6.026404	45390.75	4.888997E-10	2.045409E+9	4.435152	0.144824	0	0
0	0	0	-0.076308	6.026424	-11.102786	6.026424	45392.875	9.444406E-10	1.058828E+9	4.366423	0.144163	0	0
0	0	0	-0.076879	6.026491	-11.103562	6.026491	45378.75	-4.484001E-10	-2.230151E+9	4.294751	0.143568	0	0
0	0	0	-0.07692	6.026431	-11.1035	6.026431	45377.75	1.369408E-9	7.302426E+8	4.267658	0.143118	0	0
0	0	0	-0.077737	6.026351	-11.10429	6.026351	45357.75	2.136952E-10	4.679563E+9	4.188776	0.142457	0	0
0	0	0	-0.077655	6.026351	-11.104197	6.026351	45359.75	2.137046E-10	4.679356E+9	4.096694	0.141823	0	0
0	0	0	-0.077941	6.026451	-11.104707	6.026451	45352.75	-3.895398E-9	-2.567132E+8	4.049643	0.141175	0	0
0	0	0	-0.077859	6.026411	-11.10454	6.026411	45354.75	5.820966E-10	1.717928E+9	3.949815	0.140487	0	0
0	0	0	-0.078349	6.026298	-11.104895	6.026298	45342.75	1.36712E-10	7.314647E+9	3.890501	0.139998	0	0
0	0	0	-0.078064	6.026537	-11.105005	6.026537	45349.75	-2.204796E-10	-4.535566E+9	3.83142	0.139443	0	0
0	0	0	-0.077778	6.026444	-11.104507	6.026444	45356.75	1.381217E-8	7.239989E+7	3.785682	0.138914	0	0
0	0	0	-0.078064	6.026384	-11.104725	6.026384	45349.75	3.295238E-10	3.034682E+9	3.688399	0.138292	0	0
0	0	0	-0.07741	6.026391	-11.103989	6.026391	45365.75	3.697423E-10	2.704587E+9	3.644816	0.137618	0	0
0	0	0	-0.077084	6.026391	-11.103614	6.026391	45373.75	3.698075E-10	2.70411E+9	3.556316	0.137102	0	0
0	0	0	-0.07692	6.026437	-11.103512	6.026437	45377.75	2.491873E-9	4.013045E+8	3.502163	0.136587	0	0
0	0	0	-0.076675	6.026404	-11.10317	6.026404	45383.75	4.888243E-10	2.045725E+9	3.487354	0.136058	0	0
0	0	0	-0.076389	6.026457	-11.10294	6.026457	45390.75	-1.708402E-9	-5.853422E+8	3.4358	0.135397	0	0
0	0	0	-0.076022	6.026457	-11.102519	6.026457	45399.75	-1.708741E-9	-5.852261E+8	3.386695	0.134868	0	0
0	0	0	-0.076022	6.02651	-11.102616	6.02651	45399.75	-3.109979E-10	-3.215456E+9	3.343759	0.134458	0	0
0	0	0	-0.075532	6.026464	-11.101969	6.026464	45411.875	-1.094378E-9	-9.137608E+8	3.327394	0.133797	0	0
0	0	0	-0.075246	6.02657	-11.101836	6.02657	45418.875	-1.620256E-10	-6.171865E+9	3.318902	0.133096	0	0
0	0	0	-0.075164	6.02651	-11.101633	6.02651	45420.875	-3.111426E-10	-3.213961E+9	3.292731	0.132753	0	0
0	0	0	-0.075164	6.026477	-11.101572	6.026477	45420.875	-6.366056E-10	-1.570831E+9	3.256626	0.132277	0	0
0	0	0	-0.07545	6.026351	-11.101669	6.026351	45413.875	2.139596E-10	4.673779E+9	3.242353	0.13147	0	0
0	0	0	-0.074878	6.026564	-11.101402	6.026564	45427.875	-1.711723E-10	-5.842067E+9	3.21173	0.130822	0	0
0	0	0	-0.074592	6.026464	-11.100893	6.026464	45434.875	-1.094933E-9	-9.132983E+8	3.173498	0.130439	0	0
0	0	0	-0.074592	6.026544	-11.101038	6.026544	45434.875	-2.059481E-10	-4.855593E+9	3.16449	0.129645	0	0
0	0	0	-0.073122	6.026411	-11.09911	6.026411	45471	5.835886E-10	1.713536E+9	3.146876	0.129183	0	0
0	0	0	-0.072796	6.026437	-11.098784	6.026437	45479.125	2.49744E-9	4.0041E+8	3.144588	0.12872	0	0
0	0	0	-0.072551	6.02651	-11.098637	6.02651	45485.125	-3.115827E-10	-3.209421E+9	3.107681	0.128191	0	0
0	0	0	-0.071897	6.026497	-11.097864	6.026497	45501.125	-3.918189E-10	-2.5522E+9	3.09515	0.127437	0	0
0	0	0	-0.071856	6.026564	-11.097939	6.026564	45502.125	-1.714521E-10	-5.832534E+9	3.030648	0.126961	0	0
0	0	0	-0.071693	6.026437	-11.097521	6.026437	45506.125	2.498923E-9	4.001724E+8	2.99619	0.126605	0	0
0	0	0	-0.07251	6.026444	-11.098469	6.026444	45486.125	1.385157E-8	7.219397E+7	2.994772	0.125983	0	0
0	0	0	-0.071938	6.026457	-11.097838	6.026457	45500.125	-1.712519E-9	-5.839351E+8	2.965547	0.125322	0	0
0	0	0	-0.073122	6.026464	-11.099207	6.026464	45471	-1.095803E-9	-9.125727E+8	2.939583	0.124912	0	0
0	0	0	-0.073367	6.026584	-11.099707	6.026584	45465	-1.465799E-10	-6.822217E+9	2.914677	0.124621	0	0
0	0	0	-0.075246	6.026411	-11.101544	6.026411	45418.875	5.829196E-10	1.715502E+9	2.872836	0.12404	0	0
0	0	0	-0.07496	6.026497	-11.101375	6.026497	45425.875	-3.911709E-10	-2.556427E+9	2.850845	0.123259	0	0
0	0	0	-0.07545	6.026424	-11.101803	6.026424	45413.875	9.448775E-10	1.058338E+9	0	0	0	0
0	0	0	-0.075654	6.026564	-11.102292	6.026564	45408.875	-1.711007E-10	-5.844511E+9	0	0	0	0
0	0	0	-0.076185	6.026344	-11.102499	6.026344	45395.75	1.99822E-10	5.004453E+9	0	0	0	0
0	0	0	-0.076471	6.026344	-11.102827	6.026344	45388.75	1.997912E-10	5.005225E+9	0	0	0	0
0	0	0	-0.076185	6.026424	-11.102645	6.026424	45395.75	9.445004E-10	1.058761E+9	0	0	0	0
0	0	0	-0.076798	6.026424	-11.103347	6.026424	45380.75	9.441883E-10	1.059111E+9	0	0	0	0
0	0	0	-0.077247	6.026325	-11.10368	6.026325	45369.75	1.668249E-10	5.99431E+9	0	0	0	0
0	0	0	-0.077329	6.026437	-11.10398	6.026437	45367.75	2.491324E-9	4.01393E+8	0	0	0	0
0	0	0	-0.077288	6.026597	-11.104225	6.026597	45368.75	-1.334277E-10	-7.494697E+9	0	0	0	0
0	0	0	-0.077614	6.026464	-11.104356	6.026464	45360.75	-1.093146E-9	-9.147907E+8	0	0	0	0
0	0	0	-0.07741	6.026358	-11.103928	6.026358	45365.75	2.299003E-10	4.349712E+9	0	0	0	0
0	0	0	-0.07839	6.026477	-11.10527	6.026477	45341.75	-6.354966E-10	-1.573573E+9	0	0	0	0
0	0	0	-0.07884	6.02651	-11.105846	6.02651	45330.75	-3.105252E-10	-3.22035E+9	0	0	0	0
0	0	0	-0.078431	6.02667	-11.105669	6.02667	45340.75	-8.992323E-11	-1.11206E+10	0	0	0	0
0	0	0	-0.07888	6.026524	-11.105917	6.026524	45329.75	-2.577988E-10	-3.878994E+9	0	0	0	0
0	0	0	-0.079248	6.026384	-11.106083	6.026384	45320.75	3.293131E-10	3.036624E+9	0	0	0	0
0	0	0	-0.078799	6.026384	-11.105568	6.026384	45331.75	3.29393E-10	3.035887E+9	0	0	0	0
0	0	0	-0.07884	6.026364	-11.105578	6.026364	45330.75	2.485218E-10	4.023792E+9	0	0	0	0
0	0	0	-0.078594	6.026477	-11.105504	6.026477	45336.75	-6.354265E-10	-1.573746E+9	0	0	0	0
0	0	0	-0.078186	6.026391	-11.104878	6.026391	45346.75	3.695874E-10	2.70572E+9	0	0	0	0
0	0	0	-0.077982	0	-0.077982	0	45351.75	0	0	0	0	0	0
0	0	0	-0.077451	0	-0.077451	0	45364.75	0	0	0	0	0	0
