Vload_(V)	ILoad_(A)	RsLoad (ohm)	SunsVoc_Voltage_(V)	SunsVoc_Current_(A)	Model_Voltage_(V)	Model_Current_(A)	Carrier_Density_(cm-3)	Lifetime_(s)	Inverse_Lifetime_(s-1)	Efficiency_(%)	Intensity_(suns)	Dark_IV_Voltage_(V)	Dark_IV_Current_(A)
3.340753	6.398596	0	65.348633	-1.264947	65.731993	-1.264947	4.152195E+15	0.000227	4368.081391	19.609074	1.182886	0	0
3.356153	6.402816	-0.54932	65.286643	-0.969165	65.583523	-0.969165	4.09214E+15	0.000233	4261.242894	19.672262	1.181537	0	0
5.086822	6.388128	6.189062	65.147309	-0.580744	65.329463	-0.580744	3.959946E+15	0.000238	4172.527084	19.638396	1.180744	0	0
8.148249	6.370906	6.584668	65.003197	-0.186422	65.063083	-0.186422	3.827195E+15	0.000244	4074.434952	19.583072	1.179131	0	0
11.306219	6.368359	6.138045	64.840749	0.229821	64.764957	0.229821	3.682261E+15	0.000251	3968.287038	19.581256	1.176103	0	0
13.966345	6.360301	5.84744	64.671563	0.636856	64.455866	0.636856	3.536455E+15	0.000258	3860.390988	19.601044	1.173168	0	0
16.764058	6.350691	5.526306	64.501642	1.009081	64.150854	1.009081	3.395122E+15	0.000264	3762.412094	19.575815	1.171912	0	0
19.602888	6.349079	5.095717	64.331639	1.356054	63.848102	1.356054	3.258674E+15	0.000271	3668.613093	19.548318	1.170524	0	0
22.446298	6.34397	4.697396	64.164046	1.67992	63.550212	1.67992	3.128852E+15	0.000278	3576.360354	19.566001	1.167813	0	0
25.411767	6.3374	4.286724	63.996534	1.981194	63.255153	1.981194	3.003597E+15	0.000285	3488.509731	19.600732	1.164058	0	0
28.970734	6.235104	4.227083	63.830288	2.261322	62.964299	2.261322	2.883596E+15	0.000293	3404.061683	19.58899	1.160224	0	0
31.922482	6.236543	3.748861	63.664778	2.518275	62.678455	2.518275	2.768253E+15	0.000299	3326.436219	19.546229	1.15639	0	0
34.839637	6.230718	3.299503	63.505025	2.754914	62.402862	2.754914	2.660706E+15	0.000307	3250.509302	19.530294	1.152199	0	0
37.238022	6.321677	2.531184	63.344414	2.978199	62.127752	2.978199	2.556211E+15	0.000314	3176.687895	19.562335	1.14769	0	0
40.088651	6.306121	2.16825	63.185438	3.18512	61.857599	3.18512	2.456253E+15	0.000321	3106.556435	19.573262	1.143644	0	0
42.950647	6.298186	1.753081	63.027768	3.376195	61.592262	3.376195	2.360427E+15	0.000328	3041.008869	19.541065	1.139902	0	0
45.83572	6.279374	1.374811	62.871404	3.553893	61.331104	3.553893	2.268554E+15	0.000335	2978.647494	19.533312	1.135235	0	0
46.768885	6.272859	1.250491	62.719901	3.721804	61.077156	3.721804	2.182448E+15	0.000342	2913.861644	19.562579	1.129709	0	0
47.696035	6.270973	1.109689	62.56415	3.880196	60.819694	3.880196	2.096828E+15	0.00035	2853.827057	19.571467	1.124909	0	0
48.635133	6.252551	1.021212	62.414361	4.026308	60.572482	4.026308	2.017179E+15	0.000357	2794.793473	19.539346	1.120546	0	0
49.561311	6.229044	0.941411	62.260734	4.161884	60.323191	4.161884	1.938152E+15	0.000364	2742.907821	19.524983	1.115614	0	0
50.499738	6.193852	0.877386	62.11507	4.285998	60.086895	4.285998	1.865642E+15	0.000371	2691.734506	19.551997	1.110392	0	0
51.436553	6.15141	0.813393	61.966629	4.401089	59.849616	4.401089	1.794107E+15	0.000377	2646.910313	19.571064	1.105037	0	0
52.373156	6.089691	0.766602	61.824926	4.509495	59.622144	4.509495	1.727977E+15	0.000384	2599.351479	19.553053	1.09992	0	0
53.302985	6.015233	0.71763	61.679058	4.611948	59.390832	4.611948	1.662045E+15	0.000391	2556.188579	19.527753	1.094539	0	0
54.229156	5.91432	0.677355	61.535231	4.707573	59.163934	4.707573	1.599107E+15	0.000397	2514.86548	19.546631	1.088867	0	0
55.142826	5.784629	0.642885	61.392426	4.797012	58.94003	4.797012	1.538594E+15	0.000403	2475.779355	19.572652	1.083525	0	0
56.061337	5.62195	0.607659	61.253581	4.880718	58.722735	4.880718	1.481601E+15	0.00041	2436.866021	19.546822	1.078911	0	0
56.956126	5.415418	0.579528	61.112082	4.959738	58.503333	4.959738	1.425337E+15	0.000416	2401.407794	19.521949	1.073979	0	0
57.862944	5.153917	0.553745	60.968215	5.034223	58.282178	5.034223	1.369962E+15	0.000422	2369.347095	19.560037	1.067924	0	0
58.731301	4.835904	0.533014	60.830147	5.104385	58.069592	5.104385	1.318512E+15	0.000428	2335.392744	19.583778	1.06241	0	0
59.602673	4.449059	0.512272	60.692691	5.17129	57.858549	5.17129	1.268892E+15	0.000434	2301.436315	19.553256	1.057188	0	0
60.443026	3.996557	0.494988	60.556051	5.234786	57.649474	5.234786	1.221112E+15	0.00044	2267.920467	19.517675	1.05182	0	0
61.280351	3.458877	0.477026	60.412307	5.293644	57.43301	5.293644	1.172467E+15	0.000445	2242.726419	19.545216	1.045844	0	0
62.059491	2.877085	0.465173	60.281384	5.347794	57.234771	5.347794	1.129569E+15	0.000451	2213.950849	19.571883	1.040039	0	0
62.814054	2.235204	0.453516	60.150381	5.398239	57.037817	5.398239	1.087954E+15	0.000457	2188.415271	19.549061	1.034314	0	0
63.490185	1.583212	0.462865	60.021541	5.446562	56.844191	5.446562	1.048274E+15	0.000462	2161.655424	19.523411	1.028232	0	0
64.097125	0.952582	0.480162	59.89017	5.492281	56.648183	5.492281	1.009056E+15	0.000467	2137.942259	19.542904	1.02186	0	0
53.510458	5.993404	0.709719	59.768109	5.536758	56.464308	5.536758	9.737148E+14	0.000474	2106.902918	19.564799	1.015712	0	0
64.99528	0	0	59.638657	5.577702	56.272431	5.577702	9.373613E+14	0.000479	2084.736854	19.543734	1.01	0	0
0	0	0	59.510267	5.6159	56.083049	5.6159	9.024254E+14	0.000484	2064.775322	19.512286	1.004592	0	0
0	0	0	59.387839	5.652359	55.901958	5.652359	8.701254E+14	0.000489	2041.75079	19.541853	0.998484	0	0
0	0	0	59.260061	5.686775	55.714721	5.686775	8.374442E+14	0.000494	2023.672196	19.568609	0.992679	0	0
0	0	0	59.135551	5.718968	55.532671	5.718968	8.065871E+14	0.000498	2006.138977	19.539791	0.987325	0	0
0	0	0	59.01349	5.749889	55.354201	5.749889	7.772619E+14	0.000503	1987.178178	19.509381	0.981692	0	0
0	0	0	58.895881	5.77909	55.182244	5.77909	7.498521E+14	0.000508	1967.156922	19.533311	0.975994	0	0
0	0	0	58.770186	5.807323	54.999998	5.807323	7.214544E+14	0.000512	1951.468918	19.556576	0.970613	0	0
0	0	0	58.649514	5.834046	54.824933	5.834046	6.950428E+14	0.000517	1934.131259	19.538745	0.965509	0	0
0	0	0	58.530516	5.859277	54.652706	5.859277	6.697951E+14	0.000521	1917.387302	19.507556	0.960353	0	0
0	0	0	58.405474	5.88373	54.472769	5.88373	6.440983E+14	0.000525	1903.531761	19.536713	0.95476	0	0
0	0	0	58.290764	5.906213	54.307383	5.906213	6.212581E+14	0.00053	1887.378172	19.556478	0.949498	0	0
0	0	0	58.169153	5.927967	54.133166	5.927967	5.977919E+14	0.000533	1874.849694	19.52472	0.944513	0	0
0	0	0	58.051094	5.948747	53.964005	5.948747	5.757307E+14	0.000537	1860.773934	19.501432	0.939476	0	0
0	0	0	57.936262	5.967835	53.799999	5.967835	5.549363E+14	0.000541	1848.619763	19.529318	0.934055	0	0
0	0	0	57.816202	5.986672	53.629063	5.986672	5.33879E+14	0.000544	1837.540387	19.549045	0.929004	0	0
0	0	0	57.704882	6.00387	53.470546	6.00387	5.149643E+14	0.000548	1825.527915	19.516944	0.924139	0	0
0	0	0	57.585965	6.020843	53.301986	6.020843	4.953917E+14	0.000551	1816.088519	19.496286	0.918863	0	0
0	0	0	57.472644	6.036886	53.141253	6.036886	4.773337E+14	0.000554	1804.773622	19.527159	0.913416	0	0
0	0	0	57.361609	6.051937	52.984061	6.051937	4.601889E+14	0.000557	1794.138452	19.544104	0.908312	0	0
0	0	0	57.245102	6.065776	52.820358	6.065776	4.427692E+14	0.000558	1790.307292	19.50514	0.903711	0	0
0	0	0	57.136681	6.079346	52.667355	6.079346	4.270703E+14	0.000562	1780.460504	19.49165	0.898528	0	0
0	0	0	57.024462	6.092145	52.509754	6.092145	4.113288E+14	0.000563	1774.505285	19.519222	0.893411	0	0
0	0	0	56.91453	6.104429	52.355407	6.104429	3.963964E+14	0.000566	1767.560394	19.526024	0.888533	0	0
0	0	0	56.803863	6.116183	52.200347	6.116183	3.818405E+14	0.000568	1761.641877	19.487208	0.883826	0	0
0	0	0	56.695442	6.127243	52.048645	6.127243	3.680323E+14	0.000569	1756.17202	19.486647	0.878854	0	0
0	0	0	56.588083	6.138312	51.898215	6.138312	3.547896E+14	0.000572	1747.425182	19.52171	0.873592	0	0
0	0	0	56.483051	6.147681	51.752049	6.147681	3.422384E+14	0.000573	1746.319367	19.515395	0.86907	0	0
0	0	0	56.373976	6.157723	51.599906	6.157723	3.296171E+14	0.000574	1740.636901	19.47685	0.864601	0	0
0	0	0	56.26968	6.167449	51.454222	6.167449	3.179325E+14	0.000577	1731.754257	19.475319	0.859511	0	0
0	0	0	56.167588	6.175598	51.312593	6.175598	3.068495E+14	0.000578	1731.053554	19.508042	0.854553	0	0
0	0	0	56.056064	6.184617	51.157684	6.184617	2.951333E+14	0.000579	1726.993625	19.490245	0.850111	0	0
0	0	0	55.957116	6.193327	51.019593	6.193327	2.850716E+14	0.000583	1715.178597	19.449251	0.845734	0	0
0	0	0	55.84988	6.200096	50.871976	6.200096	2.745116E+14	0.000581	1722.43844	19.460734	0.841067	0	0
0	0	0	55.743949	6.208581	50.724626	6.208581	2.644233E+14	0.000584	1711.7189	19.493403	0.836387	0	0
0	0	0	55.644798	6.214783	50.588038	6.214783	2.552815E+14	0.000583	1715.156242	19.472612	0.832208	0	0
0	0	0	55.540583	6.222189	50.443676	6.222189	2.459785E+14	0.000585	1708.312196	19.438663	0.82774	0	0
0	0	0	55.439472	6.227843	50.304799	6.227843	2.372442E+14	0.000583	1714.439734	19.450785	0.822914	0	0
0	0	0	55.33738	6.235159	50.163181	6.235159	2.287092E+14	0.000587	1702.236201	19.479722	0.818352	0	0
0	0	0	55.232798	6.240465	50.019854	6.240465	2.202537E+14	0.000585	1710.20483	19.442696	0.814439	0	0
0	0	0	55.131727	6.247307	49.879844	6.247307	2.123517E+14	0.000589	1697.101743	19.408219	0.810142	0	0
0	0	0	55.029227	6.251838	49.739817	6.251838	2.046011E+14	0.000585	1708.644648	19.439182	0.80558	0	0
0	0	0	54.928239	6.257804	49.600527	6.257804	1.972169E+14	0.000588	1700.561317	19.458789	0.801124	0	0
0	0	0	54.825208	6.263149	49.45899	6.263149	1.899342E+14	0.000589	1698.727619	19.414608	0.797145	0	0
0	0	0	54.725158	6.267131	49.322536	6.267131	1.830981E+14	0.000585	1710.35429	19.386542	0.792742	0	0
0	0	0	54.625354	6.273167	49.184584	6.273167	1.765036E+14	0.000591	1692.796636	19.428447	0.788035	0	0
0	0	0	54.523344	6.277153	49.045424	6.277153	1.699893E+14	0.000588	1701.823331	19.43091	0.784016	0	0
0	0	0	54.422927	6.280803	48.908634	6.280803	1.637932E+14	0.000584	1713.108534	19.373334	0.779983	0	0
0	0	0	54.32349	6.285988	48.771755	6.285988	1.578633E+14	0.000588	1699.223434	19.364538	0.775448	0	0
0	0	0	54.221112	6.290258	48.631721	6.290258	1.519657E+14	0.000589	1698.240792	19.409275	0.771045	0	0
0	0	0	54.125636	6.292968	48.502223	6.292968	1.466502E+14	0.000583	1715.785952	19.396177	0.767132	0	0
0	0	0	54.027261	6.29694	48.367703	6.29694	1.413541E+14	0.000584	1713.135534	19.343749	0.763139	0	0
0	0	0	53.927497	6.300965	48.231245	6.300965	1.361653E+14	0.000585	1707.99933	19.354299	0.758723	0	0
0	0	0	53.835043	6.30416	48.105233	6.30416	1.315156E+14	0.000585	1710.507315	19.386687	0.754465	0	0
0	0	0	53.737076	6.306486	47.972643	6.306486	1.267507E+14	0.000578	1731.10183	19.367472	0.750591	0	0
0	0	0	53.63719	6.309589	47.836759	6.309589	1.220591E+14	0.000576	1737.092784	19.319258	0.746546	0	0
0	0	0	53.544042	6.313638	47.708943	6.313638	1.178311E+14	0.000582	1717.564916	19.335359	0.742407	0	0
0	0	0	53.446279	6.316629	47.575922	6.316629	1.135418E+14	0.000581	1719.688856	19.36253	0.738216	0	0
0	0	0	53.349129	6.318557	47.44468	6.318557	1.094252E+14	0.000574	1742.425094	19.319383	0.73462	0	0
0	0	0	53.254878	6.320616	47.317159	6.320616	1.055663E+14	0.000568	1759.648037	19.300113	0.730494	0	0
0	0	0	53.159647	6.323831	47.187219	6.323831	1.01798E+14	0.000572	1749.553267	19.328646	0.726078	0	0
0	0	0	53.060251	6.326789	47.05194	6.326789	9.800072E+13	0.000573	1745.443525	19.322719	0.722271	0	0
0	0	0	52.963468	6.329752	46.920108	6.329752	9.44326E+13	0.000576	1736.657037	19.283515	0.718516	0	0
0	0	0	52.86546	6.331329	46.787944	6.331329	9.094518E+13	0.000568	1761.93722	19.272477	0.714271	0	0
0	0	0	52.768065	6.333003	46.656486	6.333003	8.760109E+13	0.000561	1783.68073	19.299797	0.710067	0	0
0	0	0	52.66924	6.335026	46.522768	6.335026	8.432781E+13	0.000557	1795.784991	19.277313	0.706431	0	0
0	0	0	52.571437	6.337287	46.390156	6.337287	8.120341E+13	0.000556	1798.531079	19.239833	0.702795	0	0
0	0	0	52.471999	6.340033	46.254868	6.340033	7.814036E+13	0.00056	1785.321952	19.252364	0.69863	0	0
0	0	0	52.372685	6.341987	46.120496	6.341987	7.51916E+13	0.000558	1793.455975	19.281284	0.694479	0	0
0	0	0	52.273901	6.344254	45.986501	6.344254	7.236454E+13	0.000559	1788.884697	19.236842	0.691094	0	0
0	0	0	52.171891	6.345369	45.849326	6.345369	6.955232E+13	0.000549	1823.019672	19.199121	0.687299	0	0
0	0	0	52.072618	6.346612	45.715662	6.346612	6.691654E+13	0.00054	1850.588822	19.226331	0.683293	0	0
0	0	0	51.972486	6.348286	45.580405	6.348286	6.435547E+13	0.000537	1862.247569	19.239427	0.679446	0	0
0	0	0	51.870803	6.349939	45.443084	6.349939	6.185148E+13	0.000534	1874.000069	19.180063	0.67622	0	0
0	0	0	51.771938	6.35206	45.309026	6.35206	5.950715E+13	0.000537	1862.905841	19.156061	0.672372	0	0
0	0	0	51.664987	6.354282	45.164055	6.354282	5.706777E+13	0.000541	1849.796364	19.20408	0.668419	0	0
0	0	0	51.553503	6.356108	45.013417	6.356108	5.462803E+13	0.00054	1852.756306	19.200917	0.664902	0	0
0	0	0	51.450758	6.357372	44.875002	6.357372	5.24692E+13	0.000534	1871.615221	19.132245	0.661596	0	0
0	0	0	51.342541	6.358261	44.72966	6.358261	5.028488E+13	0.000523	1910.801371	19.13052	0.657921	0	0
0	0	0	51.244452	6.359129	44.597847	6.359129	4.838144E+13	0.000515	1943.2559	19.173184	0.65406	0	0
0	0	0	51.136276	6.360224	44.452322	6.360224	4.636343E+13	0.000507	1971.536742	19.142507	0.650927	0	0
0	0	0	51.024873	6.36108	44.302734	6.36108	4.437089E+13	0.000496	2014.152118	19.093086	0.647383	0	0
0	0	0	50.918004	6.362424	44.158666	6.362424	4.253793E+13	0.000494	2025.658221	19.117151	0.643523	0	0
0	0	0	50.813258	6.363744	44.017443	6.363744	4.081311E+13	0.000492	2034.199726	19.134425	0.640111	0	0
0	0	0	50.704429	6.365388	43.870407	6.365388	3.909338E+13	0.000494	2023.564735	19.088171	0.636938	0	0
0	0	0	50.598703	6.366873	43.727667	6.366873	3.749056E+13	0.000496	2015.684409	19.071556	0.633263	0	0
0	0	0	50.485585	6.368056	43.575369	6.368056	3.584683E+13	0.000493	2029.471246	19.106668	0.62964	0	0
0	0	0	50.376266	6.369312	43.42805	6.369312	3.432539E+13	0.000492	2032.320338	19.085457	0.626427	0	0
0	0	0	50.263475	6.370269	43.276407	6.370269	3.282195E+13	0.000486	2055.895002	19.036335	0.623029	0	0
0	0	0	50.150235	6.370909	43.124505	6.370909	3.137752E+13	0.000476	2101.975764	19.044895	0.619512	0	0
0	0	0	50.03283	6.371598	42.966977	6.371598	2.994583E+13	0.000466	2147.642095	19.084036	0.615876	0	0
0	0	0	49.912444	6.372149	42.805615	6.372149	2.854442E+13	0.000453	2207.093262	19.027473	0.612888	0	0
0	0	0	49.790832	6.372746	42.642559	6.372746	2.719423E+13	0.000442	2264.379291	18.995322	0.609477	0	0
0	0	0	49.669303	6.373448	42.479486	6.373448	2.590774E+13	0.000432	2312.319811	19.02492	0.60596	0	0
0	0	0	49.546466	6.374366	42.314413	6.374366	2.466833E+13	0.000427	2339.856432	19.022625	0.602694	0	0
0	0	0	49.419097	6.374906	42.143706	6.374906	2.344486E+13	0.000415	2407.060719	18.953143	0.59968	0	0
0	0	0	49.286215	6.375869	41.965144	6.375869	2.223218E+13	0.000411	2435.148308	18.944852	0.596268	0	0
0	0	0	49.155048	6.376663	41.789054	6.376663	2.109589E+13	0.000404	2476.665962	18.993697	0.592831	0	0
0	0	0	49.015141	6.377534	41.601193	6.377534	1.994704E+13	0.000398	2515.289094	18.956882	0.589948	0	0
0	0	0	48.878625	6.378314	41.417952	6.378314	1.888566E+13	0.000391	2558.302165	18.893536	0.586881	0	0
0	0	0	48.731205	6.379132	41.220092	6.379132	1.780215E+13	0.000384	2604.561455	18.916585	0.583364	0	0
0	0	0	48.587051	6.380277	41.026195	6.380277	1.680216E+13	0.000385	2597.152432	18.940119	0.580231	0	0
0	0	0	48.435384	6.381161	40.822555	6.381161	1.581003E+13	0.000381	2626.950004	18.879301	0.577533	0	0
0	0	0	48.283064	6.381863	40.618248	6.381863	1.487204E+13	0.000373	2680.250991	18.856623	0.574479	0	0
0	0	0	48.120493	6.382495	40.400321	6.382495	1.393171E+13	0.000363	2753.053398	18.888061	0.571081	0	0
0	0	0	47.957065	6.383042	40.181341	6.383042	1.304585E+13	0.000352	2840.132725	18.860718	0.568318	0	0
0	0	0	47.782897	6.383654	39.947925	6.383654	1.216322E+13	0.000342	2926.440846	18.813184	0.565436	0	0
0	0	0	47.603257	6.384015	39.707497	6.384015	1.131493E+13	0.000326	3069.83965	18.839183	0.562183	0	0
0	0	0	47.411897	6.384457	39.451304	6.384457	1.047584E+13	0.000311	3215.175258	18.851974	0.559248	0	0
0	0	0	47.212288	6.384685	39.184351	6.384685	9.666419E+12	0.000292	3428.166805	18.791462	0.556498	0	0
0	0	0	47.004348	6.385178	38.905927	6.385178	8.889281E+12	0.000278	3595.615324	18.764068	0.553523	0	0
0	0	0	46.781788	6.385448	38.608247	6.385448	8.126241E+12	0.000259	3854.156752	18.800756	0.550442	0	0
0	0	0	46.547019	6.385845	38.294083	6.385845	7.391882E+12	0.000243	4109.093577	18.776636	0.547745	0	0
0	0	0	46.297099	6.386271	37.959631	6.386271	6.682606E+12	0.000228	4393.622058	18.712859	0.54514	0	0
0	0	0	46.037215	6.386465	37.61216	6.386465	6.016865E+12	0.000208	4802.890307	18.722651	0.54202	0	0
0	0	0	45.762834	6.386753	37.245189	6.386753	5.385581E+12	0.000191	5238.233787	18.750162	0.539138	0	0
0	0	0	45.478448	6.387126	36.864729	6.387126	4.800875E+12	0.000176	5691.278423	18.695303	0.536692	0	0
0	0	0	45.181729	6.387392	36.467926	6.387392	4.258191E+12	0.00016	6267.974995	18.667278	0.533704	0	0
0	0	0	44.873127	6.387874	36.054938	6.387874	3.758596E+12	0.000147	6795.172263	18.700782	0.53061	0	0
0	0	0	44.551171	6.388129	35.62441	6.388129	3.299617E+12	0.000132	7556.562539	18.676853	0.528309	0	0
0	0	0	44.218108	6.388598	35.178729	6.388598	2.883592E+12	0.000121	8259.295929	18.620741	0.525612	0	0
0	0	0	43.868343	6.388866	34.711002	6.388866	2.502958E+12	0.000108	9260.067986	18.644024	0.522637	0	0
0	0	0	43.504693	6.389306	34.224464	6.389306	2.160319E+12	9.762352E-5	10243.433622	18.664517	0.51994	0	0
0	0	0	43.121891	6.389697	33.712389	6.389697	1.850124E+12	8.728047E-5	11457.316832	18.582757	0.517732	0	0
0	0	0	42.717364	6.390055	33.171318	6.390055	1.570544E+12	7.719299E-5	12954.544184	18.566542	0.514876	0	0
0	0	0	42.283842	6.390653	32.591124	6.390653	1.31761E+12	6.964077E-5	14359.405229	18.614168	0.51202	0	0
0	0	0	41.81998	6.390892	31.970911	6.390892	1.091877E+12	5.949664E-5	16807.671394	18.597408	0.509587	0	0
0	0	0	41.335413	6.391522	31.322407	6.391522	8.972348E+11	5.324505E-5	18781.08891	18.518636	0.507234	0	0
0	0	0	40.830713	6.391514	30.647983	6.391514	7.312835E+11	4.33481E-5	23069.063944	18.531503	0.504457	0	0
0	0	0	40.298163	6.392377	29.934931	6.392377	5.893251E+11	3.978081E-5	25137.750441	18.552802	0.501866	0	0
0	0	0	39.744501	6.392425	29.19496	6.392425	4.70869E+11	3.203355E-5	31217.271141	18.494699	0.499684	0	0
0	0	0	39.168296	6.392816	28.424287	6.392816	3.727953E+11	2.707391E-5	36935.924985	18.478395	0.496921	0	0
0	0	0	38.567509	6.393217	27.620718	6.393217	2.922183E+11	2.280543E-5	43849.211644	18.509856	0.494171	0	0
0	0	0	37.935154	6.393623	26.774929	6.393623	2.261424E+11	1.908849E-5	52387.587485	18.452004	0.492082	0	0
0	0	0	37.277358	6.394019	25.89513	6.394019	1.732102E+11	1.588563E-5	62949.988815	18.402524	0.489623	0	0
0	0	0	36.590446	6.394159	24.976856	6.394159	1.311098E+11	1.240361E-5	80621.709451	18.445973	0.486648	0	0
0	0	0	35.874621	6.394338	24.019857	6.394338	9.808517E+10	9.671417E-6	103397.464464	18.442389	0.484281	0	0
0	0	0	35.128455	6.394678	23.021991	6.394678	7.248148E+10	7.767153E-6	128747.304982	18.364076	0.482047	0	0
0	0	0	34.366118	6.394939	22.002639	6.394939	5.321103E+10	6.108521E-6	163705.754934	18.35512	0.479363	0	0
0	0	0	33.582423	6.395255	20.954613	6.395255	3.872704E+10	4.86568E-6	205521.136358	18.396274	0.476679	0	0
0	0	0	32.771735	6.395167	19.871297	6.395167	2.787873E+10	3.41331E-6	292970.746306	18.34914	0.47455	0	0
0	0	0	31.944181	6.395537	18.764506	6.395537	1.993248E+10	2.735342E-6	365584.953501	18.302533	0.472011	0	0
0	0	0	31.117567	6.395849	17.659058	6.395849	1.425655E+10	2.178959E-6	458934.691541	18.329445	0.469288	0	0
0	0	0	30.285032	6.395893	16.546246	6.395893	1.017242E+10	1.579997E-6	632912.712523	18.308474	0.467146	0	0
0	0	0	29.448249	6.396035	15.427538	6.396035	7.2458E+9	1.187909E-6	841815.05314	18.247241	0.464911	0	0
0	0	0	28.603054	6.396191	14.297543	6.396191	5.143595E+9	8.979503E-7	1113647.349406	18.245588	0.46228	0	0
0	0	0	27.751407	6.396241	13.159153	6.396241	3.641757E+9	6.492531E-7	1540231.461049	18.27484	0.459768	0	0
0	0	0	26.896861	6.396517	12.016358	6.396517	2.575399E+9	5.199524E-7	1923252.86378	18.192642	0.457851	0	0
0	0	0	26.035862	6.396806	10.864881	6.396806	1.816527E+9	4.260305E-7	2347250.011115	18.178407	0.455286	0	0
0	0	0	25.175149	6.396764	9.714562	6.396764	1.281414E+9	2.936271E-7	3405680.134183	18.221212	0.452748	0	0
0	0	0	24.31705	6.396926	8.567236	6.396926	9.04893E+8	2.275062E-7	4395484.289011	18.174283	0.450751	0	0
0	0	0	23.449518	6.397004	7.407499	6.397004	6.365668E+8	1.678516E-7	5957641.79504	18.117572	0.448464	0	0
0	0	0	22.579127	6.397004	6.244133	6.397004	4.472882E+8	1.17948E-7	8478314.8413	18.14553	0.445885	0	0
0	0	0	21.731972	6.397067	5.111659	6.397067	3.17265E+8	8.713738E-8	1.147613E+7	18.143699	0.443651	0	0
0	0	0	20.897476	6.397385	3.995429	6.397385	2.261965E+8	7.840053E-8	1.275502E+7	18.065676	0.441826	0	0
0	0	0	20.076905	6.3973	2.898864	6.3973	1.621816E+8	5.254357E-8	1.903182E+7	18.086746	0.439209	0	0
0	0	0	19.268423	6.397272	1.818309	6.397272	1.168546E+8	3.705261E-8	2.698865E+7	18.102449	0.436855	0	0
0	0	0	18.47705	6.397314	0.760431	6.397314	8.478177E+7	2.777043E-8	3.600952E+7	18.016066	0.435097	0	0
0	0	0	17.709649	6.397624	-0.266163	6.397624	6.211266E+7	2.684236E-8	3.725454E+7	17.996567	0.432598	0	0
0	0	0	16.960012	6.397483	-1.267753	6.397483	4.583376E+7	1.729673E-8	5.78144E+7	18.042364	0.430191	0	0
0	0	0	16.230017	6.397716	-2.244155	6.397716	3.409177E+7	1.626805E-8	6.147019E+7	17.983522	0.42834	0	0
0	0	0	15.526035	6.397653	-3.18494	6.397653	2.562677E+7	1.140605E-8	8.767276E+7	17.919431	0.426317	0	0
0	0	0	14.844023	6.397723	-4.09675	6.397723	1.943599E+7	9.349525E-9	1.069573E+8	17.961006	0.423713	0	0
0	0	0	14.178673	6.397758	-4.98619	6.397758	1.484066E+7	7.439502E-9	1.344176E+8	17.948827	0.42173	0	0
0	0	0	13.528268	6.397921	-5.856038	6.397921	1.140069E+7	7.087461E-9	1.410943E+8	17.869584	0.419892	0	0
0	0	0	12.911105	6.397871	-6.680819	6.397871	8876922.75	5.14267E-9	1.944515E+8	17.896593	0.417393	0	0
0	0	0	12.314074	6.397949	-7.479079	6.397949	6968486.625	4.520906E-9	2.211946E+8	17.906584	0.415251	0	0
0	0	0	11.74322	6.398012	-8.242311	6.398012	5528707	3.976797E-9	2.514587E+8	17.803386	0.413638	0	0
0	0	0	11.194539	6.398026	-8.975751	6.398026	4426016.875	3.262456E-9	3.065175E+8	17.798938	0.411377	0	0
0	0	0	10.669544	6.397885	-9.677041	6.397885	3577445.375	2.113657E-9	4.731138E+8	17.850169	0.409024	0	0
0	0	0	10.165294	6.398076	-10.351656	6.398076	2915987.75	2.35333E-9	4.249298E+8	17.798112	0.407305	0	0
0	0	0	9.676235	6.39797	-11.005019	6.39797	2391515.5	1.603962E-9	6.234563E+8	17.737288	0.405361	0	0
0	0	0	9.209187	6.398203	-11.630058	6.398203	1978957	2.112485E-9	4.733761E+8	17.781539	0.402955	0	0
0	0	0	8.761904	6.3984	-12.228573	6.3984	1650743.75	3.538205E-9	2.826292E+8	17.73301	0.40117	0	0
0	0	0	8.332956	6.398203	-12.801285	6.398203	1387239.5	1.480843E-9	6.752912E+8	17.652752	0.399359	0	0
0	0	0	7.919526	6.398083	-13.353503	6.398083	1173155.625	9.597976E-10	1.041886E+9	17.6981	0.396992	0	0
0	0	0	7.521002	6.398336	-13.887043	6.398336	998123.625	1.615878E-9	6.188586E+8	17.689112	0.395062	0	0
0	0	0	7.137138	6.398322	-14.400096	6.398322	854268.5	1.311664E-9	7.623903E+8	17.603454	0.39321	0	0
0	0	0	6.771202	6.398132	-14.888589	6.398132	736480.125	6.666583E-10	1.500019E+9	17.621608	0.390897	0	0
0	0	0	6.421069	6.398358	-15.357366	6.398358	639013.875	1.126385E-9	8.877962E+8	17.642957	0.389019	0	0
0	0	0	6.085637	6.39828	-15.805463	6.39828	557761.125	7.416522E-10	1.348341E+9	17.571749	0.387367	0	0
0	0	0	5.759189	6.398203	-16.241549	6.398203	488616.25	5.215856E-10	1.917231E+9	17.557519	0.385238	0	0
0	0	0	5.446013	6.398386	-16.660793	6.398386	430352.75	8.604706E-10	1.162155E+9	17.577709	0.383003	0	0
0	0	0	5.142353	6.39828	-17.066322	6.39828	380501.75	5.059514E-10	1.976475E+9	17.488032	0.38139	0	0
0	0	0	4.84837	6.398428	-17.459795	6.398428	337748	8.457015E-10	1.18245E+9	17.45905	0.3795	0	0
0	0	0	4.561656	6.39847	-17.843187	6.39847	300683	1.006962E-9	9.930857E+8	17.521323	0.377186	0	0
0	0	0	4.294217	6.398456	-18.200617	6.398456	269785.625	8.121358E-10	1.231321E+9	17.468465	0.375758	0	0
0	0	0	4.030617	6.398477	-18.553041	6.398477	242440.125	8.602976E-10	1.162388E+9	17.404307	0.373841	0	0
0	0	0	3.779227	6.398336	-18.888569	6.398336	218947.75	3.544582E-10	2.821207E+9	17.442514	0.371646	0	0
0	0	0	3.544335	6.398435	-19.202894	6.398435	199058.625	5.203116E-10	1.921925E+9	17.400363	0.370086	0	0
0	0	0	3.317529	6.398534	-19.506413	6.398534	181570.5	1.231365E-9	8.121067E+8	17.3247	0.368486	0	0
0	0	0	3.094438	6.398301	-19.803781	6.398301	165868.625	2.363916E-10	4.230269E+9	17.367578	0.366212	0	0
0	0	0	2.874697	6.398379	-20.097781	6.398379	151730.375	2.935217E-10	3.406904E+9	17.36571	0.364572	0	0
0	0	0	2.657854	6.398435	-20.387832	6.398435	138960.5	3.632234E-10	2.753126E+9	17.264325	0.363078	0	0
0	0	0	2.447505	6.39852	-20.669307	6.39852	127600.875	7.048084E-10	1.418825E+9	17.283362	0.360884	0	0
0	0	0	2.241444	6.398506	-20.944694	6.398506	117373.625	5.468596E-10	1.828623E+9	17.301975	0.359112	0	0
0	0	0	2.041835	6.398294	-21.210739	6.398294	108249	1.506674E-10	6.637135E+9	17.220136	0.357697	0	0
0	0	0	1.861582	6.398548	-21.452602	6.398548	100620.25	8.836736E-10	1.13164E+9	17.223918	0.355727	0	0
0	0	0	1.709629	6.398527	-21.655638	6.398527	94608.375	5.760059E-10	1.736093E+9	17.240916	0.353863	0	0
0	0	0	1.570621	6.398555	-21.841551	6.398555	89423.875	9.212168E-10	1.085521E+9	17.140318	0.352726	0	0
0	0	0	1.434554	6.398344	-22.022654	6.398344	84624.25	1.408286E-10	7.100832E+9	17.137162	0.350637	0	0
0	0	0	1.305387	6.398555	-22.196084	6.398555	80306.75	8.27295E-10	1.208759E+9	17.166162	0.348865	0	0
0	0	0	1.179325	6.39852	-22.36446	6.39852	76305.375	4.214758E-10	2.372616E+9	17.10017	0.347503	0	0
0	0	0	1.055835	6.39864	-22.529968	6.39864	72579	-6.947953E-10	-1.439273E+9	17.073798	0.345679	0	0
0	0	0	0.941248	6.398492	-22.682589	6.398492	69284.25	2.791235E-10	3.582644E+9	17.095124	0.343788	0	0
0	0	0	0.828947	6.398583	-22.833038	6.398583	66200.5	2.214509E-9	4.515674E+8	17.005733	0.342677	0	0
0	0	0	0.718688	6.398781	-22.981151	6.398781	63306.25	-1.43764E-10	-6.955844E+9	16.9672	0.340906	0	0
0	0	0	0.616515	6.39871	-23.117464	6.39871	60737.375	-2.229674E-10	-4.48496E+9	17.020124	0.33883	0	0
0	0	0	0.51618	6.398541	-23.250953	6.398541	58316.25	4.463199E-10	2.240545E+9	16.965689	0.337666	0	0
0	0	0	0.416783	6.398583	-23.383971	6.398583	56012.875	1.873717E-9	5.336985E+8	16.908966	0.336	0	0
0	0	0	0.326453	6.398414	-23.504085	6.398414	53998.625	1.2472E-10	8.017961E+9	16.946464	0.33403	0	0
0	0	0	0.241839	6.398365	-23.617001	6.398365	52177.625	9.477889E-11	1.055087E+10	16.888558	0.332867	0	0
0	0	0	0.163188	6.398548	-23.722817	6.398548	50540	4.438557E-10	2.252985E+9	16.827389	0.331294	0	0
0	0	0	0.101852	6.398647	-23.805173	6.398647	49298.75	-4.065697E-10	-2.459603E+9	16.892694	0.329271	0	0
0	0	0	0.052235	6.398633	-23.871442	6.398633	48316.875	-5.511434E-10	-1.81441E+9	16.835305	0.328094	0	0
0	0	0	0.001271	6.398703	-23.939829	6.398703	47328.875	-1.851603E-10	-5.400727E+9	16.746267	0.3266	0	0
0	0	0	-0.019392	6.398513	-23.966737	6.398513	46934	2.372349E-10	4.215232E+9	16.798233	0.324564	0	0
0	0	0	-0.05002	6.398724	-24.008468	6.398724	46354.75	-1.514894E-10	-6.601124E+9	16.742983	0.323427	0	0
0	0	0	-0.07542	6.3984	-24.041206	6.3984	45879.875	9.83391E-11	1.016889E+10	16.681648	0.321933	0	0
0	0	0	-0.082526	6.398477	-24.050994	6.398477	45747.875	1.623361E-10	6.160058E+9	16.747162	0.319936	0	0
0	0	0	-0.086283	6.398618	-24.056544	6.398618	45678.25	-8.446754E-10	-1.183887E+9	16.705654	0.318812	0	0
0	0	0	-0.093225	6.39859	-24.065718	6.39859	45549.875	3.477193E-9	2.875883E+8	16.610754	0.317345	0	0
0	0	0	-0.10421	6.39847	-24.079952	6.39847	45347.375	1.518646E-10	6.584811E+9	16.646946	0.315467	0	0
0	0	0	-0.114256	6.398752	-24.094437	6.398752	45163.125	-1.210253E-10	-8.262735E+9	16.616795	0.314238	0	0
0	0	0	-0.123036	6.398626	-24.105698	6.398626	45002.625	-6.349824E-10	-1.574847E+9	16.533211	0.312955	0	0
0	0	0	-0.127609	6.398696	-24.112076	6.398696	44919.25	-1.880915E-10	-5.316561E+9	16.576566	0.311078	0	0
0	0	0	-0.133204	6.398682	-24.119501	6.398682	44817.5	-2.183799E-10	-4.579176E+9	16.544691	0.309848	0	0
0	0	0	-0.138798	6.398781	-24.127349	6.398781	44716	-1.015469E-10	-9.84767E+9	16.452863	0.308552	0	0
0	0	0	-0.1428	6.398767	-24.132646	6.398767	44643.5	-1.09754E-10	-9.111285E+9	16.508418	0.306477	0	0
0	0	0	-0.144556	6.398569	-24.134253	6.398569	44611.625	7.027365E-10	1.423009E+9	16.457964	0.305353	0	0
0	0	0	-0.147129	6.398604	-24.137824	6.398604	44565.125	-2.175062E-9	-4.597571E+8	16.386044	0.304097	0	0
0	0	0	-0.150314	6.398689	-24.142399	6.398689	44507.625	-2.004653E-10	-4.988394E+9	16.441152	0.302193	0	0
0	0	0	-0.151172	6.398675	-24.143492	6.398675	44492.25	-2.361173E-10	-4.235183E+9	16.385109	0.301109	0	0
0	0	0	-0.152683	6.398477	-24.144772	6.398477	44465	1.577839E-10	6.337784E+9	16.297023	0.299786	0	0
0	0	0	-0.153908	6.398661	-24.147097	6.398661	44442.875	-2.870169E-10	-3.484115E+9	16.350837	0.297949	0	0
0	0	0	-0.154643	6.398456	-24.147313	6.398456	44429.625	1.337466E-10	7.476828E+9	16.289161	0.296864	0	0
0	0	0	-0.154684	6.398717	-24.148345	6.398717	44428.875	-1.536273E-10	-6.509259E+9	16.212457	0.295476	0	0
0	0	0	-0.155746	6.398527	-24.149051	6.398527	44409.75	2.703807E-10	3.698488E+9	16.283248	0.293665	0	0
0	0	0	-0.155827	6.398492	-24.149028	6.398492	44408.25	1.789062E-10	5.58952E+9	16.22506	0.2927	0	0
0	0	0	-0.156358	6.398463	-24.149632	6.398463	44398.75	1.407704E-10	7.103765E+9	16.163242	0.291166	0	0
0	0	0	-0.156277	6.398527	-24.14976	6.398527	44400.25	2.703229E-10	3.69928E+9	16.210984	0.2895	0	0
0	0	0	-0.156644	6.398569	-24.15041	6.398569	44393.625	6.993025E-10	1.429996E+9	16.116981	0.288535	0	0
0	0	0	-0.157093	6.398534	-24.150878	6.398534	44385.5	3.010113E-10	3.322134E+9	16.058836	0.287107	0	0
0	0	0	-0.156889	6.398647	-24.151029	6.398647	44389.125	-3.660797E-10	-2.731646E+9	16.118823	0.28552	0	0
0	0	0	-0.157502	6.398569	-24.151557	6.398569	44378.125	6.990583E-10	1.430496E+9	16.050172	0.284436	0	0
0	0	0	-0.157992	6.398647	-24.152502	6.398647	44369.375	-3.659168E-10	-2.732862E+9	15.99235	0.283127	0	0
0	0	0	-0.157787	6.398689	-24.152388	6.398689	44373	-1.998589E-10	-5.003529E+9	16.040741	0.281514	0	0
0	0	0	-0.157624	6.398555	-24.151667	6.398555	44376	4.571477E-10	2.187477E+9	15.93385	0.280602	0	0
0	0	0	-0.158482	6.398414	-24.152285	6.398414	44360.5	1.024589E-10	9.760009E+9	15.904121	0.279068	0	0
0	0	0	-0.159053	6.398555	-24.153578	6.398555	44350.25	4.568825E-10	2.188747E+9	15.941626	0.277667	0	0
0	0	0	-0.15987	6.398576	-24.154749	6.398576	44335.625	9.496079E-10	1.053066E+9	15.860184	0.276701	0	0
0	0	0	-0.159462	6.398499	-24.153912	6.398499	44342.875	1.916068E-10	5.219022E+9	15.865496	0.275062	0	0
0	0	0	-0.158931	6.398647	-24.153758	6.398647	44352.5	-3.657777E-10	-2.733901E+9	15.869495	0.273727	0	0
0	0	0	-0.159135	6.39852	-24.153555	6.39852	44348.75	2.449621E-10	4.082264E+9	15.746731	0.272827	0	0
0	0	0	-0.15889	6.398407	-24.152804	6.398407	44353.125	9.861657E-11	1.014028E+10	15.776224	0.271069	0	0
0	0	0	-0.159258	6.39847	-24.153534	6.39847	44346.5	1.485128E-10	6.733427E+9	15.770159	0.270011	0	0
0	0	0	-0.158849	6.398611	-24.153516	6.398611	44353.875	-1.189638E-9	-8.405918E+8	15.658802	0.268954	0	0
0	0	0	-0.159053	6.398633	-24.153869	6.398633	44350.25	-5.058967E-10	-1.976688E+9	15.731037	0.267169	0	0
0	0	0	-0.159053	6.39864	-24.153895	6.39864	44350.25	-4.245628E-10	-2.355364E+9	15.688527	0.266177	0	0
0	0	0	-0.158073	6.398597	-24.152426	6.398597	44367.875	-1.200832E-8	-8.32756E+7	15.579501	0.265291	0	0
0	0	0	-0.158563	6.398548	-24.152896	6.398548	44359.125	3.895736E-10	2.566909E+9	15.648216	0.263453	0	0
0	0	0	-0.157869	6.39883	-24.153026	6.39883	44371.5	-7.953179E-11	-1.257359E+10	15.572636	0.262634	0	0
0	0	0	-0.158523	6.398421	-24.152366	6.398421	44359.75	1.065919E-10	9.381579E+9	15.515326	0.261259	0	0
0	0	0	-0.15742	6.398386	-24.15076	6.398386	44379.625	8.873505E-11	1.12695E+10	15.549282	0.259831	0	0
0	0	0	-0.157787	6.398597	-24.152044	6.398597	44373	-1.200971E-8	-8.326599E+7	15.466007	0.258945	0	0
0	0	0	-0.157787	6.398449	-24.151489	6.398449	44373	1.27148E-10	7.864851E+9	15.418217	0.257596	0	0
0	0	0	-0.157992	6.398562	-24.152185	6.398562	44369.375	5.527028E-10	1.809291E+9	15.455065	0.256248	0	0
0	0	0	-0.157992	6.398604	-24.152344	6.398604	44369.375	-2.165508E-9	-4.617855E+8	15.344576	0.255375	0	0
0	0	0	-0.157461	6.398456	-24.151079	6.398456	44378.875	1.335938E-10	7.485378E+9	15.361189	0.253934	0	0
0	0	0	-0.157706	6.398569	-24.151829	6.398569	44374.5	6.990012E-10	1.430613E+9	15.360011	0.252889	0	0
0	0	0	-0.157787	6.398576	-24.151965	6.398576	44373	9.504084E-10	1.052179E+9	15.257735	0.251977	0	0
0	0	0	-0.157542	6.398781	-24.152404	6.398781	44377.375	-1.007779E-10	-9.922813E+9	15.31543	0.250285	0	0
0	0	0	-0.15693	6.39852	-24.150607	6.39852	44388.375	2.45181E-10	4.07862E+9	15.261688	0.249346	0	0
0	0	0	-0.156603	6.398597	-24.150461	6.398597	44394.375	-1.201549E-8	-8.322589E+7	15.157931	0.248367	0	0
0	0	0	-0.156767	6.398499	-24.15031	6.398499	44391.375	1.918164E-10	5.21332E+9	15.221284	0.246847	0	0
0	0	0	-0.157583	6.398654	-24.151983	6.398654	44376.625	-3.214539E-10	-3.110866E+9	15.11161	0.246146	0	0
0	0	0	-0.157175	6.398562	-24.151093	6.398562	44384	5.52885E-10	1.808694E+9	15.073551	0.244903	0	0
0	0	0	-0.157951	6.398569	-24.152157	6.398569	44370	6.989303E-10	1.430758E+9	15.128274	0.243608	0	0
0	0	0	-0.157502	6.398654	-24.151874	6.398654	44378.125	-3.214648E-10	-3.110761E+9	15.02595	0.242854	0	0
0	0	0	-0.157461	6.398506	-24.151264	6.398506	44378.875	2.067672E-10	4.836356E+9	15.040118	0.241334	0	0
0	0	0	-0.15889	6.398548	-24.153333	6.398548	44353.125	3.895209E-10	2.567256E+9	15.033061	0.240329	0	0
0	0	0	-0.158727	6.398626	-24.153406	6.398626	44356.125	-6.258603E-10	-1.597801E+9	14.907177	0.239522	0	0
0	0	0	-0.158768	6.39864	-24.153513	6.39864	44355.375	-4.246119E-10	-2.355092E+9	14.964165	0.237962	0	0
0	0	0	-0.158686	6.398654	-24.153457	6.398654	44356.875	-3.213108E-10	-3.112251E+9	14.87965	0.237235	0	0
0	0	0	-0.159298	6.398534	-24.153826	6.398534	44345.875	3.007426E-10	3.325102E+9	14.829122	0.236151	0	0
0	0	0	-0.159258	6.398738	-24.154538	6.398738	44346.5	-1.305914E-10	-7.657474E+9	14.885256	0.234802	0	0
0	0	0	-0.159421	6.398555	-24.154069	6.398555	44343.625	4.568142E-10	2.189074E+9	14.763574	0.23422	0	0
0	0	0	-0.159829	6.398527	-24.154509	6.398527	44336.25	2.699332E-10	3.70462E+9	14.781034	0.232885	0	0
0	0	0	-0.159993	6.398485	-24.154569	6.398485	44333.375	1.672862E-10	5.97778E+9	14.777016	0.231748	0	0
0	0	0	-0.160483	6.398626	-24.155753	6.398626	44324.5	-6.254141E-10	-1.598941E+9	14.653312	0.231074	0	0
0	0	0	-0.16036	6.398576	-24.155404	6.398576	44326.75	9.494178E-10	1.053277E+9	14.700899	0.2295	0	0
0	0	0	-0.159748	6.398456	-24.154136	6.398456	44337.75	1.3347E-10	7.492321E+9	14.621996	0.228918	0	0
0	0	0	-0.159911	6.398344	-24.153931	6.398344	44334.875	7.378047E-11	1.355372E+10	14.571289	0.227742	0	0
0	0	0	-0.160074	6.398485	-24.154678	6.398485	44331.875	1.672805E-10	5.977983E+9	14.635613	0.226486	0	0
0	0	0	-0.161953	6.398548	-24.157427	6.398548	44298.125	3.890379E-10	2.570444E+9	14.518148	0.22593	0	0
0	0	0	-0.162075	6.398731	-24.158278	6.398731	44296	-1.372295E-10	-7.287064E+9	14.532179	0.224463	0	0
0	0	0	-0.162565	6.398597	-24.158431	6.398597	44287.125	-1.198646E-8	-8.342744E+7	14.508192	0.22359	0	0
0	0	0	-0.161789	6.39852	-24.157103	6.39852	44301.125	2.44699E-10	4.086653E+9	14.394013	0.222757	0	0
0	0	0	-0.16232	6.398654	-24.158315	6.398654	44291.5	-3.208373E-10	-3.116845E+9	14.453121	0.221356	0	0
0	0	0	-0.16232	6.398485	-24.15768	6.398485	44291.5	1.671282E-10	5.983432E+9	14.34194	0.2208	0	0
0	0	0	-0.161504	6.398548	-24.156827	6.398548	44306.25	3.891093E-10	2.569972E+9	14.321031	0.219571	0	0
0	0	0	-0.161095	6.398506	-24.156122	6.398506	44313.5	2.064626E-10	4.843491E+9	14.354495	0.218513	0	0
0	0	0	-0.161054	6.398618	-24.156491	6.398618	44314.25	-8.194525E-10	-1.220327E+9	14.25832	0.217759	0	0
0	0	0	-0.161381	6.398583	-24.156795	6.398583	44308.375	1.482184E-9	6.746801E+8	14.299849	0.216411	0	0
0	0	0	-0.161014	6.398541	-24.156145	6.398541	44315	3.391622E-10	2.948442E+9	14.23462	0.215697	0	0
0	0	0	-0.159993	6.398541	-24.15478	6.398541	44333.375	3.393028E-10	2.94722E+9	14.148335	0.214666	0	0
0	0	0	-0.159788	6.398527	-24.154455	6.398527	44337	2.699378E-10	3.704557E+9	14.186879	0.213502	0	0
0	0	0	-0.159707	6.398618	-24.154689	6.398618	44338.5	-8.199009E-10	-1.21966E+9	14.058442	0.212841	0	0
0	0	0	-0.159503	6.398654	-24.154548	6.398654	44342.125	-3.21204E-10	-3.113286E+9	14.077909	0.211532	0	0
0	0	0	-0.159135	6.398633	-24.153978	6.398633	44348.75	-5.058796E-10	-1.976755E+9	14.032518	0.210818	0	0
0	0	0	-0.159421	6.39852	-24.153937	6.39852	44343.625	2.449338E-10	4.082736E+9	13.962252	0.209866	0	0
0	0	0	-0.159503	6.39852	-24.154046	6.39852	44342.125	2.449255E-10	4.082874E+9	14.026481	0.208504	0	0
0	0	0	-0.159053	6.398703	-24.154133	6.398703	44350.25	-1.735073E-10	-5.763447E+9	13.913981	0.208174	0	0
0	0	0	-0.159013	6.398604	-24.153708	6.398604	44351	-2.164611E-9	-4.619768E+8	13.937366	0.206772	0	0
0	0	0	-0.158278	6.398506	-24.152356	6.398506	44364.25	2.066991E-10	4.837951E+9	13.896086	0.206058	0	0
0	0	0	-0.159135	6.398661	-24.154084	6.398661	44348.75	-2.86409E-10	-3.49151E+9	13.783557	0.20508	0	0
0	0	0	-0.158604	6.398717	-24.153586	6.398717	44358.25	-1.533831E-10	-6.519623E+9	13.810345	0.203982	0	0
0	0	0	-0.158563	6.398435	-24.152473	6.398435	44359.125	1.159486E-10	8.624511E+9	13.682353	0.203401	0	0
0	0	0	-0.1584	6.39859	-24.152837	6.39859	44362	3.386513E-9	2.95289E+8	13.71128	0.201999	0	0
0	0	0	-0.158155	6.39847	-24.15206	6.39847	44366.375	1.485793E-10	6.73041E+9	13.687712	0.201338	0	0
0	0	0	-0.157338	6.398597	-24.151444	6.398597	44381.125	-1.20119E-8	-8.325074E+7	13.617672	0.200439	0	0
0	0	0	-0.15791	6.398569	-24.152102	6.398569	44370.875	6.989441E-10	1.43073E+9	13.691514	0.199355	0	0
0	0	0	-0.158196	6.398703	-24.152987	6.398703	44365.625	-1.735674E-10	-5.76145E+9	13.57142	0.198747	0	0
0	0	0	-0.158155	6.398562	-24.152403	6.398562	44366.375	5.526654E-10	1.809413E+9	13.574678	0.197543	0	0
0	0	0	-0.158808	6.398745	-24.153964	6.398745	44354.625	-1.2446E-10	-8.03471E+9	13.525483	0.196935	0	0
0	0	0	-0.158931	6.398752	-24.154154	6.398752	44352.5	-1.18853E-10	-8.413752E+9	13.449267	0.195997	0	0
0	0	0	-0.159217	6.398647	-24.15414	6.398647	44347.375	-3.657354E-10	-2.734217E+9	13.482292	0.195031	0	0
0	0	0	-0.159707	6.398731	-24.155112	6.398731	44338.5	-1.373611E-10	-7.28008E+9	13.356289	0.19437	0	0
0	0	0	-0.159543	6.398499	-24.154021	6.398499	44341.375	1.916003E-10	5.219198E+9	13.40041	0.193194	0	0
0	0	0	-0.160115	6.398611	-24.155209	6.398611	44331.125	-1.189028E-9	-8.410232E+8	13.342956	0.192493	0	0
0	0	0	-0.159707	6.398492	-24.154213	6.398492	44338.5	1.786252E-10	5.598313E+9	13.279048	0.191633	0	0
0	0	0	-0.160891	6.398597	-24.156193	6.398597	44317.25	-1.199462E-8	-8.337073E+7	13.304398	0.190602	0	0
0	0	0	-0.160524	6.398597	-24.155702	6.398597	44323.875	-1.199641E-8	-8.335827E+7	13.175791	0.190166	0	0
0	0	0	-0.161381	6.398569	-24.156742	6.398569	44308.375	6.979596E-10	1.432748E+9	13.251996	0.188897	0	0
0	0	0	-0.160442	6.398555	-24.155434	6.398555	44325.25	4.566249E-10	2.189981E+9	13.114636	0.188566	0	0
0	0	0	-0.160442	6.398604	-24.155619	6.398604	44325.25	-2.163354E-9	-4.622452E+8	13.114055	0.187336	0	0
0	0	0	-0.160973	6.39852	-24.156011	6.39852	44315.75	2.447798E-10	4.085304E+9	13.081101	0.186622	0	0
0	0	0	-0.161381	6.398393	-24.156081	6.398393	44308.375	9.167086E-11	1.090859E+10	12.96878	0.185922	0	0
0	0	0	-0.16232	6.39859	-24.158077	6.39859	44291.5	3.381131E-9	2.95759E+8	13.033478	0.184745	0	0
0	0	0	-0.162443	6.398463	-24.157765	6.398463	44289.375	1.404236E-10	7.121308E+9	12.899593	0.184414	0	0
0	0	0	-0.162688	6.398456	-24.158066	6.398456	44285	1.333112E-10	7.501245E+9	12.946414	0.183079	0	0
0	0	0	-0.1633	6.398781	-24.160101	6.398781	44273.875	-1.005428E-10	-9.94601E+9	12.851591	0.182735	0	0
0	0	0	-0.164035	6.398569	-24.16029	6.398569	44260.75	6.972094E-10	1.434289E+9	12.831018	0.181625	0	0
0	0	0	-0.16326	6.398618	-24.159438	6.398618	44274.75	-8.187221E-10	-1.221416E+9	12.844574	0.18099	0	0
0	0	0	-0.163668	6.398365	-24.159032	6.398365	44267.375	8.041019E-11	1.243624E+10	12.725383	0.180329	0	0
0	0	0	-0.163505	6.398442	-24.159105	6.398442	44270.25	1.210293E-10	8.262465E+9	12.781372	0.179271	0	0
0	0	0	-0.162565	6.39847	-24.157955	6.39847	44287.125	1.483139E-10	6.742454E+9	12.675382	0.178729	0	0
0	0	0	-0.16424	6.39871	-24.161092	6.39871	44257.125	-1.624683E-10	-6.155047E+9	12.685207	0.177658	0	0
0	0	0	-0.16183	6.398661	-24.157686	6.398661	44300.375	-2.860966E-10	-3.495323E+9	12.618021	0.17709	0	0
0	0	0	-0.162688	6.398583	-24.158542	6.398583	44285	1.481402E-9	6.750362E+8	12.550367	0.176257	0	0
0	0	0	-0.161667	6.398562	-24.157098	6.398562	44303.25	5.518791E-10	1.811991E+9	12.540661	0.175529	0	0
0	0	0	-0.160891	6.398626	-24.156299	6.398626	44317.25	-6.253118E-10	-1.599202E+9	12.433192	0.174882	0	0
0	0	0	-0.161054	6.398738	-24.15694	6.398738	44314.25	-1.304964E-10	-7.663047E+9	12.492244	0.173824	0	0
0	0	0	-0.160646	6.398492	-24.155469	6.398492	44321.625	1.785573E-10	5.600445E+9	12.377809	0.173467	0	0
0	0	0	-0.160483	6.398661	-24.155885	6.398661	44324.5	-2.862524E-10	-3.49342E+9	12.427952	0.172224	0	0
0	0	0	-0.160238	6.398562	-24.155187	6.398562	44329	5.521999E-10	1.810939E+9	12.31653	0.172026	0	0
0	0	0	-0.159421	6.398745	-24.154783	6.398745	44343.625	-1.244291E-10	-8.036703E+9	12.324284	0.170809	0	0
0	0	0	-0.159421	6.398689	-24.154571	6.398689	44343.625	-1.997266E-10	-5.006843E+9	12.28001	0.170386	0	0
0	0	0	-0.159952	6.398506	-24.154594	6.398506	44334.125	2.065587E-10	4.841238E+9	12.214294	0.169606	0	0
0	0	0	-0.159911	6.398668	-24.155147	6.398668	44334.875	-2.583038E-10	-3.87141E+9	12.249948	0.168853	0	0
0	0	0	-0.159339	6.398682	-24.154436	6.398682	44345.125	-2.160782E-10	-4.627954E+9	12.142566	0.168284	0	0
0	0	0	-0.159911	6.39859	-24.154856	6.39859	44334.875	3.384443E-9	2.954696E+8	12.188856	0.167279	0	0
0	0	0	-0.159543	6.398626	-24.154497	6.398626	44341.375	-6.256522E-10	-1.598332E+9	12.062246	0.166777	0	0
0	0	0	-0.15889	6.39864	-24.153677	6.39864	44353.125	-4.245903E-10	-2.355211E+9	12.084358	0.165812	0	0
0	0	0	-0.158645	6.398611	-24.153244	6.398611	44357.625	-1.189739E-9	-8.405207E+8	11.997926	0.165428	0	0
0	0	0	-0.158686	6.39859	-24.153219	6.39859	44356.875	3.386122E-9	2.953231E+8	11.976001	0.164516	0	0
0	0	0	-0.158237	6.398541	-24.152433	6.398541	44364.875	3.395439E-10	2.945127E+9	11.932947	0.163947	0	0
0	0	0	-0.158645	6.398499	-24.152821	6.398499	44357.625	1.916705E-10	5.217286E+9	11.830852	0.163273	0	0
0	0	0	-0.157992	6.398675	-24.152608	6.398675	44369.375	-2.354652E-10	-4.246912E+9	11.837182	0.162533	0	0
0	0	0	-0.158441	6.398647	-24.153103	6.398647	44361.25	-3.658498E-10	-2.733362E+9	11.739424	0.161924	0	0
0	0	0	-0.158523	6.398604	-24.153053	6.398604	44359.75	-2.165038E-9	-4.618857E+8	11.793876	0.161012	0	0
0	0	0	-0.158441	6.398611	-24.152971	6.398611	44361.25	-1.189836E-9	-8.40452E+8	11.672266	0.160629	0	0
0	0	0	-0.159339	6.398626	-24.154224	6.398626	44345.125	-6.257051E-10	-1.598197E+9	11.731503	0.159663	0	0
0	0	0	-0.159788	6.398724	-24.155195	6.398724	44337	-1.448953E-10	-6.901537E+9	11.58896	0.159412	0	0
0	0	0	-0.160115	6.398795	-24.155896	6.398795	44331.125	-9.353798E-11	-1.069084E+10	11.646578	0.158249	0	0
0	0	0	-0.160524	6.398407	-24.154988	6.398407	44323.875	9.855154E-11	1.014698E+10	11.519084	0.158077	0	0
0	0	0	-0.160891	6.398583	-24.15614	6.398583	44317.25	1.482481E-9	6.74545E+8	11.547811	0.156953	0	0
0	0	0	-0.161299	6.398541	-24.156527	6.398541	44309.875	3.39123E-10	2.948783E+9	11.493264	0.156675	0	0
0	0	0	-0.161667	6.39859	-24.157204	6.39859	44303.25	3.382028E-9	2.956805E+8	11.479143	0.155763	0	0
0	0	0	-0.161218	6.398477	-24.15618	6.398477	44311.375	1.572387E-10	6.359756E+9	11.432692	0.155353	0	0
0	0	0	-0.161463	6.398569	-24.156851	6.398569	44306.875	6.97936E-10	1.432796E+9	11.388357	0.154547	0	0
0	0	0	-0.161218	6.398442	-24.156048	6.398442	44311.375	1.211417E-10	8.254797E+9	11.364462	0.153939	0	0
0	0	0	-0.161994	6.398597	-24.157667	6.398597	44297.375	-1.198924E-8	-8.340814E+7	11.265342	0.153225	0	0
0	0	0	-0.162402	6.398569	-24.158107	6.398569	44290.125	6.976721E-10	1.433338E+9	11.277135	0.15259	0	0
0	0	0	-0.162116	6.398611	-24.157883	6.398611	44295.25	-1.188066E-9	-8.417043E+8	11.15609	0.15214	0	0
0	0	0	-0.162565	6.398562	-24.158299	6.398562	44287.125	5.516782E-10	1.812651E+9	11.204499	0.151268	0	0
0	0	0	-0.162729	6.398703	-24.159046	6.398703	44284.25	-1.732491E-10	-5.772037E+9	11.071974	0.150937	0	0
0	0	0	-0.16424	6.398724	-24.161145	6.398724	44257.125	-1.446342E-10	-6.913993E+9	11.153221	0.149985	0	0
0	0	0	-0.164403	6.398618	-24.160967	6.398618	44254.125	-8.183407E-10	-1.221985E+9	11.009276	0.149575	0	0
0	0	0	-0.163872	6.398562	-24.160045	6.398562	44263.625	5.513855E-10	1.813613E+9	11.051049	0.148809	0	0
0	0	0	-0.165996	6.398534	-24.162778	6.398534	44225.625	2.999271E-10	3.334143E+9	10.922314	0.148504	0	0
0	0	0	-0.165996	6.398626	-24.163122	6.398626	44225.625	-6.24019E-10	-1.602515E+9	10.966447	0.147526	0	0
0	0	0	-0.165546	6.398618	-24.162495	6.398618	44233.625	-8.179616E-10	-1.222551E+9	10.873712	0.147222	0	0
0	0	0	-0.162361	6.398661	-24.158396	6.398661	44290.875	-2.860353E-10	-3.496072E+9	10.901559	0.146296	0	0
0	0	0	-0.163382	6.39871	-24.159946	6.39871	44272.5	-1.625247E-10	-6.15291E+9	10.770463	0.146058	0	0
0	0	0	-0.16281	6.398534	-24.15852	6.398534	44282.75	3.003145E-10	3.329842E+9	10.810209	0.145014	0	0
0	0	0	-0.161708	6.398604	-24.157311	6.398604	44302.5	-2.162244E-9	-4.624825E+8	10.664242	0.144842	0	0
0	0	0	-0.161953	6.398781	-24.1583	6.398781	44298.125	-1.005979E-10	-9.940565E+9	10.708676	0.144009	0	0
0	0	0	-0.16281	6.398675	-24.159049	6.398675	44282.75	-2.350055E-10	-4.25522E+9	10.593358	0.143626	0	0
0	0	0	-0.161994	6.39864	-24.157825	6.39864	44297.375	-4.240566E-10	-2.358176E+9	10.630891	0.142647	0	0
0	0	0	-0.16134	6.398442	-24.156212	6.398442	44309.125	1.211355E-10	8.255216E+9	10.529019	0.142475	0	0
0	0	0	-0.160483	6.398456	-24.155118	6.398456	44324.5	1.334301E-10	7.494561E+9	10.519138	0.14151	0	0
0	0	0	-0.160238	6.398534	-24.155082	6.398534	44329	3.006282E-10	3.326368E+9	10.416261	0.141233	0	0
0	0	0	-0.160401	6.398633	-24.15567	6.398633	44326	-5.056201E-10	-1.97777E+9	10.435606	0.140281	0	0
0	0	0	-0.159993	6.398548	-24.154807	6.398548	44333.375	3.893475E-10	2.5684E+9	10.345804	0.140082	0	0
0	0	0	-0.160033	6.398569	-24.154941	6.398569	44332.625	6.983416E-10	1.431964E+9	10.373711	0.13913	0	0
0	0	0	-0.160687	6.398675	-24.156211	6.398675	44320.875	-2.352078E-10	-4.25156E+9	10.240896	0.138839	0	0
0	0	0	-0.160809	6.398661	-24.156322	6.398661	44318.625	-2.862145E-10	-3.493883E+9	10.287779	0.137901	0	0
0	0	0	-0.159788	6.39859	-24.154693	6.39859	44337	3.384605E-9	2.954555E+8	10.175197	0.137742	0	0
0	0	0	-0.159748	6.398626	-24.15477	6.398626	44337.75	-6.25601E-10	-1.598463E+9	10.194575	0.136803	0	0
0	0	0	-0.158972	6.398767	-24.154262	6.398767	44351.75	-1.090367E-10	-9.17122E+9	10.059656	0.136724	0	0
0	0	0	-0.159217	6.398583	-24.153902	6.398583	44347.375	1.483488E-9	6.740868E+8	10.106465	0.135613	0	0
0	0	0	-0.159094	6.398774	-24.154452	6.398774	44349.5	-1.04708E-10	-9.550368E+9	9.980359	0.135494	0	0
0	0	0	-0.159135	6.398506	-24.153502	6.398506	44348.75	2.066269E-10	4.839642E+9	10.021902	0.134608	0	0
0	0	0	-0.158931	6.398731	-24.154075	6.398731	44352.5	-1.374045E-10	-7.277782E+9	9.912255	0.134344	0	0
0	0	0	-0.158645	6.398449	-24.152635	6.398449	44357.625	1.271039E-10	7.867577E+9	9.949663	0.133445	0	0
0	0	0	-0.1584	6.398703	-24.15326	6.398703	44362	-1.735532E-10	-5.761921E+9	9.819282	0.133141	0	0
0	0	0	-0.159135	6.398583	-24.153793	6.398583	44348.75	1.483534E-9	6.740659E+8	9.855958	0.132268	0	0
0	0	0	-0.160074	6.39859	-24.155075	6.39859	44331.875	3.384214E-9	2.954896E+8	9.742222	0.131977	0	0
0	0	0	-0.159503	6.398485	-24.153914	6.398485	44342.125	1.673192E-10	5.976601E+9	9.749306	0.131277	0	0
0	0	0	-0.161259	6.398583	-24.156631	6.398583	44310.625	1.482259E-9	6.746459E+8	9.654163	0.130708	0	0
0	0	0	-0.161259	6.398583	-24.156631	6.398583	44310.625	1.482259E-9	6.746459E+8	9.63362	0.130311	0	0
0	0	0	-0.160891	6.398661	-24.156431	6.398661	44317.25	-2.862056E-10	-3.493992E+9	9.57527	0.129571	0	0
0	0	0	-0.160769	6.398611	-24.156082	6.398611	44319.375	-1.188713E-9	-8.412461E+8	9.560314	0.129069	0	0
0	0	0	-0.161177	6.398541	-24.156363	6.398541	44312.125	3.391402E-10	2.948633E+9	9.508189	0.128527	0	0
0	0	0	-0.161585	6.398562	-24.156989	6.398562	44304.75	5.518978E-10	1.81193E+9	9.458937	0.128222	0	0
0	0	0	-0.162647	6.398717	-24.15899	6.398717	44285.625	-1.53132E-10	-6.530315E+9	9.433461	0.127218	0	0
0	0	0	-0.162157	6.398696	-24.158255	6.398696	44294.5	-1.854755E-10	-5.391549E+9	9.353835	0.127099	0	0
0	0	0	-0.163096	6.39859	-24.159114	6.39859	44277.625	3.380072E-9	2.958517E+8	9.356253	0.126292	0	0
0	0	0	-0.163505	6.398336	-24.158708	6.398336	44270.25	7.166985E-11	1.395287E+10	9.245893	0.126001	0	0
0	0	0	-0.162443	6.398485	-24.157844	6.398485	44289.375	1.671201E-10	5.983719E+9	9.277229	0.125181	0	0
0	0	0	-0.162361	6.398527	-24.157894	6.398527	44290.875	2.69657E-10	3.708415E+9	9.152697	0.12501	0	0
0	0	0	-0.163055	6.398315	-24.158028	6.398315	44278.375	6.627705E-11	1.508818E+10	9.159841	0.124322	0	0
0	0	0	-0.163627	6.398499	-24.15948	6.398499	44268.125	1.912838E-10	5.227835E+9	9.056164	0.123939	0	0
0	0	0	-0.164934	6.398611	-24.16165	6.398611	44244.625	-1.186708E-9	-8.426674E+8	9.057424	0.123344	0	0
0	0	0	-0.165506	6.398548	-24.162176	6.398548	44234.375	3.88478E-10	2.574148E+9	9.008707	0.122907	0	0
0	0	0	-0.165424	6.398661	-24.16249	6.398661	44235.875	-2.856801E-10	-3.500419E+9	8.960923	0.12255	0	0
0	0	0	-0.165179	6.398604	-24.161951	6.398604	44240.25	-2.159206E-9	-4.631333E+8	0	0	0	0
0	0	0	-0.164566	6.398647	-24.161291	6.398647	44251.25	-3.649426E-10	-2.740157E+9	0	0	0	0
0	0	0	-0.164934	6.398477	-24.161147	6.398477	44244.625	1.570019E-10	6.369351E+9	0	0	0	0
0	0	0	-0.164444	6.398477	-24.160492	6.398477	44253.375	1.570329E-10	6.368092E+9	0	0	0	0
0	0	0	-0.164811	6.398477	-24.160984	6.398477	44246.875	1.570099E-10	6.369027E+9	0	0	0	0
0	0	0	-0.163954	6.398541	-24.160075	6.398541	44262.25	3.387585E-10	2.951956E+9	0	0	0	0
0	0	0	-0.162443	6.398541	-24.158056	6.398541	44289.375	3.389661E-10	2.950148E+9	0	0	0	0
0	0	0	-0.162157	6.398569	-24.157779	6.398569	44294.5	6.97741E-10	1.433196E+9	0	0	0	0
0	0	0	-0.161585	6.398393	-24.156354	6.398393	44304.75	9.166336E-11	1.090948E+10	0	0	0	0
0	0	0	-0.161544	6.398477	-24.156617	6.398477	44305.5	1.572179E-10	6.3606E+9	0	0	0	0
0	0	0	-0.161381	6.398611	-24.156901	6.398611	44308.375	-1.188418E-9	-8.41455E+8	0	0	0	0
0	0	0	-0.160891	6.398724	-24.156669	6.398724	44317.25	-1.448307E-10	-6.904612E+9	0	0	0	0
0	0	0	-0.160769	6.398611	-24.156082	6.398611	44319.375	-1.188713E-9	-8.412461E+8	0	0	0	0
0	0	0	-0.160605	6.398555	-24.155652	6.398555	44322.375	4.565953E-10	2.190123E+9	0	0	0	0
0	0	0	-0.159707	6.398661	-24.154848	6.398661	44338.5	-2.863428E-10	-3.492317E+9	0	0	0	0
0	0	0	-0.160442	6.398463	-24.15509	6.398463	44325.25	1.405374E-10	7.115544E+9	0	0	0	0
0	0	0	-0.160891	6.398562	-24.156061	6.398562	44317.25	5.520535E-10	1.811419E+9	0	0	0	0
0	0	0	-0.159952	6.398386	-24.154144	6.398386	44334.125	8.864407E-11	1.128107E+10	0	0	0	0
0	0	0	-0.159625	6.398661	-24.154739	6.398661	44340	-2.863525E-10	-3.492199E+9	0	0	0	0
0	0	0	-0.160279	6.398752	-24.155956	6.398752	44328.25	-1.187881E-10	-8.418354E+9	0	0	0	0
0	0	0	-0.159053	0	-0.159053	0	44350.25	0	0	0	0	0	0
0	0	0	-0.159503	0	-0.159503	0	44342.125	0	0	0	0	0	0
