Vload_(V)	ILoad_(A)	RsLoad (ohm)	SunsVoc_Voltage_(V)	SunsVoc_Current_(A)	Model_Voltage_(V)	Model_Current_(A)	Carrier_Density_(cm-3)	Lifetime_(s)	Inverse_Lifetime_(s-1)	Efficiency_(%)	Intensity_(suns)	Dark_IV_Voltage_(V)	Dark_IV_Current_(A)
3.320048	6.378145	0	64.953735	-1.126429	65.281996	-1.126429	3.782545E+15	0.000212	4702.503782	19.608553	1.192854	0	0
3.349205	6.384833	-0.544872	65.236202	-1.094761	65.538716	-1.094761	4.04384E+15	0.000227	4375.063683	19.603345	1.192497	0	0
5.192672	6.37523	3.715835	65.258498	-1.186336	65.584905	-1.186336	4.065127E+15	0.000226	4405.388248	19.536594	1.190765	0	0
8.248024	6.35604	6.405566	65.154283	-0.775337	65.371924	-0.775337	3.966472E+15	0.000233	4270.119421	19.513505	1.188729	0	0
11.413046	6.350039	6.077169	64.984607	-0.291019	65.068936	-0.291019	3.81036E+15	0.00024	4145.365447	19.561821	1.185291	0	0
14.097762	6.345225	5.746779	64.811297	0.148937	64.766761	0.148937	3.656507E+15	0.000246	4036.081741	19.536173	1.182832	0	0
16.834696	6.344884	5.321572	64.638885	0.561091	64.465936	0.561091	3.508882E+15	0.000253	3928.764083	19.479432	1.180809	0	0
19.695666	6.335919	4.999573	64.46733	0.947319	64.166652	0.947319	3.367189E+15	0.00026	3823.322356	19.501835	1.17835	0	0
22.53936	6.338604	4.515432	64.293693	1.297153	63.869947	1.297153	3.228878E+15	0.000267	3731.318571	19.559997	1.175071	0	0
25.573226	6.333469	4.103304	64.12806	1.624697	63.582939	1.624697	3.101569E+15	0.000274	3634.951676	19.54608	1.170985	0	0
29.101298	6.23242	4.151762	63.958384	1.934996	63.291613	1.934996	2.975685E+15	0.000281	3542.261746	19.484907	1.166159	0	0
32.03628	6.227112	3.699676	63.785278	2.222456	62.998902	2.222456	2.851827E+15	0.000288	3457.822764	19.484953	1.161545	0	0
34.939228	6.222937	3.247952	63.622789	2.486219	62.721507	2.486219	2.739631E+15	0.000295	3371.675763	19.531004	1.157208	0	0
37.84058	6.217379	2.799637	63.457891	2.727328	62.445181	2.727328	2.629667E+15	0.000302	3295.750382	19.524672	1.152964	0	0
40.253276	6.302583	2.043985	63.299036	2.950635	62.178371	2.950635	2.527331E+15	0.00031	3220.06007	19.490596	1.148191	0	0
43.101832	6.27534	1.738942	63.137568	3.157238	61.911204	3.157238	2.426816E+15	0.000316	3151.892887	19.501936	1.143101	0	0
45.960017	6.258662	1.353687	62.982022	3.349172	61.653278	3.349172	2.333228E+15	0.000323	3083.489998	19.53885	1.137283	0	0
46.903735	6.260608	1.195068	62.825495	3.52826	61.3962	3.52826	2.242163E+15	0.00033	3019.510248	19.511141	1.131968	0	0
47.830995	6.255681	1.065962	62.674563	3.696051	61.147498	3.696051	2.157225E+15	0.000338	2954.059982	19.46398	1.126864	0	0
48.753485	6.241843	0.967654	62.519221	3.856144	60.894014	3.856144	2.072664E+15	0.000345	2891.490537	19.486136	1.122144	0	0
49.69104	6.218129	0.891395	62.365226	4.004167	60.644696	4.004167	1.991614E+15	0.000352	2832.947369	19.537749	1.117689	0	0
50.615576	6.183011	0.83412	62.213069	4.140465	60.400322	4.140465	1.914169E+15	0.000359	2778.710747	19.532316	1.112995	0	0
51.555418	6.138799	0.776608	62.064465	4.266136	60.162834	4.266136	1.840991E+15	0.000366	2727.245948	19.496727	1.107852	0	0
52.493493	6.077763	0.730344	61.915901	4.383476	59.92718	4.383476	1.770194E+15	0.000373	2679.061394	19.515761	1.10251	0	0
53.422328	5.996792	0.692179	61.770523	4.494253	59.696644	4.494253	1.703136E+15	0.00038	2630.192567	19.545914	1.09705	0	0
54.332189	5.89817	0.652178	61.621878	4.596698	59.464227	4.596698	1.63678E+15	0.000386	2588.284807	19.52515	1.09188	0	0
55.263889	5.767354	0.615733	61.478541	4.69305	59.239732	4.69305	1.574852E+15	0.000392	2544.823799	19.486209	1.086578	0	0
56.16229	5.601209	0.585763	61.336512	4.782458	59.018768	4.782458	1.515427E+15	0.000399	2504.535452	19.516409	1.080721	0	0
57.063917	5.385981	0.559899	61.196034	4.867324	58.800638	4.867324	1.4585E+15	0.000405	2464.109075	19.552749	1.075128	0	0
57.947264	5.125338	0.534241	61.047552	4.947244	58.573586	4.947244	1.400273E+15	0.000411	2431.033625	19.528558	1.069668	0	0
58.83811	4.79419	0.513315	60.908626	5.022432	58.35979	5.022432	1.347556E+15	0.000417	2393.588993	19.496062	1.063982	0	0
59.692028	4.405996	0.493027	60.768883	5.09282	58.146311	5.09282	1.296201E+15	0.000423	2359.405139	19.522127	1.057861	0	0
60.542216	3.935648	0.476119	60.633142	5.159112	57.939026	5.159112	1.247882E+15	0.00043	2324.525651	19.557851	1.052096	0	0
61.360507	3.396481	0.458017	60.489479	5.222212	57.722337	5.222212	1.198379E+15	0.000435	2295.422211	19.528914	1.046715	0	0
62.142208	2.796438	0.442588	60.352431	5.281671	57.515119	5.281671	1.152684E+15	0.000441	2263.812415	19.493534	1.041083	0	0
62.875073	2.155736	0.435516	60.215057	5.336976	57.308872	5.336976	1.108338E+15	0.000447	2235.777115	19.528919	1.035053	0	0
63.553383	1.489981	0.443743	60.086054	5.38818	57.114858	5.38818	1.06799E+15	0.000453	2206.253852	19.5584	1.029553	0	0
64.136034	0.870856	0.445185	59.95354	5.436549	56.917189	5.436549	1.027819E+15	0.000458	2180.591642	19.530206	1.024503	0	0
53.55628	5.986901	0.682083	59.827967	5.480837	56.730118	5.480837	9.909153E+14	0.000464	2155.518306	19.500849	1.019135	0	0
64.918327	0	0	59.697862	5.525615	56.536303	5.525615	9.538451E+14	0.00047	2127.643913	19.548006	1.013251	0	0
0	0	0	59.571391	5.566188	56.349014	5.566188	9.189203E+14	0.000475	2103.49203	19.570388	1.007962	0	0
0	0	0	59.446349	5.605273	56.163907	5.605273	8.8544E+14	0.000481	2078.030244	19.527197	1.002912	0	0
0	0	0	59.312773	5.64224	55.968425	5.64224	8.508001E+14	0.000485	2059.283428	19.508326	0.997835	0	0
0	0	0	59.188711	5.676045	55.786712	5.676045	8.196439E+14	0.00049	2039.443182	19.559143	0.992255	0	0
0	0	0	59.06469	5.70889	55.605185	5.70889	7.894528E+14	0.000495	2018.450149	19.566699	0.987191	0	0
0	0	0	58.943977	5.739125	55.429144	5.739125	7.609623E+14	0.0005	1999.482202	19.531272	0.982048	0	0
0	0	0	58.817547	5.768555	55.245734	5.768555	7.320472E+14	0.000504	1982.802307	19.523613	0.976508	0	0
0	0	0	58.699652	5.795318	55.074771	5.795318	7.059167E+14	0.000508	1965.97698	19.569143	0.970691	0	0
0	0	0	58.580409	5.821596	54.902011	5.821596	6.802858E+14	0.000513	1948.120452	19.561498	0.965494	0	0
0	0	0	58.455572	5.84661	54.722382	5.84661	6.542925E+14	0.000517	1934.53123	19.515874	0.960298	0	0
0	0	0	58.342495	5.869556	54.559202	5.869556	6.314726E+14	0.000521	1917.954035	19.523252	0.954428	0	0
0	0	0	58.219863	5.892299	54.383313	5.892299	6.074845E+14	0.000525	1904.58065	19.568775	0.948518	0	0
0	0	0	58.10209	5.913669	54.214423	5.913669	5.851743E+14	0.000529	1890.26574	19.547382	0.943692	0	0
0	0	0	57.986931	5.933619	54.049649	5.933619	5.64032E+14	0.000533	1876.923491	19.510629	0.938879	0	0
0	0	0	57.865197	5.953313	53.876136	5.953313	5.42389E+14	0.000536	1865.38489	19.531012	0.933591	0	0
0	0	0	57.756082	5.971004	53.720364	5.971004	5.235919E+14	0.00054	1851.912025	19.572851	0.928513	0	0
0	0	0	57.634716	5.9883	53.548486	5.9883	5.033375E+14	0.000542	1844.627847	19.554337	0.923714	0	0
0	0	0	57.520782	6.005148	53.386509	6.005148	4.849346E+14	0.000546	1831.914375	19.523184	0.91865	0	0
0	0	0	57.408644	6.020664	53.227626	6.020664	4.673861E+14	0.000549	1821.65263	19.542599	0.913203	0	0
0	0	0	57.291402	6.035619	53.062201	6.035619	4.496228E+14	0.000551	1814.429026	19.570637	0.907941	0	0
0	0	0	57.182491	6.049327	52.908492	6.049327	4.336439E+14	0.000554	1806.020822	19.535746	0.903035	0	0
0	0	0	57.068435	6.062855	52.74794	6.062855	4.174363E+14	0.000556	1798.974265	19.513269	0.898091	0	0
0	0	0	56.955971	6.075914	52.58967	6.075914	4.019693E+14	0.000558	1790.840225	19.557194	0.892696	0	0
0	0	0	56.843711	6.087942	52.43226	6.087942	3.870273E+14	0.00056	1785.975478	19.568444	0.887791	0	0
0	0	0	56.733207	6.099677	52.277249	6.099677	3.727918E+14	0.000562	1779.210579	19.527668	0.883084	0	0
0	0	0	56.622091	6.110929	52.121642	6.110929	3.589388E+14	0.000564	1773.229261	19.521546	0.878073	0	0
0	0	0	56.515997	6.121669	51.972947	6.121669	3.46133E+14	0.000567	1764.944104	19.562405	0.873022	0	0
0	0	0	56.401941	6.132128	51.813769	6.132128	3.328134E+14	0.000568	1760.737015	19.563223	0.868196	0	0
0	0	0	56.298706	6.141564	51.669607	6.141564	3.211472E+14	0.00057	1754.723219	19.512098	0.863622	0	0
0	0	0	56.188079	6.1508	51.515673	6.1508	3.090463E+14	0.000571	1752.253829	19.524953	0.858571	0	0
0	0	0	56.080843	6.159953	51.366198	6.159953	2.977018E+14	0.000573	1745.806095	19.579448	0.853534	0	0
0	0	0	55.974872	6.16809	51.219085	6.16809	2.868544E+14	0.000573	1744.265158	19.547527	0.849104	0	0
0	0	0	55.865185	6.176646	51.066611	6.176646	2.759971E+14	0.000575	1739.049917	19.500319	0.844331	0	0
0	0	0	55.760275	6.184347	50.921063	6.184347	2.659562E+14	0.000576	1735.737914	19.534357	0.839294	0	0
0	0	0	55.654917	6.19135	50.775382	6.19135	2.562013E+14	0.000576	1736.730409	19.569449	0.834521	0	0
0	0	0	55.55258	6.199222	50.632953	6.199222	2.470338E+14	0.00058	1725.276266	19.52945	0.830052	0	0
0	0	0	55.445058	6.20496	50.48524	6.20496	2.377194E+14	0.000576	1735.396832	19.494865	0.825504	0	0
0	0	0	55.34411	6.212305	50.344923	6.212305	2.292631E+14	0.00058	1723.093783	19.542535	0.820413	0	0
0	0	0	55.234423	6.218004	50.194218	6.218004	2.203829E+14	0.000578	1730.932054	19.561055	0.815878	0	0
0	0	0	55.132617	6.224479	50.053315	6.224479	2.124201E+14	0.00058	1723.215477	19.506332	0.811833	0	0
0	0	0	55.02881	6.230069	49.910402	6.230069	2.045701E+14	0.00058	1724.255123	19.499962	0.806941	0	0
0	0	0	54.920144	6.235096	49.761414	6.235096	1.966357E+14	0.000577	1732.939883	19.543509	0.802273	0	0
0	0	0	54.822422	6.241281	49.625996	6.241281	1.897408E+14	0.000582	1718.259876	19.528174	0.798108	0	0
0	0	0	54.711918	6.245588	49.47504	6.245588	1.822105E+14	0.000577	1732.96947	19.480185	0.793692	0	0
0	0	0	54.608439	6.251205	49.332297	6.251205	1.754078E+14	0.00058	1723.898586	19.502345	0.789065	0	0
0	0	0	54.504999	6.256137	49.190129	6.256137	1.688415E+14	0.000581	1721.361592	19.541428	0.78457	0	0
0	0	0	54.397844	6.259564	49.044234	6.259564	1.622783E+14	0.000574	1740.682755	19.503386	0.780643	0	0
0	0	0	54.296692	6.264477	48.905032	6.264477	1.562995E+14	0.000577	1732.388889	19.47371	0.776465	0	0
0	0	0	54.190068	6.269282	48.758565	6.269282	1.502181E+14	0.000579	1726.326774	19.516669	0.77185	0	0
0	0	0	54.087445	6.272199	48.619034	6.272199	1.445726E+14	0.000573	1745.687588	19.529819	0.767646	0	0
0	0	0	53.980984	6.276709	48.472947	6.276709	1.389247E+14	0.000575	1739.318584	19.474847	0.763891	0	0
0	0	0	53.880118	6.281156	48.334336	6.281156	1.337637E+14	0.000579	1727.235166	19.47687	0.759541	0	0
0	0	0	53.773984	6.284082	48.189993	6.284082	1.285265E+14	0.000574	1743.385959	19.526887	0.755019	0	0
0	0	0	53.669687	6.286454	48.048566	6.286454	1.235673E+14	0.000566	1767.640837	19.498839	0.751185	0	0
0	0	0	53.568902	6.290138	47.910625	6.290138	1.189459E+14	0.000567	1762.541529	19.44102	0.747337	0	0
0	0	0	53.457459	6.294449	47.757833	6.294449	1.140248E+14	0.000572	1748.535649	19.468563	0.742882	0	0
0	0	0	53.360064	6.297046	47.625326	6.297046	1.098815E+14	0.000569	1758.167744	19.511138	0.738743	0	0
0	0	0	53.254869	6.298943	47.48301	6.298943	1.055659E+14	0.00056	1787.249706	19.468813	0.735041	0	0
0	0	0	53.146938	6.301841	47.336092	6.301841	1.013048E+14	0.000557	1794.283683	19.434968	0.731035	0	0
0	0	0	53.047787	6.305183	47.200465	6.305183	9.753414E+13	0.000561	1782.021536	19.481041	0.726712	0	0
0	0	0	52.93667	6.30848	47.048848	6.30848	9.346665E+13	0.000563	1775.546794	19.491915	0.722851	0	0
0	0	0	52.834375	6.310684	46.910012	6.310684	8.986488E+13	0.000559	1788.276648	19.435373	0.719096	0	0
0	0	0	52.728445	6.312206	46.766937	6.312206	8.62745E+13	0.000549	1820.674532	19.429476	0.714984	0	0
0	0	0	52.624107	6.314058	46.62566	6.314058	8.2872E+13	0.000543	1842.187472	19.484059	0.7107	0	0
0	0	0	52.517564	6.316912	46.480456	6.316912	7.952997E+13	0.000545	1834.120106	19.457521	0.707183	0	0
0	0	0	52.414534	6.319535	46.34014	6.319535	7.642091E+13	0.000547	1826.986986	19.406873	0.703534	0	0
0	0	0	52.312156	6.322054	46.200769	6.322054	7.344705E+13	0.00055	1819.26545	19.437477	0.69929	0	0
0	0	0	52.203776	6.32369	46.054198	6.32369	7.041985E+13	0.000543	1842.129622	19.462472	0.69531	0	0
0	0	0	52.104502	6.324915	45.920193	6.324915	6.775245E+13	0.000534	1871.583551	19.401429	0.691978	0	0
0	0	0	51.996244	6.325968	45.774324	6.325968	6.495446E+13	0.000523	1913.578652	19.391208	0.687972	0	0
0	0	0	51.894112	6.327646	45.636021	6.327646	6.241704E+13	0.000519	1927.335197	19.438969	0.68394	0	0
0	0	0	51.790755	6.329757	45.49563	6.329757	5.994663E+13	0.00052	1922.876382	19.425041	0.68033	0	0
0	0	0	51.673227	6.332168	45.335952	6.332168	5.725223E+13	0.000523	1913.027787	19.366219	0.676853	0	0
0	0	0	51.558721	6.333932	45.18094	6.333932	5.473994E+13	0.00052	1924.084436	19.393835	0.672781	0	0
0	0	0	51.4503	6.335757	45.033988	6.335757	5.245977E+13	0.00052	1924.813729	19.433608	0.669052	0	0
0	0	0	51.339919	6.337142	44.884839	6.337142	5.023307E+13	0.000514	1944.457542	19.37204	0.666038	0	0
0	0	0	51.231294	6.338155	44.738406	6.338155	4.813149E+13	0.000505	1979.224096	19.34243	0.662269	0	0
0	0	0	51.110581	6.33891	44.576047	6.33891	4.589627E+13	0.000491	2036.450436	19.392209	0.658501	0	0
0	0	0	51.001098	6.339935	44.428431	6.339935	4.395657E+13	0.000483	2070.770434	19.394699	0.655037	0	0
0	0	0	50.883815	6.341253	44.270056	6.341253	4.196728E+13	0.000478	2094.121833	19.330165	0.65193	0	0
0	0	0	50.771759	6.342715	44.118511	6.342715	4.014881E+13	0.000476	2102.227084	19.344137	0.64803	0	0
0	0	0	50.655824	6.344078	43.961859	6.344078	3.834838E+13	0.000473	2116.247441	19.385845	0.644222	0	0
0	0	0	50.536581	6.345293	43.800917	6.345293	3.657895E+13	0.000467	2139.478927	19.34292	0.641247	0	0
0	0	0	50.420769	6.347073	43.643951	6.347073	3.493697E+13	0.000472	2118.663619	19.311996	0.637743	0	0
0	0	0	50.298259	6.348456	43.47842	6.348456	3.327859E+13	0.000471	2125.228627	19.36958	0.633671	0	0
0	0	0	50.178649	6.349448	43.317177	6.349448	3.173398E+13	0.000464	2154.199506	19.368427	0.630418	0	0
0	0	0	50.055812	6.350274	43.151781	6.350274	3.022095E+13	0.000455	2196.927863	19.300488	0.627272	0	0
0	0	0	49.923992	6.351055	42.974392	6.351055	2.867601E+13	0.000444	2250.44317	19.305863	0.623728	0	0
0	0	0	49.799849	6.351562	42.807575	6.351562	2.729214E+13	0.000431	2320.260592	19.356418	0.620158	0	0
0	0	0	49.67056	6.352028	42.633907	6.352028	2.592074E+13	0.000417	2400.231475	19.304936	0.61721	0	0
0	0	0	49.539189	6.352719	42.457191	6.352719	2.459676E+13	0.000406	2462.491719	19.269667	0.61372	0	0
0	0	0	49.406184	6.353356	42.278338	6.353356	2.332421E+13	0.000395	2531.802628	19.314125	0.610163	0	0
0	0	0	49.26881	6.353995	42.093622	6.353995	2.2078E+13	0.000384	2605.760439	19.318985	0.607056	0	0
0	0	0	49.129148	6.355075	41.905331	6.355075	2.08784E+13	0.00038	2632.227884	19.242452	0.604107	0	0
0	0	0	48.98475	6.355714	41.711184	6.355714	1.970578E+13	0.000369	2711.664581	19.247248	0.600564	0	0
0	0	0	48.836187	6.356724	41.511021	6.356724	1.856724E+13	0.000364	2748.388824	19.302694	0.597166	0	0
0	0	0	48.683907	6.357512	41.30612	6.357512	1.746772E+13	0.000355	2813.921061	19.260963	0.594297	0	0
0	0	0	48.52734	6.358433	41.095307	6.358433	1.64044E+13	0.000349	2862.582782	19.22718	0.591005	0	0
0	0	0	48.365178	6.359526	40.876781	6.359526	1.537063E+13	0.000347	2885.689831	19.269932	0.58762	0	0
0	0	0	48.193664	6.360216	40.646185	6.360216	1.434741E+13	0.000336	2976.844712	19.25807	0.584579	0	0
0	0	0	48.021048	6.361102	40.413866	6.361102	1.33858E+13	0.00033	3033.109231	19.187935	0.581723	0	0
0	0	0	47.835037	6.361955	40.163622	6.361955	1.242104E+13	0.000322	3104.993754	19.204067	0.578391	0	0
0	0	0	47.64482	6.362633	39.90794	6.362633	1.150581E+13	0.000311	3211.574238	19.260905	0.575073	0	0
0	0	0	47.440801	6.363086	39.634026	6.363086	1.05985E+13	0.000295	3384.746841	19.19951	0.572362	0	0
0	0	0	47.227021	6.363514	39.347055	6.363514	9.723977E+12	0.000279	3584.395064	19.149662	0.569506	0	0
0	0	0	47.003359	6.363723	39.047106	6.363723	8.885738E+12	0.000259	3866.483385	19.210845	0.566029	0	0
0	0	0	46.763607	6.364131	38.725342	6.364131	8.066866E+12	0.000242	4138.373116	19.199911	0.563345	0	0
0	0	0	46.510339	6.364532	38.385464	6.364532	7.283272E+12	0.000225	4452.507408	19.139015	0.560502	0	0
0	0	0	46.237142	6.364831	38.019004	6.364831	6.522784E+12	0.000206	4862.470225	19.152125	0.557263	0	0
0	0	0	45.945814	6.365257	37.628072	6.365257	5.798784E+12	0.000189	5294.41271	19.173096	0.554275	0	0
0	0	0	45.629861	6.365685	37.204128	6.365685	5.10384E+12	0.000172	5815.749166	19.114911	0.551684	0	0
0	0	0	45.298064	6.366046	36.759025	6.366046	4.463261E+12	0.000155	6457.434092	19.095973	0.548762	0	0
0	0	0	44.943888	6.36624	36.284149	6.36624	3.867718E+12	0.000136	7332.616478	19.152798	0.545456	0	0
0	0	0	44.582158	6.366674	35.79881	6.366674	3.341243E+12	0.000122	8178.301391	19.117932	0.54305	0	0
0	0	0	44.208013	6.36715	35.29676	6.36715	2.871836E+12	0.00011	9120.308014	19.058426	0.540247	0	0
0	0	0	43.822924	6.367562	34.780115	6.367562	2.45736E+12	9.746833E-5	10259.743302	19.105525	0.536942	0	0
0	0	0	43.419377	6.367784	34.23899	6.367784	2.086968E+12	8.455125E-5	11827.146611	19.128505	0.534191	0	0
0	0	0	42.991818	6.368093	33.665548	6.368093	1.75519E+12	7.329876E-5	13642.79569	19.054855	0.531653	0	0
0	0	0	42.541267	6.368578	33.061019	6.368578	1.462425E+12	6.416587E-5	15584.607956	19.052737	0.528493	0	0
0	0	0	42.057762	6.369082	32.41227	6.369082	1.202295E+12	5.568459E-5	17958.288478	19.095712	0.525571	0	0
0	0	0	41.562619	6.369325	31.7483	6.369325	9.837575E+11	4.681849E-5	21359.080599	19.043104	0.523244	0	0
0	0	0	41.059308	6.369771	31.07305	6.369771	8.022625E+11	4.021814E-5	24864.39962	19.003624	0.520388	0	0
0	0	0	40.539131	6.370038	30.375461	6.370038	6.497814E+11	3.364348E-5	29723.445272	19.059497	0.517017	0	0
0	0	0	40.003233	6.370573	29.656348	6.370573	5.229288E+11	2.899018E-5	34494.443186	19.032842	0.514676	0	0
0	0	0	39.452715	6.371055	28.917697	6.371055	4.183479E+11	2.477004E-5	40371.35124	18.960429	0.512058	0	0
0	0	0	38.885413	6.37114	28.15719	6.37114	3.324085E+11	1.992086E-5	50198.645596	18.996246	0.508938	0	0
0	0	0	38.301368	6.371932	27.373026	6.371932	2.623337E+11	1.772341E-5	56422.539726	19.030679	0.506175	0	0
0	0	0	37.700907	6.372073	26.567944	6.372073	2.056563E+11	1.421775E-5	70334.609578	18.947839	0.504006	0	0
0	0	0	37.09236	6.372317	25.751832	6.372317	1.606952E+11	1.157423E-5	86398.821852	18.926362	0.501098	0	0
0	0	0	36.470786	6.372903	24.917624	6.372903	1.249014E+11	1.000182E-5	99981.790002	18.98545	0.498149	0	0
0	0	0	35.826344	6.372932	24.05375	6.372932	9.618409E+10	7.7454E-6	129108.890416	18.950797	0.495941	0	0
0	0	0	35.157767	6.373459	23.156588	6.373459	7.334796E+10	6.570371E-6	152198.411941	18.897992	0.493416	0	0
0	0	0	34.469957	6.373626	22.234296	6.373626	5.549894E+10	5.155418E-6	193970.702209	18.944209	0.490547	0	0
0	0	0	33.757685	6.373806	21.279177	6.373806	4.157892E+10	4.022832E-6	248581.096904	18.931438	0.488246	0	0
0	0	0	33.019196	6.374084	20.288706	6.374084	3.082085E+10	3.185951E-6	313878.07105	18.855493	0.485853	0	0
0	0	0	32.250651	6.37427	19.258111	6.37427	2.256957E+10	2.444781E-6	409034.532254	18.876721	0.483063	0	0
0	0	0	31.48178	6.374413	18.227153	6.374413	1.652508E+10	1.858472E-6	538076.565814	18.92898	0.480578	0	0
0	0	0	30.697799	6.374843	17.175318	6.374843	1.20255E+10	1.52867E-6	654163.613145	18.840882	0.478475	0	0
0	0	0	29.906631	6.374935	16.114543	6.374935	8.725631E+9	1.141189E-6	876278.824627	18.820008	0.475765	0	0
0	0	0	29.104437	6.375119	15.038779	6.375119	6.303023E+9	8.743697E-7	1143681.020828	18.877811	0.473028	0	0
0	0	0	28.291707	6.375338	13.948797	6.375338	4.533625E+9	6.778672E-7	1475215.1529	18.826436	0.471058	0	0
0	0	0	27.478528	6.375598	12.858098	6.375598	3.260342E+9	5.37345E-7	1861001.815541	18.785056	0.468493	0	0
0	0	0	26.660857	6.375809	11.761469	6.375809	2.340397E+9	4.205988E-7	2377562.640671	18.840828	0.465769	0	0
0	0	0	25.836775	6.375999	10.656277	6.375999	1.675664E+9	3.27801E-7	3050631.632814	18.813179	0.463747	0	0
0	0	0	25.016164	6.376077	9.555995	6.376077	1.201422E+9	2.438323E-7	4101178.900573	18.734359	0.461393	0	0
0	0	0	24.191469	6.3764	8.449625	6.3764	8.599737E+8	2.06881E-7	4833697.354291	18.771086	0.45863	0	0
0	0	0	23.352481	6.376337	7.325036	6.376337	6.120093E+8	1.420872E-7	7037933.641498	18.791524	0.456448	0	0
0	0	0	22.507858	6.376393	6.192592	6.376393	4.345488E+8	1.041288E-7	9603491.32184	18.711149	0.454346	0	0
0	0	0	21.679978	6.37659	5.082224	6.37659	3.10647E+8	8.386051E-8	1.192456E+7	18.708111	0.451781	0	0
0	0	0	20.856753	6.376801	3.978042	6.376801	2.224926E+8	6.948492E-8	1.439161E+7	18.740294	0.449308	0	0
0	0	0	20.043166	6.376787	2.887367	6.376787	1.599782E+8	4.944543E-8	2.022432E+7	18.684285	0.447444	0	0
0	0	0	19.233458	6.376738	1.801989	6.376738	1.152097E+8	3.436436E-8	2.909991E+7	18.680182	0.444892	0	0
0	0	0	18.42963	6.376836	0.72409	6.376836	8.316735E+7	2.667165E-8	3.7493E+7	18.736648	0.442248	0	0
0	0	0	17.642709	6.377005	-0.33135	6.377005	6.04496E+7	2.225361E-8	4.493654E+7	18.685083	0.440305	0	0
0	0	0	16.866651	6.377089	-1.372001	6.377089	4.41313E+7	1.75438E-8	5.70002E+7	18.611615	0.43811	0	0
0	0	0	16.111337	6.377181	-2.384868	6.377181	3.249022E+7	1.413938E-8	7.072447E+7	18.66144	0.435505	0	0
0	0	0	15.378892	6.377167	-3.366773	6.377167	2.414267E+7	1.035576E-8	9.656464E+7	18.661098	0.43339	0	0
0	0	0	14.658698	6.377377	-4.332923	6.377377	1.802914E+7	9.856826E-9	1.014525E+8	18.575199	0.431473	0	0
0	0	0	13.955451	6.377419	-5.27586	6.377419	1.355654E+7	7.842249E-9	1.275144E+8	18.602904	0.428841	0	0
0	0	0	13.267069	6.377405	-6.1987	6.377405	1.02551E+7	5.819708E-9	1.718299E+8	18.626555	0.426607	0	0
0	0	0	12.607844	6.377511	-7.082819	6.377511	7849912.75	5.195107E-9	1.924888E+8	18.53032	0.424901	0	0
0	0	0	11.964545	6.377504	-7.945241	6.377504	6047754.125	3.958577E-9	2.52616E+8	18.54297	0.422508	0	0
0	0	0	11.349628	6.377651	-8.770102	6.377651	4713253	4.007173E-9	2.495525E+8	18.592876	0.420142	0	0
0	0	0	10.762153	6.377694	-9.557845	6.377694	3714320.25	3.452743E-9	2.896248E+8	18.518237	0.418291	0	0
0	0	0	10.195218	6.377694	-10.317917	6.377694	2951581.125	2.74372E-9	3.644686E+8	18.477393	0.416135	0	0
0	0	0	9.648947	6.37756	-11.049852	6.37756	2365203.25	1.696908E-9	5.893073E+8	18.526121	0.413689	0	0
0	0	0	9.137061	6.377715	-11.736625	6.377715	1921925.375	1.874069E-9	5.335982E+8	18.478352	0.411984	0	0
0	0	0	8.648451	6.377806	-12.391992	6.377806	1576533.25	1.95138E-9	5.124577E+8	18.439053	0.409815	0	0
0	0	0	8.190918	6.377841	-13.005512	6.377841	1309609	1.808345E-9	5.529918E+8	18.501371	0.407462	0	0
0	0	0	7.7556	6.377862	-13.589204	6.377862	1097720.5	1.628712E-9	6.139822E+8	18.464567	0.405545	0	0
0	0	0	7.342211	6.377834	-14.14333	6.377834	928331.625	1.252905E-9	7.981453E+8	18.36952	0.403773	0	0
0	0	0	6.954917	6.37789	-14.662757	6.37789	793431	1.307097E-9	7.650544E+8	18.427136	0.401301	0	0
0	0	0	6.586816	6.377806	-15.155976	6.377806	683431	8.459287E-10	1.182133E+9	18.427307	0.399423	0	0
0	0	0	6.241501	6.377904	-15.619267	6.377904	594145.125	1.035933E-9	9.653136E+8	18.34842	0.397704	0	0
0	0	0	5.909255	6.37782	-16.064413	6.37782	519267.625	6.705205E-10	1.491379E+9	18.386393	0.395179	0	0
0	0	0	5.589749	6.37801	-16.493424	6.37801	456177	1.414827E-9	7.068E+8	18.389302	0.393196	0	0
0	0	0	5.280739	6.377722	-16.906707	6.377722	402460.625	3.989521E-10	2.506567E+9	18.291451	0.391583	0	0
0	0	0	4.984347	6.377757	-17.304194	6.377757	356890.75	3.857899E-10	2.592084E+9	18.312795	0.389295	0	0
0	0	0	4.684321	6.377883	-17.706876	6.377883	316014.75	5.066301E-10	1.973827E+9	18.370351	0.387048	0	0
0	0	0	4.41096	6.378031	-18.073884	6.378031	282862	1.039155E-9	9.6232E+8	18.285291	0.385673	0	0
0	0	0	4.142052	6.378052	-18.434482	6.378052	253644.625	1.142638E-9	8.751681E+8	18.27244	0.383452	0	0
0	0	0	3.881841	6.378045	-18.783319	6.378045	228248.75	9.561264E-10	1.045887E+9	18.317053	0.381402	0	0
0	0	0	3.634004	6.37794	-19.115215	6.37794	206428.5	4.214265E-10	2.372893E+9	18.24553	0.379802	0	0
0	0	0	3.404379	6.378045	-19.423445	6.378045	188078	7.878526E-10	1.269273E+9	18.222925	0.377687	0	0
0	0	0	3.214734	6.377715	-19.676515	6.377715	174158.875	1.698225E-10	5.888502E+9	18.278079	0.375651	0	0
0	0	0	3.093327	6.377855	-19.839787	6.377855	165793.875	2.400301E-10	4.166143E+9	18.20621	0.374064	0	0
0	0	0	3.019086	6.378143	-19.940358	6.378143	160877.875	3.696132E-8	2.705531E+7	18.162957	0.3722	0	0
0	0	0	2.933207	6.378045	-20.055141	6.378045	155372.75	6.508514E-10	1.536449E+9	18.228111	0.370018	0	0
0	0	0	2.819559	6.378003	-20.207356	6.378003	148376.125	4.374728E-10	2.285856E+9	18.172974	0.368617	0	0
0	0	0	2.699907	6.377996	-20.367745	6.377996	141350	3.971541E-10	2.517914E+9	18.115525	0.366607	0	0
0	0	0	2.567434	6.378045	-20.545529	6.378045	133958.5	5.611478E-10	1.782062E+9	18.172707	0.364611	0	0
0	0	0	2.430631	6.378066	-20.729015	6.378066	126730.875	6.723115E-10	1.487406E+9	18.124952	0.36309	0	0
0	0	0	2.289867	6.378143	-20.918017	6.378143	119700.75	2.750097E-8	3.636235E+7	18.039682	0.361385	0	0
0	0	0	2.146572	6.377982	-21.109543	6.377982	112944.625	2.900563E-10	3.447606E+9	18.103451	0.359137	0	0
0	0	0	1.997967	6.378031	-21.308955	6.378031	106340.75	3.906661E-10	2.559731E+9	18.078453	0.357802	0	0
0	0	0	1.848791	6.378038	-21.508979	6.378038	100099.75	3.918366E-10	2.552084E+9	17.997711	0.356215	0	0
0	0	0	1.693081	6.378094	-21.717944	6.378094	93975.875	7.732256E-10	1.293284E+9	18.062	0.353941	0	0
0	0	0	1.532512	6.378242	-21.93376	6.378242	88052.875	-3.828101E-10	-2.612261E+9	18.030071	0.3525	0	0
0	0	0	1.364837	6.378178	-22.158329	6.378178	82265.75	-1.036734E-9	-9.645676E+8	17.930958	0.351032	0	0
0	0	0	1.203369	6.378017	-22.374211	6.378017	77052.875	2.520662E-10	3.967212E+9	17.996728	0.348824	0	0
0	0	0	1.063626	6.37801	-22.561536	6.37801	72808.625	2.258151E-10	4.428401E+9	17.993699	0.347343	0	0
0	0	0	0.954225	6.378193	-22.708887	6.378193	69649.75	-6.172858E-10	-1.619995E+9	17.901615	0.346048	0	0
0	0	0	0.829265	6.378073	-22.875976	6.378073	66209	3.85475E-10	2.594202E+9	17.949263	0.343906	0	0
0	0	0	0.622999	6.378291	-23.153326	6.378291	60897.375	-1.753947E-10	-5.701428E+9	17.949066	0.342213	0	0
0	0	0	0.423227	6.378263	-23.421057	6.378263	56159.5	-2.003984E-10	-4.990059E+9	17.837476	0.341037	0	0
0	0	0	0.299533	6.378312	-23.587077	6.378312	53412.5	-1.343967E-10	-7.440657E+9	17.889538	0.33904	0	0
0	0	0	0.21982	6.378143	-23.693317	6.378143	51713.875	1.188119E-8	8.416663E+7	17.900862	0.33744	0	0
0	0	0	0.170244	6.378164	-23.759861	6.378164	50684.875	-1.10498E-9	-9.049939E+8	17.801392	0.336118	0	0
0	0	0	0.11879	6.378256	-23.829189	6.378256	49638.5	-1.883825E-10	-5.30835E+9	17.840976	0.334082	0	0
0	0	0	0.100169	6.378024	-23.853283	6.378024	49265.125	1.705004E-10	5.86509E+9	17.840575	0.332641	0	0
0	0	0	0.066111	6.378017	-23.898918	6.378017	48589.5	1.589528E-10	6.291176E+9	17.740546	0.331266	0	0
0	0	0	0.040915	6.378305	-23.933781	6.378305	48095.625	-1.263402E-10	-7.915135E+9	17.777319	0.329401	0	0
0	0	0	0.034013	6.377975	-23.941792	6.377975	47961.25	1.180936E-10	8.467862E+9	17.800615	0.327802	0	0
0	0	0	0.026949	6.378249	-23.952294	6.378249	47824.125	-1.9381E-10	-5.159694E+9	17.699831	0.326638	0	0
0	0	0	0.011716	6.378143	-23.972319	6.378143	47529.625	1.091987E-8	9.157617E+7	17.729911	0.324655	0	0
0	0	0	-0.006578	6.378108	-23.996715	6.378108	47178.5	5.35778E-10	1.866445E+9	17.733307	0.32324	0	0
0	0	0	-0.021157	6.378108	-24.01626	6.378108	46900.375	5.326196E-10	1.877513E+9	17.635529	0.321905	0	0
0	0	0	-0.030999	6.378101	-24.029428	6.378101	46713.625	4.457545E-10	2.243387E+9	17.686088	0.319935	0	0
0	0	0	-0.035409	6.378263	-24.03595	6.378263	46630.125	-1.66394E-10	-6.009832E+9	17.711015	0.31852	0	0
0	0	0	-0.038472	6.378171	-24.039712	6.378171	46572.25	-7.438445E-10	-1.344367E+9	17.601404	0.317277	0	0
0	0	0	-0.041126	6.378298	-24.043747	6.378298	46522.25	-1.278285E-10	-7.822981E+9	17.625466	0.315532	0	0
0	0	0	-0.044189	6.378235	-24.047615	6.378235	46464.5	-2.178604E-10	-4.590094E+9	17.6242	0.314011	0	0
0	0	0	-0.050886	6.378221	-24.056541	6.378221	46338.5	-2.577296E-10	-3.880036E+9	17.522866	0.312782	0	0
0	0	0	-0.058563	6.378101	-24.066384	6.378101	46194.5	4.408009E-10	2.268598E+9	17.593505	0.310918	0	0
0	0	0	-0.062606	6.378087	-24.071751	6.378087	46118.875	3.335225E-10	2.998298E+9	17.582406	0.309635	0	0
0	0	0	-0.072489	6.37834	-24.085953	6.37834	45934.375	-9.891403E-11	-1.010979E+10	17.479894	0.308485	0	0
0	0	0	-0.08135	6.378256	-24.097516	6.378256	45769.625	-1.736997E-10	-5.757061E+9	17.512385	0.306568	0	0
0	0	0	-0.087476	6.378031	-24.104882	6.378031	45656.125	1.677278E-10	5.962041E+9	17.492098	0.305259	0	0
0	0	0	-0.093724	6.378101	-24.113523	6.378101	45540.625	4.345614E-10	2.301171E+9	17.38591	0.304003	0	0
0	0	0	-0.096582	6.378087	-24.117303	6.378087	45487.875	3.289593E-10	3.03989E+9	17.460809	0.302046	0	0
0	0	0	-0.100053	6.378221	-24.122459	6.378221	45423.875	-2.526425E-10	-3.958162E+9	17.453257	0.300935	0	0
0	0	0	-0.102871	6.378045	-24.125575	6.378045	45372.125	1.900624E-10	5.261431E+9	17.353701	0.299878	0	0
0	0	0	-0.104423	6.378235	-24.128371	6.378235	45343.5	-2.126044E-10	-4.703573E+9	17.429659	0.297762	0	0
0	0	0	-0.106914	6.378136	-24.13134	6.378136	45297.75	2.147497E-9	4.656583E+8	17.370212	0.296678	0	0
0	0	0	-0.109078	6.378228	-24.134585	6.378228	45258	-2.302787E-10	-4.342564E+9	17.281975	0.295356	0	0
0	0	0	-0.109977	6.378087	-24.135261	6.378087	45241.5	3.271775E-10	3.056445E+9	17.352356	0.293703	0	0
0	0	0	-0.110875	6.3782	-24.136889	6.3782	45225.125	-3.490321E-10	-2.865066E+9	17.307181	0.292592	0	0
0	0	0	-0.11112	6.378073	-24.136741	6.378073	45220.625	2.632787E-10	3.798256E+9	17.251699	0.291112	0	0
0	0	0	-0.111242	6.378059	-24.136852	6.378059	45218.375	2.203185E-10	4.538883E+9	17.315124	0.289485	0	0
0	0	0	-0.112059	6.378129	-24.138212	6.378129	45203.375	1.194783E-9	8.369722E+8	17.247501	0.288428	0	0
0	0	0	-0.111978	6.378003	-24.137626	6.378003	45204.875	1.332823E-10	7.502874E+9	17.181172	0.287	0	0
0	0	0	-0.1121	6.37808	-24.138081	6.37808	45202.625	2.915944E-10	3.429421E+9	17.243507	0.285228	0	0
0	0	0	-0.112549	6.378143	-24.138922	6.378143	45194.375	1.038335E-8	9.630801E+7	17.15975	0.284289	0	0
0	0	0	-0.112917	6.378157	-24.139467	6.378157	45187.625	-1.551304E-9	-6.446191E+8	17.133564	0.282848	0	0
0	0	0	-0.112713	6.377968	-24.138479	6.377968	45191.375	1.068683E-10	9.357315E+9	17.195881	0.281341	0	0
0	0	0	-0.112713	6.37801	-24.138638	6.37801	45191.375	1.401606E-10	7.134675E+9	17.075535	0.280415	0	0
0	0	0	-0.113448	6.378003	-24.139597	6.378003	45177.875	1.332027E-10	7.507358E+9	17.08366	0.278815	0	0
0	0	0	-0.113162	6.378073	-24.139478	6.378073	45183.125	2.630604E-10	3.801409E+9	17.123247	0.277454	0	0
0	0	0	-0.113039	6.378136	-24.139552	6.378136	45185.375	2.14217E-9	4.668164E+8	17.009655	0.276475	0	0
0	0	0	-0.113448	6.378115	-24.14002	6.378115	45177.875	6.334943E-10	1.578546E+9	17.043948	0.274823	0	0
0	0	0	-0.113121	6.378178	-24.13982	6.378178	45183.875	-5.694186E-10	-1.756177E+9	17.059633	0.273672	0	0
0	0	0	-0.113734	6.378228	-24.140827	6.378228	45172.625	-2.298443E-10	-4.350771E+9	16.965672	0.272615	0	0
0	0	0	-0.113203	6.378235	-24.140142	6.378235	45182.375	-2.118489E-10	-4.720346E+9	17.018324	0.270883	0	0
0	0	0	-0.11357	6.378193	-24.140476	6.378193	45175.625	-4.003786E-10	-2.497636E+9	16.987684	0.269891	0	0
0	0	0	-0.113203	6.378157	-24.13985	6.378157	45182.375	-1.551123E-9	-6.44694E+8	16.874278	0.26886	0	0
0	0	0	-0.113407	6.378094	-24.139886	6.378094	45178.625	3.71726E-10	2.690154E+9	16.954482	0.267088	0	0
0	0	0	-0.113488	6.378354	-24.140975	6.378354	45177.125	-9.074113E-11	-1.102036E+10	16.907395	0.266189	0	0
0	0	0	-0.113734	6.378157	-24.140562	6.378157	45172.625	-1.550789E-9	-6.448332E+8	16.828358	0.265012	0	0
0	0	0	-0.113243	6.378087	-24.13964	6.378087	45181.625	3.267445E-10	3.060495E+9	16.909822	0.263333	0	0
0	0	0	-0.113611	6.378242	-24.140716	6.378242	45174.875	-1.963979E-10	-5.091705E+9	16.817513	0.262487	0	0
0	0	0	-0.113366	6.378207	-24.140255	6.378207	45179.375	-3.087844E-10	-3.238506E+9	16.761383	0.261284	0	0
0	0	0	-0.113162	6.378171	-24.139849	6.378171	45183.125	-7.216576E-10	-1.385699E+9	16.828213	0.25979	0	0
0	0	0	-0.113039	6.3782	-24.13979	6.3782	45185.375	-3.487253E-10	-2.867587E+9	16.722168	0.259023	0	0
0	0	0	-0.113815	6.378115	-24.140513	6.378115	45171.125	6.333997E-10	1.578782E+9	16.729379	0.257515	0	0
0	0	0	-0.113652	6.378115	-24.140294	6.378115	45174.25	6.334435E-10	1.578673E+9	16.790455	0.256193	0	0
0	0	0	-0.113815	6.378171	-24.140725	6.378171	45171.125	-7.21466E-10	-1.386067E+9	16.657367	0.255479	0	0
0	0	0	-0.114264	6.378045	-24.14085	6.378045	45162.875	1.891858E-10	5.285808E+9	16.695304	0.253774	0	0
0	0	0	-0.115367	6.378193	-24.142885	6.378193	45142.75	-4.000872E-10	-2.499455E+9	16.668961	0.252901	0	0
0	0	0	-0.115571	6.378045	-24.142602	6.378045	45139	1.890858E-10	5.288604E+9	16.547166	0.251976	0	0
0	0	0	-0.116225	6.378052	-24.143505	6.378052	45127.125	2.032922E-10	4.919028E+9	16.640394	0.250257	0	0
0	0	0	-0.116265	6.378164	-24.143983	6.378164	45126.375	-9.837991E-10	-1.016468E+9	16.58026	0.24945	0	0
0	0	0	-0.115653	6.378157	-24.143135	6.378157	45137.5	-1.549583E-9	-6.45335E+8	16.528625	0.248326	0	0
0	0	0	-0.117123	6.378108	-24.144921	6.378108	45110.625	5.122944E-10	1.952002E+9	16.6094	0.246753	0	0
0	0	0	-0.117164	6.378164	-24.145188	6.378164	45109.875	-9.834394E-10	-1.016839E+9	16.481545	0.246171	0	0
0	0	0	-0.117613	6.378263	-24.146161	6.378263	45101.625	-1.609397E-10	-6.213506E+9	16.463803	0.244757	0	0
0	0	0	-0.117899	6.378017	-24.145617	6.378017	45096.5	1.47526E-10	6.778466E+9	16.496191	0.24358	0	0
0	0	0	-0.117776	6.378129	-24.145877	6.378129	45098.75	1.192017E-9	8.389139E+8	16.364023	0.242879	0	0
0	0	0	-0.117286	6.378066	-24.144981	6.378066	45107.625	2.392975E-10	4.178899E+9	16.429445	0.241372	0	0
0	0	0	-0.117899	6.378031	-24.14567	6.378031	45096.5	1.656719E-10	6.036027E+9	16.419849	0.240393	0	0
0	0	0	-0.119124	6.378101	-24.147577	6.378101	45074	4.301088E-10	2.324993E+9	16.32791	0.239534	0	0
0	0	0	-0.119696	6.378108	-24.14837	6.378108	45063.625	5.117607E-10	1.954038E+9	16.417343	0.237842	0	0
0	0	0	-0.119982	6.377968	-24.148224	6.377968	45058.375	1.065537E-10	9.384935E+9	16.30308	0.237273	0	0
0	0	0	-0.122473	6.378164	-24.152305	6.378164	45012.875	-9.813247E-10	-1.019031E+9	16.260183	0.23607	0	0
0	0	0	-0.122391	6.378031	-24.151693	6.378031	45014.375	1.653702E-10	6.047039E+9	16.330557	0.234774	0	0
0	0	0	-0.12186	6.378178	-24.151537	6.378178	45024.125	-5.674054E-10	-1.762408E+9	16.195147	0.234087	0	0
0	0	0	-0.120717	6.378157	-24.149924	6.378157	45045	-1.546407E-9	-6.466602E+8	16.256253	0.232566	0	0
0	0	0	-0.120267	6.378101	-24.14911	6.378101	45053.125	4.299096E-10	2.326071E+9	16.248901	0.231746	0	0
0	0	0	-0.120431	6.37815	-24.149515	6.37815	45050.25	-3.636571E-9	-2.749844E+8	16.145456	0.230795	0	0
0	0	0	-0.120717	6.378073	-24.149607	6.378073	45045	2.622562E-10	3.813065E+9	16.212695	0.229367	0	0
0	0	0	-0.121329	6.378214	-24.150957	6.378214	45033.75	-2.761886E-10	-3.620715E+9	16.110499	0.228824	0	0
0	0	0	-0.119941	6.378171	-24.148937	6.378171	45059.125	-7.196771E-10	-1.389512E+9	16.064706	0.227542	0	0
0	0	0	-0.119777	6.378312	-24.149248	6.378312	45062.125	-1.133855E-10	-8.819471E+9	16.118984	0.226378	0	0
0	0	0	-0.120308	6.3782	-24.149536	6.3782	45052.375	-3.476989E-10	-2.876052E+9	16.000407	0.22577	0	0
0	0	0	-0.118471	6.378087	-24.146648	6.378087	45086	3.26053E-10	3.066986E+9	16.050434	0.224369	0	0
0	0	0	-0.118389	6.378066	-24.146459	6.378066	45087.5	2.391907E-10	4.180764E+9	16.041392	0.223509	0	0
0	0	0	-0.117858	6.378094	-24.145854	6.378094	45097.25	3.710564E-10	2.695008E+9	15.932819	0.22265	0	0
0	0	0	-0.118348	6.378122	-24.146617	6.378122	45088.25	8.261755E-10	1.210397E+9	16.023038	0.221222	0	0
0	0	0	-0.117654	6.378284	-24.146295	6.378284	45101	-1.364789E-10	-7.327139E+9	15.912719	0.220667	0	0
0	0	0	-0.117286	6.378129	-24.14522	6.378129	45107.625	1.192252E-9	8.387489E+8	15.886284	0.219345	0	0
0	0	0	-0.117409	6.378221	-24.145728	6.378221	45105.375	-2.508711E-10	-3.986112E+9	15.916314	0.218379	0	0
0	0	0	-0.116592	6.378207	-24.14458	6.378207	45120.375	-3.083811E-10	-3.242741E+9	15.77658	0.217811	0	0
0	0	0	-0.116837	6.378214	-24.144935	6.378214	45115.875	-2.766922E-10	-3.614124E+9	15.871531	0.216211	0	0
0	0	0	-0.115775	6.378157	-24.1433	6.378157	45135.25	-1.549506E-9	-6.453672E+8	15.829581	0.215576	0	0
0	0	0	-0.115694	6.378171	-24.143243	6.378171	45136.75	-7.209169E-10	-1.387122E+9	15.758205	0.214651	0	0
0	0	0	-0.116919	6.377968	-24.144118	6.377968	45114.375	1.066862E-10	9.373286E+9	15.839546	0.213316	0	0
0	0	0	-0.115735	6.3782	-24.143404	6.3782	45136	-3.483442E-10	-2.870723E+9	15.701799	0.212813	0	0
0	0	0	-0.115285	6.378178	-24.142722	6.378178	45144.25	-5.689193E-10	-1.757719E+9	15.707181	0.211438	0	0
0	0	0	-0.115122	6.378066	-24.14208	6.378066	45147.25	2.395077E-10	4.175231E+9	15.716083	0.210658	0	0
0	0	0	-0.115653	6.37827	-24.143559	6.37827	45137.5	-1.519884E-10	-6.57945E+9	15.57168	0.209918	0	0
0	0	0	-0.115653	6.378122	-24.143003	6.378122	45137.5	8.270779E-10	1.209076E+9	15.665332	0.208476	0	0
0	0	0	-0.115244	6.378256	-24.142959	6.378256	45145	-1.713292E-10	-5.836716E+9	15.579607	0.207948	0	0
0	0	0	-0.116306	6.378136	-24.143932	6.378136	45125.625	2.139337E-9	4.674345E+8	15.560769	0.206744	0	0
0	0	0	-0.116388	6.378101	-24.143909	6.378101	45124.125	4.305871E-10	2.322411E+9	15.580553	0.205925	0	0
0	0	0	-0.11696	6.378038	-24.144437	6.378038	45113.625	1.765955E-10	5.662657E+9	15.459942	0.20533	0	0
0	0	0	-0.116633	6.378228	-24.144714	6.378228	45119.625	-2.295746E-10	-4.355882E+9	15.553124	0.203809	0	0
0	0	0	-0.118389	6.378291	-24.147307	6.378291	45087.5	-1.298596E-10	-7.700627E+9	15.462667	0.203241	0	0
0	0	0	-0.117858	6.378157	-24.146092	6.378157	45097.25	-1.548201E-9	-6.45911E+8	15.401811	0.202223	0	0
0	0	0	-0.118634	6.37815	-24.147106	6.37815	45083	-3.639214E-9	-2.747846E+8	15.467246	0.201297	0	0
0	0	0	-0.119001	6.378017	-24.147095	6.378017	45076.375	1.474602E-10	6.781492E+9	15.328947	0.200689	0	0
0	0	0	-0.119124	6.378129	-24.147683	6.378129	45074	1.191363E-9	8.393746E+8	15.402448	0.199367	0	0
0	0	0	-0.119491	6.378108	-24.148097	6.378108	45067.375	5.118033E-10	1.953876E+9	15.35405	0.198719	0	0
0	0	0	-0.119777	6.378171	-24.148718	6.378171	45062.125	-7.19725E-10	-1.38942E+9	15.277675	0.198005	0	0
0	0	0	-0.120267	6.378115	-24.149163	6.378115	45053.125	6.317451E-10	1.582917E+9	15.350077	0.196788	0	0
0	0	0	-0.120349	6.378193	-24.149564	6.378193	45051.625	-3.992796E-10	-2.504511E+9	15.176651	0.196312	0	0
0	0	0	-0.119206	6.378256	-24.148269	6.378256	45072.625	-1.710546E-10	-5.846088E+9	15.267381	0.194885	0	0
0	0	0	-0.120798	6.378108	-24.149849	6.378108	45043.5	5.115321E-10	1.954911E+9	15.195811	0.194475	0	0
0	0	0	-0.121778	6.37815	-24.151321	6.37815	45025.625	-3.634583E-9	-2.751347E+8	15.111168	0.193628	0	0
0	0	0	-0.121084	6.378242	-24.150735	6.378242	45038.25	-1.958039E-10	-5.107151E+9	15.179235	0.192518	0	0
0	0	0	-0.122881	6.378326	-24.153462	6.378326	45005.5	-1.04444E-10	-9.574507E+9	15.044683	0.191989	0	0
0	0	0	-0.12382	6.378319	-24.154694	6.378319	44988.375	-1.086243E-10	-9.20604E+9	15.127094	0.190707	0	0
0	0	0	-0.124147	6.378178	-24.154603	6.378178	44982.375	-5.668793E-10	-1.764044E+9	15.078975	0.190151	0	0
0	0	0	-0.122636	6.378094	-24.152259	6.378094	45009.875	3.703375E-10	2.700239E+9	14.994963	0.189437	0	0
0	0	0	-0.122268	6.378094	-24.151767	6.378094	45016.625	3.703931E-10	2.699835E+9	15.050781	0.188327	0	0
0	0	0	-0.123208	6.378136	-24.153185	6.378136	44999.5	2.133358E-9	4.687446E+8	14.88821	0.18797	0	0
0	0	0	-0.123289	6.378221	-24.153612	6.378221	44998	-2.502738E-10	-3.995623E+9	14.995755	0.186608	0	0
0	0	0	-0.121166	6.378235	-24.150818	6.378235	45036.75	-2.111661E-10	-4.735609E+9	14.884803	0.186224	0	0
0	0	0	-0.121043	6.378305	-24.150918	6.378305	45039	-1.183109E-10	-8.452306E+9	14.836695	0.185206	0	0
0	0	0	-0.120063	6.378108	-24.148863	6.378108	45056.875	5.11684E-10	1.954331E+9	14.905098	0.184294	0	0
0	0	0	-0.119777	6.378052	-24.148268	6.378052	45062.125	2.029994E-10	4.926124E+9	14.74197	0.183897	0	0
0	0	0	-0.120022	6.378207	-24.149179	6.378207	45057.625	-3.079523E-10	-3.247257E+9	14.841094	0.182536	0	0
0	0	0	-0.119859	6.378108	-24.148589	6.378108	45060.625	5.117266E-10	1.954168E+9	14.734581	0.182245	0	0
0	0	0	-0.119532	6.378143	-24.148284	6.378143	45066.625	1.0354E-8	9.658102E+7	14.726541	0.181213	0	0
0	0	0	-0.118266	6.378298	-24.147169	6.378298	45089.75	-1.238924E-10	-8.071517E+9	14.751776	0.18038	0	0
0	0	0	-0.119001	6.37827	-24.148048	6.37827	45076.375	-1.517826E-10	-6.588372E+9	14.62078	0.179865	0	0
0	0	0	-0.118716	6.378214	-24.147453	6.378214	45081.5	-2.764814E-10	-3.61688E+9	14.726047	0.178662	0	0
0	0	0	-0.117572	6.378031	-24.145232	6.378031	45102.375	1.656935E-10	6.035241E+9	14.555647	0.17841	0	0
0	0	0	-0.117899	6.378143	-24.146094	6.378143	45096.5	1.036087E-8	9.651704E+7	14.605829	0.177141	0	0
0	0	0	-0.117164	6.378136	-24.145082	6.378136	45109.875	2.13859E-9	4.675977E+8	14.554101	0.176705	0	0
0	0	0	-0.117327	6.37808	-24.145089	6.37808	45106.875	2.909767E-10	3.436701E+9	14.46534	0.175978	0	0
0	0	0	-0.117245	6.378087	-24.145006	6.378087	45108.375	3.262148E-10	3.065465E+9	14.536966	0.17496	0	0
0	0	0	-0.116837	6.378263	-24.14512	6.378263	45115.875	-1.609906E-10	-6.211544E+9	14.392289	0.174576	0	0
0	0	0	-0.117123	6.378185	-24.145212	6.378185	45110.625	-4.694545E-10	-2.130132E+9	14.5077	0.173294	0	0
0	0	0	-0.114877	6.378059	-24.141725	6.378059	45151.75	2.199939E-10	4.54558E+9	14.402102	0.173003	0	0
0	0	0	-0.115612	6.378122	-24.142948	6.378122	45138.25	8.270917E-10	1.209056E+9	14.394188	0.171998	0	0
0	0	0	-0.115816	6.378228	-24.143619	6.378228	45134.625	-2.29651E-10	-4.354434E+9	14.396929	0.17131	0	0
0	0	0	-0.115857	6.378157	-24.143409	6.378157	45133.75	-1.549454E-9	-6.453886E+8	14.28675	0.170663	0	0
0	0	0	-0.115571	6.378235	-24.143317	6.378235	45139	-2.116455E-10	-4.724882E+9	14.366362	0.169658	0	0
0	0	0	-0.115939	6.378157	-24.143519	6.378157	45132.375	-1.549407E-9	-6.454083E+8	14.177743	0.169327	0	0
0	0	0	-0.117286	6.378277	-24.145775	6.378277	45107.625	-1.437828E-10	-6.954935E+9	14.272597	0.167979	0	0
0	0	0	-0.117	6.378157	-24.144942	6.378157	45112.875	-1.548737E-9	-6.456872E+8	14.156805	0.167754	0	0
0	0	0	-0.117858	6.378221	-24.14633	6.378221	45097.25	-2.508259E-10	-3.98683E+9	14.116092	0.166855	0	0
0	0	0	-0.118062	6.378185	-24.146472	6.378185	45093.5	-4.692763E-10	-2.130941E+9	14.146868	0.165995	0	0
0	0	0	-0.118675	6.378087	-24.146922	6.378087	45082.25	3.260259E-10	3.067241E+9	14.008824	0.165665	0	0
0	0	0	-0.119451	6.378164	-24.148254	6.378164	45068.125	-9.825292E-10	-1.017781E+9	14.119522	0.164514	0	0
0	0	0	-0.120308	6.377947	-24.148583	6.377947	45052.375	9.522962E-11	1.050093E+10	13.936181	0.164343	0	0
0	0	0	-0.119736	6.378129	-24.148504	6.378129	45062.875	1.191069E-9	8.395818E+8	14.046627	0.1631	0	0
0	0	0	-0.119941	6.37827	-24.149308	6.37827	45059.125	-1.517245E-10	-6.590894E+9	13.955836	0.162703	0	0
0	0	0	-0.1199	6.377975	-24.148141	6.377975	45059.875	1.109496E-10	9.013102E+9	13.938163	0.161711	0	0
0	0	0	-0.120145	6.378038	-24.148708	6.378038	45055.375	1.763675E-10	5.669978E+9	13.916306	0.161235	0	0
0	0	0	-0.119941	6.378052	-24.148487	6.378052	45059.125	2.029858E-10	4.926452E+9	13.842988	0.160548	0	0
0	0	0	-0.121737	6.378235	-24.151584	6.378235	45026.375	-2.111174E-10	-4.7367E+9	13.908428	0.159702	0	0
0	0	0	-0.121615	6.37815	-24.151102	6.37815	45028.5	-3.634815E-9	-2.751172E+8	13.745422	0.159292	0	0
0	0	0	-0.121002	6.378038	-24.149858	6.378038	45039.75	1.763064E-10	5.671945E+9	13.828802	0.158221	0	0
0	0	0	-0.121533	6.378178	-24.151099	6.378178	45030	-5.674795E-10	-1.762178E+9	13.681803	0.157917	0	0
0	0	0	-0.123453	6.378115	-24.153434	6.378115	44995	6.3093E-10	1.584962E+9	13.717008	0.156912	0	0
0	0	0	-0.12382	6.378157	-24.154085	6.378157	44988.375	-1.544463E-9	-6.474741E+8	13.641783	0.156489	0	0
0	0	0	-0.123984	6.378101	-24.154092	6.378101	44985.375	4.292631E-10	2.329574E+9	13.571597	0.155722	0	0
0	0	0	-0.124229	6.378108	-24.154447	6.378108	44980.875	5.108209E-10	1.957633E+9	13.601609	0.15514	0	0
0	0	0	-0.125699	6.37815	-24.156577	6.37815	44954.125	-3.628811E-9	-2.755723E+8	13.483556	0.154611	0	0
0	0	0	-0.123738	6.378066	-24.153632	6.378066	44989.875	2.386728E-10	4.189836E+9	13.599929	0.15354	0	0
0	0	0	-0.123289	6.37794	-24.152553	6.37794	44998	9.186402E-11	1.088566E+10	13.440345	0.153302	0	0
0	0	0	-0.122268	6.378045	-24.151581	6.378045	45016.625	1.885732E-10	5.302981E+9	13.556703	0.152126	0	0
0	0	0	-0.122595	6.377961	-24.151701	6.377961	45010.625	1.023875E-10	9.766819E+9	13.413867	0.151954	0	0
0	0	0	-0.121043	6.378094	-24.150124	6.378094	45039	3.705772E-10	2.698493E+9	13.473776	0.15087	0	0
0	0	0	-0.121901	6.377947	-24.150718	6.377947	45023.375	9.516832E-11	1.05077E+10	13.381514	0.150605	0	0
0	0	0	-0.121207	6.378214	-24.150793	6.378214	45036	-2.762024E-10	-3.620534E+9	13.350962	0.149799	0	0
0	0	0	-0.121288	6.37801	-24.150135	6.37801	45034.5	1.39674E-10	7.159528E+9	13.388807	0.148966	0	0
0	0	0	-0.1199	6.378242	-24.149147	6.378242	45059.875	-1.958979E-10	-5.1047E+9	13.242889	0.148582	0	0
0	0	0	-0.119165	6.3782	-24.148003	6.3782	45073.25	-3.4786E-10	-2.87472E+9	13.306443	0.147829	0	0
0	0	0	-0.118675	6.378277	-24.147637	6.378277	45082.25	-1.437019E-10	-6.95885E+9	13.150093	0.147459	0	0
0	0	0	-0.118471	6.378136	-24.146834	6.378136	45086	2.137459E-9	4.678453E+8	13.252975	0.146388	0	0
0	0	0	-0.118144	6.378108	-24.14629	6.378108	45092	5.120829E-10	1.952809E+9	13.0868	0.146269	0	0
0	0	0	-0.118144	6.378193	-24.146608	6.378193	45092	-3.996374E-10	-2.502268E+9	13.153844	0.145184	0	0
0	0	0	-0.118226	6.378066	-24.14624	6.378066	45090.5	2.392066E-10	4.180486E+9	13.023276	0.145013	0	0
0	0	0	-0.118185	6.3782	-24.146689	6.3782	45091.25	-3.479989E-10	-2.873572E+9	13.066581	0.143942	0	0
0	0	0	-0.117695	6.37815	-24.145846	6.37815	45100.125	-3.640597E-9	-2.746803E+8	12.96633	0.143743	0	0
0	0	0	-0.117695	6.378157	-24.145873	6.378157	45100.125	-1.5483E-9	-6.458698E+8	12.973765	0.142831	0	0
0	0	0	-0.117164	6.378157	-24.145161	6.378157	45109.875	-1.548634E-9	-6.457302E+8	12.943031	0.142434	0	0
0	0	0	-0.116429	6.378164	-24.144202	6.378164	45123.375	-9.837337E-10	-1.016535E+9	12.849621	0.141786	0	0
0	0	0	-0.115775	6.378256	-24.14367	6.378256	45135.25	-1.712922E-10	-5.837976E+9	12.887935	0.141218	0	0
0	0	0	-0.116306	6.378284	-24.144488	6.378284	45125.625	-1.365534E-10	-7.323141E+9	12.806575	0.14057	0	0
0	0	0	-0.116102	6.378115	-24.143579	6.378115	45129.25	6.328125E-10	1.580247E+9	12.858984	0.139856	0	0
0	0	0	-0.116715	6.378031	-24.144082	6.378031	45118.125	1.657513E-10	6.033134E+9	12.721844	0.139539	0	0
0	0	0	-0.11651	6.378059	-24.143915	6.378059	45121.875	2.198483E-10	4.54859E+9	12.783538	0.138812	0	0
0	0	0	-0.116674	6.378129	-24.144398	6.378129	45118.875	1.192549E-9	8.385397E+8	12.649237	0.138375	0	0
0	0	0	-0.117245	6.378157	-24.145271	6.378157	45108.375	-1.548583E-9	-6.457517E+8	12.732162	0.137476	0	0
0	0	0	-0.117613	6.378249	-24.146108	6.378249	45101.625	-1.827769E-10	-5.471152E+9	12.56613	0.13745	0	0
0	0	0	-0.119287	6.378214	-24.14822	6.378214	45071.125	-2.764178E-10	-3.617712E+9	12.700348	0.13626	0	0
0	0	0	-0.119818	6.378242	-24.149038	6.378242	45061.375	-1.959044E-10	-5.10453E+9	12.532168	0.136141	0	0
0	0	0	-0.120512	6.37801	-24.149095	6.37801	45048.75	1.397182E-10	7.157263E+9	12.577281	0.135255	0	0
0	0	0	-0.120512	6.378193	-24.149783	6.378193	45048.75	-3.992541E-10	-2.504671E+9	12.457791	0.134911	0	0
0	0	0	-0.11941	6.378164	-24.148199	6.378164	45068.875	-9.825455E-10	-1.017765E+9	12.511179	0.13392	0	0
0	0	0	-0.1199	6.378207	-24.149015	6.378207	45059.875	-3.079676E-10	-3.247094E+9	12.405232	0.133893	0	0
0	0	0	-0.120349	6.377961	-24.14869	6.377961	45051.625	1.024807E-10	9.757931E+9	12.425681	0.132968	0	0
0	0	0	-0.119614	6.378157	-24.148446	6.378157	45065.125	-1.547098E-9	-6.463714E+8	12.376906	0.132624	0	0
0	0	0	-0.120349	6.378263	-24.149829	6.378263	45051.625	-1.607613E-10	-6.220402E+9	12.348804	0.131857	0	0
0	0	0	-0.121574	6.378157	-24.151074	6.378157	45029.25	-1.545867E-9	-6.468864E+8	12.29117	0.131566	0	0
0	0	0	-0.120962	6.378038	-24.149803	6.378038	45040.5	1.763093E-10	5.671851E+9	12.21549	0.130931	0	0
0	0	0	-0.122636	6.37808	-24.152206	6.37808	45009.875	2.90351E-10	3.444107E+9	12.245697	0.13031	0	0
0	0	0	-0.122391	6.378178	-24.152249	6.378178	45014.375	-5.672825E-10	-1.76279E+9	12.193503	0.129794	0	0
0	0	0	-0.124759	6.378193	-24.155477	6.378193	44971.125	-3.985661E-10	-2.508994E+9	12.192208	0.129385	0	0
0	0	0	-0.123493	6.378101	-24.153436	6.378101	44994.25	4.293478E-10	2.329114E+9	12.110845	0.128803	0	0
0	0	0	-0.126107	6.378221	-24.15739	6.378221	44946.625	-2.499881E-10	-4.00019E+9	12.140101	0.128142	0	0
0	0	0	-0.125372	6.378073	-24.155848	6.378073	44960	2.617613E-10	3.820274E+9	12.024162	0.127626	0	0
0	0	0	-0.124106	6.378108	-24.154283	6.378108	44983.125	5.108465E-10	1.957535E+9	12.054009	0.12711	0	0
0	0	0	-0.123984	6.378024	-24.153801	6.378024	44985.375	1.556887E-10	6.423074E+9	11.942408	0.126568	0	0
0	0	0	-0.123208	6.377989	-24.152629	6.377989	44999.5	1.207561E-10	8.281155E+9	11.977144	0.12596	0	0
0	0	0	-0.122268	6.378038	-24.151555	6.378038	45016.625	1.762158E-10	5.674859E+9	11.876778	0.125524	0	0
0	0	0	-0.122513	6.378256	-24.152704	6.378256	45012.125	-1.70825E-10	-5.853946E+9	11.906524	0.124982	0	0
0	0	0	-0.122391	6.378214	-24.152381	6.378214	45014.375	-2.760697E-10	-3.622273E+9	11.806589	0.1244	0	0
0	0	0	-0.121778	6.378108	-24.151163	6.378108	45025.625	5.113291E-10	1.955687E+9	11.855585	0.123937	0	0
0	0	0	-0.122391	6.378235	-24.15246	6.378235	45014.375	-2.110612E-10	-4.737963E+9	11.740028	0.123541	0	0
0	0	0	-0.120594	6.378122	-24.149628	6.378122	45047.125	8.254219E-10	1.211502E+9	11.76015	0.122959	0	0
0	0	0	-0.119573	6.378059	-24.148021	6.378059	45065.875	2.195755E-10	4.554242E+9	11.659419	0.122443	0	0
0	0	0	-0.118756	6.378129	-24.14719	6.378129	45080.75	1.191542E-9	8.392489E+8	11.705176	0.121822	0	0
0	0	0	-0.118716	6.378115	-24.147083	6.378115	45081.5	6.321429E-10	1.581921E+9	11.568255	0.121425	0	0
0	0	0	-0.119001	6.378122	-24.147493	6.378122	45076.375	8.259579E-10	1.210715E+9	0	0	0	0
0	0	0	-0.118675	6.378017	-24.146657	6.378017	45082.25	1.474794E-10	6.780608E+9	0	0	0	0
0	0	0	-0.119001	6.378228	-24.14789	6.378228	45076.375	-2.293546E-10	-4.360061E+9	0	0	0	0
0	0	0	-0.118838	6.378024	-24.146903	6.378024	45079.25	1.560136E-10	6.409698E+9	0	0	0	0
0	0	0	-0.117695	6.378242	-24.146191	6.378242	45100.125	-1.960729E-10	-5.100144E+9	0	0	0	0
0	0	0	-0.117327	6.378214	-24.145592	6.378214	45106.875	-2.76637E-10	-3.614845E+9	0	0	0	0
0	0	0	-0.117	6.378193	-24.145075	6.378193	45112.875	-3.998224E-10	-2.50111E+9	0	0	0	0
0	0	0	-0.116755	6.378038	-24.144164	6.378038	45117.375	1.766102E-10	5.662187E+9	0	0	0	0
0	0	0	-0.116715	6.37827	-24.144982	6.37827	45118.125	-1.519232E-10	-6.582275E+9	0	0	0	0
0	0	0	-0.117	6.378228	-24.145207	6.378228	45112.875	-2.295403E-10	-4.356533E+9	0	0	0	0
0	0	0	-0.116919	6.378031	-24.144356	6.378031	45114.375	1.657376E-10	6.033635E+9	0	0	0	0
0	0	0	-0.11602	6.378171	-24.143681	6.378171	45130.875	-7.208231E-10	-1.387303E+9	0	0	0	0
0	0	0	-0.116184	6.378291	-24.14435	6.378291	45127.875	-1.299758E-10	-7.693737E+9	0	0	0	0
0	0	0	-0.116265	6.37815	-24.14393	6.37815	45126.375	-3.642716E-9	-2.745205E+8	0	0	0	0
0	0	0	-0.11651	6.378052	-24.143888	6.378052	45121.875	2.032685E-10	4.919601E+9	0	0	0	0
0	0	0	-0.118185	6.378256	-24.146901	6.378256	45091.25	-1.711252E-10	-5.843673E+9	0	0	0	0
0	0	0	-0.117858	6.378228	-24.146357	6.378228	45097.25	-2.294608E-10	-4.358043E+9	0	0	0	0
0	0	0	-0.118675	6.37834	-24.147875	6.37834	45082.25	-9.707908E-11	-1.030088E+10	0	0	0	0
0	0	0	-0.118961	6.378157	-24.14757	6.378157	45077	-1.547506E-9	-6.462011E+8	0	0	0	0
0	0	0	-0.118593	6.378094	-24.146839	6.378094	45083.75	3.709454E-10	2.695815E+9	0	0	0	0
0	0	0	-0.118879	6.378193	-24.147593	6.378193	45078.5	-3.995178E-10	-2.503018E+9	0	0	0	0
0	0	0	-0.120267	0	-0.120267	0	45053.125	0	0	0	0	0	0
0	0	0	-0.120104	0	-0.120104	0	45056.125	0	0	0	0	0	0
