Vload_(V)	ILoad_(A)	RsLoad (ohm)	SunsVoc_Voltage_(V)	SunsVoc_Current_(A)	Model_Voltage_(V)	Model_Current_(A)	Carrier_Density_(cm-3)	Lifetime_(s)	Inverse_Lifetime_(s-1)	Efficiency_(%)	Intensity_(suns)	Dark_IV_Voltage_(V)	Dark_IV_Current_(A)
3.332088	6.044573	0	52.25767	-0.516027	52.563798	-0.516027	1.095866E+16	0.000743	1146.439804	20.653059	1.188161	0	0
3.285884	6.048561	-0.549045	52.831914	-0.881304	53.339712	-0.881304	1.292179E+16	0.00083	927.706683	20.332435	1.18594	0	0
3.369201	6.046538	-0.563054	52.966226	-0.798352	53.423043	-0.798352	1.342678E+16	0.000873	846.414099	19.983013	1.186033	0	0
4.002456	6.045767	-0.667887	52.954751	-0.510093	53.2468	-0.510093	1.338291E+16	0.000908	803.701782	19.707119	1.186667	0	0
5.95635	6.04338	3.112218	52.874425	-0.134567	52.951791	-0.134567	1.307964E+16	0.000942	778.011959	19.520318	1.186945	0	0
8.436509	6.039606	3.734751	52.77507	0.23217	52.640904	0.23217	1.271354E+16	0.000973	759.422877	19.407288	1.185623	0	0
10.910445	6.03629	3.70941	52.659665	0.586837	52.318535	0.586837	1.23005E+16	0.001003	746.266469	19.339051	1.183177	0	0
12.916023	6.035618	3.445316	52.549978	0.915645	52.014729	0.915645	1.191973E+16	0.001034	731.426857	19.268948	1.181141	0	0
14.936847	6.031095	3.518188	52.427346	1.237283	51.699574	1.237283	1.150723E+16	0.001065	719.30967	19.211998	1.177703	0	0
17.078354	6.032645	3.046319	52.315086	1.526298	51.412227	1.526298	1.114147E+16	0.001097	705.578218	19.13815	1.17371	0	0
19.371234	6.025841	3.011199	52.194373	1.797123	51.12487	1.797123	1.07604E+16	0.001127	695.138532	19.06235	1.170682	0	0
21.527087	6.027572	2.593545	52.077662	2.04158	50.855602	2.04158	1.040365E+16	0.001156	685.277939	19.012787	1.168329	0	0
23.6805	6.028662	2.194633	51.965198	2.269391	50.599195	2.269391	1.007043E+16	0.001187	674.3711	19.035104	1.164561	0	0
25.86308	6.023859	1.98477	51.846078	2.492964	50.336682	2.492964	9.728404E+15	0.001218	663.57779	19.05894	1.159973	0	0
28.011649	6.023747	1.631186	51.723936	2.701104	50.078722	2.701104	9.389016E+15	0.001249	654.179459	19.035776	1.155425	0	0
30.175428	6.024113	1.264566	51.603672	2.89378	49.830767	2.89378	9.065681E+15	0.00128	644.858716	18.98609	1.151207	0	0
32.327262	6.01718	1.07963	51.484797	3.071056	49.592441	3.071056	8.756306E+15	0.00131	636.10428	18.954421	1.146712	0	0
33.04037	6.016587	0.975582	51.375232	3.235506	49.371017	3.235506	8.479889E+15	0.001343	625.301936	18.951498	1.14252	0	0
33.751457	6.013836	0.915589	51.255663	3.397612	49.138969	3.397612	8.187493E+15	0.001376	615.477824	18.962126	1.138646	0	0
34.453826	6.006934	0.911791	51.136379	3.547764	48.913575	3.547764	7.90513E+15	0.001408	606.281081	18.99414	1.134363	0	0
35.157971	5.999397	0.893697	51.022363	3.682675	48.702564	3.682675	7.643681E+15	0.00144	597.63845	19.010452	1.129563	0	0
35.858969	5.989966	0.880925	50.910349	3.808697	48.498497	3.808697	7.394615E+15	0.001471	588.941589	18.994044	1.12401	0	0
36.552629	5.977127	0.874043	50.798497	3.922738	48.3014	3.922738	7.15339E+15	0.0015	581.850126	18.959984	1.118616	0	0
37.252214	5.96109	0.869131	50.689913	4.028772	48.112327	4.028772	6.92615E+15	0.001528	574.623164	18.943142	1.113816	0	0
37.948209	5.946464	0.838728	50.576754	4.1328	47.918725	4.1328	6.696401E+15	0.001558	567.343597	18.964535	1.108858	0	0
38.645679	5.920994	0.84198	50.470089	4.226727	47.738263	4.226727	6.486242E+15	0.001587	560.183847	18.992029	1.104045	0	0
39.342336	5.890026	0.838405	50.356359	4.318792	47.550444	4.318792	6.268814E+15	0.001616	553.625109	18.997066	1.099246	0	0
40.049366	5.855572	0.819569	50.244916	4.403533	47.369372	4.403533	6.062221E+15	0.001643	547.520379	18.978173	1.094195	0	0
40.743598	5.810571	0.80945	50.136332	4.486539	47.192118	4.486539	5.866901E+15	0.001675	539.842451	18.969848	1.088695	0	0
41.441807	5.758484	0.791423	50.020356	4.569608	47.005893	4.569608	5.664605E+15	0.001708	532.068946	18.977806	1.083208	0	0
42.125358	5.695648	0.773434	49.90973	4.641751	46.832427	4.641751	5.477546E+15	0.001737	525.91069	18.994966	1.07784	0	0
42.822064	5.621917	0.748469	49.797511	4.709402	46.659665	4.709402	5.293508E+15	0.001764	520.48752	19.009781	1.07275	0	0
43.515876	5.519063	0.737414	49.690519	4.77046	46.496835	4.77046	5.12325E+15	0.001789	515.483956	19.007216	1.067844	0	0
44.195678	5.402436	0.71958	49.58516	4.829619	46.336761	4.829619	4.960415E+15	0.001816	509.751571	18.989749	1.062529	0	0
44.87267	5.258862	0.702788	49.47335	4.886855	46.170228	4.886855	4.792698E+15	0.001842	504.88849	18.9722	1.057241	0	0
45.542276	5.084084	0.687861	49.367052	4.940863	46.01183	4.940863	4.637971E+15	0.001869	499.249409	18.983181	1.05215	0	0
46.206405	4.875319	0.673389	49.25908	4.990753	45.853977	4.990753	4.485385E+15	0.001893	494.754593	19.011204	1.046901	0	0
46.861664	4.628088	0.659974	49.151966	5.040016	45.697221	5.040016	4.338442E+15	0.001921	489.269911	19.030384	1.041732	0	0
47.487497	4.353297	0.646074	49.042769	5.086672	45.539549	5.086672	4.193056E+15	0.001947	484.363732	19.023711	1.036721	0	0
48.125101	4.018301	0.637385	48.939983	5.129441	45.391652	5.129441	4.060166E+15	0.001974	479.312745	19.076124	1.03163	0	0
48.745023	3.643938	0.629612	48.82707	5.17261	45.231533	5.17261	3.918483E+15	0.001999	474.744303	19.137614	1.026262	0	0
49.348828	3.231563	0.622655	48.72604	5.20924	45.089414	5.20924	3.795423E+15	0.002021	470.843771	19.166283	1.020445	0	0
49.93787	2.78916	0.614648	48.617864	5.246438	44.938417	5.246438	3.667437E+15	0.002044	466.894798	19.160652	1.014694	0	0
50.492129	2.319367	0.619422	48.512669	5.280267	44.793002	5.280267	3.546624E+15	0.002064	463.564388	19.130691	1.009339	0	0
51.034223	1.838399	0.628148	48.410863	5.312366	44.652525	5.312366	3.433032E+15	0.002086	459.890946	19.086114	1.004077	0	0
51.516795	1.373069	0.632932	48.302034	5.343797	44.504189	5.343797	3.315127E+15	0.002104	456.950616	19.044048	0.998854	0	0
51.966973	0.918931	0.624869	48.199371	5.37369	44.363899	5.37369	3.207148E+15	0.002127	453.165737	19.03304	0.99338	0	0
52.349538	0.535768	0.549569	48.092216	5.40252	44.218976	5.40252	3.097715E+15	0.002146	450.001641	19.042914	0.988237	0	0
42.683655	5.631759	0.761212	47.988327	5.428376	44.079805	5.428376	2.994721E+15	0.002162	447.65901	19.05013	0.9832	0	0
52.757156	0	0	47.880682	5.454433	43.935963	5.454433	2.891137E+15	0.002179	444.982969	19.043255	0.978202	0	0
0	0	0	47.780592	5.476634	43.803539	5.476634	2.797608E+15	0.002191	443.367251	19.024374	0.973191	0	0
0	0	0	47.673477	5.502124	43.660413	5.502124	2.70041E+15	0.002215	439.460939	19.008137	0.968127	0	0
0	0	0	47.565873	5.525018	43.518457	5.525018	2.605698E+15	0.002231	436.958129	19.025862	0.962653	0	0
0	0	0	47.463659	5.545165	43.384653	5.545165	2.518378E+15	0.002243	435.258199	19.051616	0.957431	0	0
0	0	0	47.355319	5.566156	43.242966	5.566156	2.428564E+15	0.002258	433.05204	19.058219	0.952287	0	0
0	0	0	47.258741	5.58337	43.117658	5.58337	2.350816E+15	0.002267	431.854057	19.032752	0.947528	0	0
0	0	0	47.15326	5.602187	42.980673	5.602187	2.268328E+15	0.002281	429.87575	19.011828	0.942279	0	0
0	0	0	47.047901	5.620175	42.844334	5.620175	2.1884E+15	0.002294	428.002269	19.002329	0.937162	0	0
0	0	0	46.949281	5.635443	42.71779	5.635443	2.115758E+15	0.0023	427.267038	19.024269	0.93186	0	0
0	0	0	46.841963	5.652386	42.579737	5.652386	2.039033E+15	0.002313	425.473816	19.04208	0.9271	0	0
0	0	0	46.739626	5.667327	42.448912	5.667327	1.968069E+15	0.002321	424.470472	19.037978	0.92242	0	0
0	0	0	46.637453	5.682304	42.31816	5.682304	1.899303E+15	0.002332	422.787067	19.01781	0.917475	0	0
0	0	0	46.531972	5.696582	42.183983	5.696582	1.830439E+15	0.00234	421.809347	19.002152	0.912411	0	0
0	0	0	46.432249	5.709443	42.057537	5.709443	1.767273E+15	0.002346	421.102599	19.015733	0.907307	0	0
0	0	0	46.32881	5.721959	41.926932	5.721959	1.703691E+15	0.002349	420.862563	19.034792	0.902204	0	0
0	0	0	46.228311	5.733439	41.800492	5.733439	1.64376E+15	0.00235	421.016893	19.037285	0.897114	0	0
0	0	0	46.124995	5.745614	41.670145	5.745614	1.583994E+15	0.002357	420.112366	19.007866	0.892248	0	0
0	0	0	46.023271	5.756809	41.542352	5.756809	1.526929E+15	0.00236	419.782196	18.982549	0.88721	0	0
0	0	0	45.921342	5.767074	41.414978	5.767074	1.471478E+15	0.002359	420.340987	18.982468	0.882226	0	0
0	0	0	45.817536	5.77741	41.285286	5.77741	1.416737E+15	0.002359	420.583534	19.010652	0.877228	0	0
0	0	0	45.717731	5.787197	41.160653	5.787197	1.365712E+15	0.00236	420.548131	19.023423	0.872283	0	0
0	0	0	45.614129	5.796462	41.031923	5.796462	1.31437E+15	0.002357	421.479614	18.997916	0.867695	0	0
0	0	0	45.511384	5.805276	40.904498	5.805276	1.265044E+15	0.002352	422.573731	18.9738	0.862962	0	0
0	0	0	45.413948	5.812895	40.784197	5.812895	1.219695E+15	0.002342	424.52793	18.962706	0.85807	0	0
0	0	0	45.306221	5.822215	40.650423	5.822215	1.171133E+15	0.002343	424.538147	18.986297	0.853072	0	0
0	0	0	45.207315	5.830445	40.527811	5.830445	1.127968E+15	0.002343	424.633362	19.001651	0.84826	0	0
0	0	0	45.102201	5.837552	40.398773	5.837552	1.083548E+15	0.002328	427.546043	18.985303	0.843632	0	0
0	0	0	44.996475	5.846084	40.267819	5.846084	1.040341E+15	0.002332	427.1009	18.940976	0.839176	0	0
0	0	0	44.900959	5.851923	40.150981	5.851923	1.002543E+15	0.002315	430.306662	18.928595	0.83435	0	0
0	0	0	44.794212	5.859752	40.019305	5.859752	9.616548E+14	0.002315	430.504794	18.944252	0.829577	0	0
0	0	0	44.691426	5.866556	39.893069	5.866556	9.236005E+14	0.002308	431.864906	18.964395	0.824751	0	0
0	0	0	44.592642	5.871782	39.772788	5.871782	8.882138E+14	0.002287	436.007847	18.959459	0.820296	0	0
0	0	0	44.484548	5.879165	39.639762	5.879165	8.507893E+14	0.002288	435.844985	18.921341	0.815972	0	0
0	0	0	44.387316	5.884309	39.521301	5.884309	8.182545E+14	0.002271	439.179995	18.888564	0.81157	0	0
0	0	0	44.284775	5.890079	39.396054	5.890079	7.850718E+14	0.002261	441.35501	18.90194	0.806863	0	0
0	0	0	44.180928	5.896534	39.268666	5.896534	7.526166E+14	0.002262	441.235511	18.926333	0.802314	0	0
0	0	0	44.081491	5.900429	39.148561	5.900429	7.225967E+14	0.00223	447.561523	18.916048	0.797964	0	0
0	0	0	43.979971	5.905005	39.025415	5.905005	6.929872E+14	0.002209	451.948482	18.87358	0.793945	0	0
0	0	0	43.879636	5.910298	38.903029	5.910298	6.647279E+14	0.002202	453.360061	18.852267	0.789582	0	0
0	0	0	43.777707	5.91493	38.779298	5.91493	6.370162E+14	0.002186	456.828231	18.859894	0.785206	0	0
0	0	0	43.674105	5.918626	38.654364	5.918626	6.098509E+14	0.002154	463.638448	18.885195	0.78075	0	0
0	0	0	43.571156	5.923908	38.528825	5.923908	5.838302E+14	0.002152	464.043702	18.893035	0.776519	0	0
0	0	0	43.467554	5.928902	38.402733	5.928902	5.58597E+14	0.002148	464.98254	18.863368	0.772513	0	0
0	0	0	43.367504	5.931583	38.28277	5.931583	5.351114E+14	0.002107	474.192101	18.821475	0.768388	0	0
0	0	0	43.260757	5.934946	38.154327	5.934946	5.109832E+14	0.002073	481.85008	18.82806	0.763998	0	0
0	0	0	43.158666	5.939029	38.030719	5.939029	4.887796E+14	0.00206	485.020586	18.85926	0.759648	0	0
0	0	0	43.057513	5.943168	37.908141	5.943168	4.675977E+14	0.002051	487.140904	18.862616	0.755536	0	0
0	0	0	42.947704	5.946788	37.775804	5.946788	4.454972E+14	0.002027	493.093544	18.823071	0.751675	0	0
0	0	0	42.84598	5.949119	37.654082	5.949119	4.258305E+14	0.001985	503.603569	18.790165	0.747564	0	0
0	0	0	42.738743	5.951639	37.525695	5.951639	4.059122E+14	0.001943	514.405339	18.788077	0.74328	0	0
0	0	0	42.633017	5.955229	37.398128	5.955229	3.870681E+14	0.001927	518.636385	18.799101	0.739062	0	0
0	0	0	42.530476	5.958764	37.274336	5.958764	3.695212E+14	0.001916	521.794947	18.798808	0.734831	0	0
0	0	0	42.419319	5.962178	37.140487	5.962178	3.512857E+14	0.001897	527.066541	18.756979	0.731195	0	0
0	0	0	42.29881	5.964944	36.996184	5.964944	3.324088E+14	0.001857	538.326655	18.715947	0.72711	0	0
0	0	0	42.193615	5.966805	36.870696	5.966805	3.166639E+14	0.001811	551.902968	18.713668	0.722813	0	0
0	0	0	42.082091	5.969321	36.737158	5.969321	3.00692E+14	0.001778	562.433901	18.7326	0.718886	0	0
0	0	0	41.975834	5.972572	36.609146	5.972572	2.86141E+14	0.001768	565.522187	18.725163	0.714985	0	0
0	0	0	41.866473	5.975846	36.477437	5.975846	2.718204E+14	0.001759	568.253932	18.684217	0.711283	0	0
0	0	0	41.749232	5.978758	36.336755	5.978758	2.571795E+14	0.001738	575.175728	18.650416	0.707595	0	0
0	0	0	41.641055	5.980554	36.207741	5.980554	2.443002E+14	0.001698	588.982805	18.646743	0.70339	0	0
0	0	0	41.529653	5.98244	36.074836	5.98244	2.316444E+14	0.001658	602.880975	18.660085	0.699543	0	0
0	0	0	41.417761	5.984064	35.94158	5.984064	2.195302E+14	0.001614	619.531647	18.663645	0.695867	0	0
0	0	0	41.310197	5.986304	35.812846	5.986304	2.084275E+14	0.001591	628.390281	18.62837	0.692297	0	0
0	0	0	41.19173	5.989056	35.670783	5.989056	1.967908E+14	0.001577	634.113898	18.584734	0.688754	0	0
0	0	0	41.083718	5.991107	35.541664	5.991107	1.866999E+14	0.001553	643.709386	18.580245	0.684946	0	0
0	0	0	40.965945	5.993446	35.400767	5.993446	1.762379E+14	0.001533	652.090352	18.622079	0.681006	0	0
0	0	0	40.853644	5.995305	35.266748	5.995305	1.667655E+14	0.001506	664.087508	18.60291	0.677462	0	0
0	0	0	40.738158	5.996883	35.129226	5.996883	1.575151E+14	0.001469	680.566253	18.555178	0.674117	0	0
0	0	0	40.618426	5.998186	34.986948	5.998186	1.484269E+14	0.001423	702.509069	18.521713	0.67031	0	0
0	0	0	40.501715	5.999641	34.848079	5.999641	1.400381E+14	0.001386	721.24689	18.514396	0.666726	0	0
0	0	0	40.381696	6.000886	34.7055	6.000886	1.318732E+14	0.001343	744.685845	18.526975	0.663011	0	0
0	0	0	40.266945	6.002171	34.569081	6.002171	1.244841E+14	0.001306	765.684356	18.508672	0.659494	0	0
0	0	0	40.145987	6.003581	34.425221	6.003581	1.171162E+14	0.001271	786.802944	18.457217	0.656242	0	0
0	0	0	40.024131	6.005359	34.27994	6.005359	1.101092E+14	0.001249	800.570382	18.431258	0.652487	0	0
0	0	0	39.906358	6.007236	34.139364	6.007236	1.03714E+14	0.001236	809.26407	18.432199	0.64889	0	0
0	0	0	39.780173	6.009233	33.988744	6.009233	9.725231E+13	0.001224	816.860141	18.452567	0.645255	0	0
0	0	0	39.657827	6.010619	33.843226	6.010619	9.135294E+13	0.001197	835.511941	18.430879	0.641817	0	0
0	0	0	39.534133	6.012007	33.696107	6.012007	8.573537E+13	0.001171	853.871634	18.373456	0.638604	0	0
0	0	0	39.405865	6.013083	33.543891	6.013083	8.025861E+13	0.001134	882.010419	18.365731	0.634809	0	0
0	0	0	39.280374	6.014119	33.394979	6.014119	7.522504E+13	0.001099	910.069339	18.371989	0.631266	0	0
0	0	0	39.152923	6.014914	33.243986	6.014914	7.042317E+13	0.001056	946.730403	18.368639	0.627802	0	0
0	0	0	39.025799	6.015656	33.093425	6.015656	6.592763E+13	0.001014	986.012033	18.324216	0.624616	0	0
0	0	0	38.891936	6.016385	32.934928	6.016385	6.149283E+13	0.00097	1030.457021	18.276855	0.621337	0	0
0	0	0	38.75885	6.017382	32.777075	6.017382	5.736981E+13	0.000939	1065.473842	18.26037	0.617886	0	0
0	0	0	38.62609	6.018059	32.619917	6.018059	5.352385E+13	0.000898	1113.583446	18.275876	0.614276	0	0
0	0	0	38.489247	6.019069	32.457606	6.019069	4.982145E+13	0.000869	1150.744829	18.257802	0.61109	0	0
0	0	0	38.353302	6.020109	32.296317	6.020109	4.639012E+13	0.000844	1185.479025	18.209273	0.607956	0	0
0	0	0	38.208944	6.021127	32.125126	6.021127	4.299826E+13	0.000816	1225.802811	18.16467	0.604823	0	0
0	0	0	38.068548	6.022276	31.958461	6.022276	3.99319E+13	0.000797	1255.213512	18.163495	0.601345	0	0
0	0	0	37.925702	6.023325	31.789001	6.023325	3.703143E+13	0.000775	1289.866134	18.181455	0.598119	0	0
0	0	0	37.779343	6.024403	31.615362	6.024403	3.427355E+13	0.000756	1322.978606	18.152409	0.595211	0	0
0	0	0	37.632781	6.025143	31.44182	6.025143	3.171371E+13	0.000726	1377.25649	18.08331	0.592275	0	0
0	0	0	37.483319	6.026109	31.26462	6.026109	2.929656E+13	0.000706	1416.771188	18.063425	0.58893	0	0
0	0	0	37.330794	6.027298	31.08357	6.027298	2.701659E+13	0.000696	1437.444657	18.076831	0.585651	0	0
0	0	0	37.177698	6.027891	30.902456	6.027891	2.49038E+13	0.000664	1505.860129	18.069936	0.582425	0	0
0	0	0	37.020314	6.028542	30.716219	6.028542	2.290152E+13	0.000635	1573.566876	18.015874	0.579636	0	0
0	0	0	36.865135	6.029191	30.532579	6.029191	2.108294E+13	0.00061	1640.1083	17.979275	0.576449	0	0
0	0	0	36.702932	6.029772	30.340724	6.029772	1.933438E+13	0.000581	1720.963407	17.963006	0.573369	0	0
0	0	0	36.537748	6.030167	30.145545	6.030167	1.770103E+13	0.000547	1829.593847	17.97945	0.570063	0	0
0	0	0	36.37142	6.030576	29.948998	6.030576	1.619437E+13	0.000515	1942.992265	17.956021	0.567181	0	0
0	0	0	36.20056	6.030963	29.747126	6.030963	1.477884E+13	0.000483	2070.167465	17.897508	0.564444	0	0
0	0	0	36.030067	6.031362	29.545672	6.031362	1.348867E+13	0.000454	2201.695938	17.849272	0.561429	0	0
0	0	0	35.850958	6.031869	29.333936	6.031869	1.225349E+13	0.000429	2330.639252	17.845555	0.558217	0	0
0	0	0	35.670379	6.032233	29.120617	6.032233	1.112185E+13	0.000401	2494.159901	17.852228	0.555242	0	0
0	0	0	35.486777	6.032553	28.903779	6.032553	1.00777E+13	0.000373	2681.236884	17.797387	0.552663	0	0
0	0	0	35.304279	6.032834	28.688281	6.032834	9.136416E+12	0.000346	2888.43263	17.738927	0.549755	0	0
0	0	0	35.113735	6.033289	28.463101	6.033289	8.246842E+12	0.000325	3075.957059	17.735123	0.546634	0	0
0	0	0	34.923559	6.033655	28.238448	6.033655	7.444947E+12	0.000303	3296.618803	17.760567	0.543646	0	0
0	0	0	34.727544	6.034039	28.006885	6.034039	6.699604E+12	0.000283	3534.520771	17.736259	0.541121	0	0
0	0	0	34.533611	6.034412	27.777787	6.034412	6.03536E+12	0.000264	3784.907081	17.661582	0.538371	0	0
0	0	0	34.334736	6.034701	27.542951	6.034701	5.422294E+12	0.000244	4092.965794	17.627149	0.535475	0	0
0	0	0	34.129247	6.034855	27.300464	6.034855	4.853975E+12	0.000222	4500.890772	17.635397	0.532461	0	0
0	0	0	33.92392	6.03521	27.057938	6.03521	4.345441E+12	0.000206	4843.601668	17.634196	0.529631	0	0
0	0	0	33.713204	6.035644	26.808961	6.035644	3.878762E+12	0.000193	5174.846936	17.585043	0.52704	0	0
0	0	0	33.497505	6.035811	26.554412	6.035811	3.4528E+12	0.000175	5704.535086	17.526712	0.524435	0	0
0	0	0	33.279437	6.036347	26.29664	6.036347	3.069601E+12	0.000166	6024.387767	17.509639	0.521487	0	0
0	0	0	33.062023	6.036553	26.040015	6.036553	2.729818E+12	0.000151	6604.273128	17.525524	0.518485	0	0
0	0	0	32.827907	6.03701	25.763398	6.03701	2.405803E+12	0.000142	7067.055946	17.493144	0.516039	0	0
0	0	0	32.601305	6.03753	25.495562	6.03753	2.128812E+12	0.000134	7437.423829	17.428227	0.513514	0	0
0	0	0	32.368986	6.037741	25.221342	6.037741	1.877869E+12	0.000122	8179.049559	17.387432	0.51083	0	0
0	0	0	32.13687	6.038052	24.947241	6.038052	1.656658E+12	0.000113	8849.048262	17.413544	0.507802	0	0
0	0	0	31.907287	6.038612	24.675824	6.038612	1.463481E+12	0.000109	9157.390584	17.393783	0.505317	0	0
0	0	0	31.672272	6.038951	24.398259	6.038951	1.289024E+12	0.000102	9805.405151	17.323371	0.502858	0	0
0	0	0	31.436523	6.039114	24.120037	6.039114	1.134898E+12	9.247207E-5	10814.0761	17.266731	0.500266	0	0
0	0	0	31.194076	6.039402	23.833761	6.039402	9.955797E+11	8.563599E-5	11677.332678	17.261849	0.497476	0	0
0	0	0	30.950567	6.039607	23.546331	6.039607	8.728537E+11	7.818252E-5	12790.582997	17.273828	0.494819	0	0
0	0	0	30.709264	6.039823	23.261485	6.039823	7.661612E+11	7.174521E-5	13938.212092	17.213131	0.492584	0	0
0	0	0	30.462366	6.040284	22.969733	6.040284	6.704746E+11	6.953738E-5	14380.754517	17.147337	0.490099	0	0
0	0	0	30.21314	6.04043	22.675623	6.04043	5.859964E+11	6.292337E-5	15892.346788	17.127657	0.487428	0	0
0	0	0	29.962567	6.040515	22.379998	6.040515	5.117859E+11	5.61049E-5	17823.754785	17.13489	0.48485	0	0
0	0	0	29.708686	6.040965	22.08001	6.040965	4.461724E+11	5.500867E-5	18178.951369	17.110394	0.482311	0	0
0	0	0	29.454192	6.041254	21.779498	6.041254	3.888401E+11	5.211029E-5	19190.06904	17.020145	0.480156	0	0
0	0	0	29.193818	6.041316	21.472335	6.041316	3.37798E+11	4.612797E-5	21678.819242	16.996388	0.477287	0	0
0	0	0	28.932587	6.041749	21.163682	6.041749	2.933188E+11	4.62052E-5	21642.587259	17.018876	0.474709	0	0
0	0	0	28.663678	6.041803	20.84646	6.041803	2.536408E+11	4.072568E-5	24554.529026	16.990731	0.472223	0	0
0	0	0	28.394687	6.041882	20.529107	6.041882	2.193196E+11	3.625058E-5	27585.763916	16.901613	0.470028	0	0
0	0	0	28.125778	6.041994	20.211807	6.041994	1.896504E+11	3.270343E-5	30577.835235	16.85363	0.467463	0	0
0	0	0	27.851642	6.042324	19.88805	6.042324	1.635317E+11	3.234884E-5	30913.014171	16.862078	0.464753	0	0
0	0	0	27.575709	6.042402	19.562506	6.042402	1.408729E+11	2.885717E-5	34653.432171	16.84459	0.462307	0	0
0	0	0	27.298633	6.042485	19.235604	6.042485	1.212784E+11	2.583437E-5	38708.130231	16.774599	0.460099	0	0
0	0	0	27.017922	6.042821	18.904074	6.042821	1.042043E+11	2.64542E-5	37801.181141	16.716093	0.457692	0	0
0	0	0	26.7337	6.04273	18.568973	6.04273	8.936402E+10	2.157214E-5	46356.093922	16.702127	0.455127	0	0
0	0	0	26.445761	6.042959	18.229056	6.042959	7.648332E+10	2.108049E-5	47437.228545	16.71047	0.452536	0	0
0	0	0	26.153126	6.043075	17.883752	6.043075	6.529317E+10	1.938152E-5	51595.542521	16.633545	0.450606	0	0
0	0	0	25.860858	6.04311	17.53899	6.04311	5.575125E+10	1.694599E-5	59010.99445	16.575393	0.448173	0	0
0	0	0	25.564956	6.043278	17.189756	6.043278	4.751031E+10	1.631459E-5	61294.82643	16.560818	0.4457	0	0
0	0	0	25.266972	6.043359	16.838184	6.043359	4.044192E+10	1.481675E-5	67491.175015	16.566387	0.443307	0	0
0	0	0	24.969927	6.04346	16.48769	6.04346	3.44426E+10	1.37642E-5	72652.266734	16.515714	0.441311	0	0
0	0	0	24.666388	6.043408	16.129753	6.043408	2.923045E+10	1.115704E-5	89629.537992	16.430127	0.439195	0	0
0	0	0	24.360931	6.043608	15.769194	6.043608	2.478131E+10	1.142589E-5	87520.560857	16.407731	0.436802	0	0
0	0	0	24.051798	6.043423	15.404849	6.043423	2.096766E+10	8.106922E-6	123351.378543	16.41297	0.43433	0	0
0	0	0	23.741235	6.04351	15.038428	6.04351	1.77272E+10	7.416503E-6	134834.439344	16.368604	0.43232	0	0
0	0	0	23.416094	6.043677	14.654695	6.043677	1.486988E+10	7.381246E-6	135478.483697	16.294499	0.430218	0	0
0	0	0	23.093363	6.043704	14.274005	6.043704	1.248936E+10	6.393234E-6	156415.356323	16.254823	0.427904	0	0
0	0	0	22.769161	6.043558	13.891835	6.043558	1.04816E+10	4.593263E-6	217710.170166	16.265791	0.425577	0	0
0	0	0	22.451044	6.043792	13.516283	6.043792	8.825587E+9	5.022548E-6	199102.135138	16.223562	0.423713	0	0
0	0	0	22.127945	6.043872	13.135079	6.043872	7.411223E+9	4.699945E-6	212768.450885	16.141514	0.421796	0	0
0	0	0	21.800599	6.043925	12.748904	6.043925	6.209247E+9	4.263034E-6	234574.718136	16.112715	0.419416	0	0
0	0	0	21.472559	6.043939	12.361969	6.043939	5.20026E+9	3.646468E-6	274237.94105	16.11702	0.417195	0	0
0	0	0	21.139373	6.043979	11.968925	6.043979	4.343133E+9	3.251169E-6	307581.708961	16.08269	0.415238	0	0
0	0	0	20.803982	6.043999	11.573309	6.043999	3.622959E+9	2.807167E-6	356230.990948	15.997503	0.413321	0	0
0	0	0	20.466182	6.044139	11.174667	6.044139	3.018269E+9	3.092733E-6	323338.635474	15.962681	0.411126	0	0
0	0	0	20.124788	6.044119	10.772031	6.044119	2.509625E+9	2.458994E-6	406670.305261	15.971263	0.408918	0	0
0	0	0	19.778208	6.044299	10.362967	6.044299	2.080857E+9	3.37719E-6	296104.16637	15.930004	0.407133	0	0
0	0	0	19.425175	6.044339	9.946509	6.044339	1.719336E+9	3.267836E-6	306012.882074	15.845854	0.405295	0	0
0	0	0	19.066058	6.044306	9.522989	6.044306	1.415959E+9	2.356629E-6	424334.986189	15.816073	0.403206	0	0
0	0	0	18.704083	6.044293	9.096066	6.044293	1.164313E+9	1.846197E-6	541654.015502	15.82202	0.400972	0	0
0	0	0	18.336227	6.044233	8.662281	6.044233	9.543505E+8	1.247046E-6	801894.856731	15.778418	0.399187	0	0
0	0	0	17.96343	6.044279	8.222499	6.044279	7.801644E+8	1.181355E-6	846485.467843	15.714995	0.397455	0	0
0	0	0	17.582343	6.044193	7.773154	6.044193	6.349187E+8	7.426408E-7	1346545.973018	15.67139	0.395339	0	0
0	0	0	17.19562	6.044206	7.317001	6.044206	5.151422E+8	6.244617E-7	1601379.304323	15.665292	0.393091	0	0
0	0	0	16.797423	6.044306	6.84717	6.044306	4.153767E+8	6.919359E-7	1445220.626508	15.604237	0.391531	0	0
0	0	0	16.39359	6.044326	6.370822	6.044326	3.339135E+8	6.012666E-7	1663155.608713	15.530646	0.389575	0	0
0	0	0	15.983182	6.044306	5.886786	6.044306	2.674745E+8	4.456231E-7	2244048.959611	15.520616	0.387353	0	0
0	0	0	15.56722	6.044306	5.396167	6.044306	2.136126E+8	3.559056E-7	2809733.697325	15.525731	0.385304	0	0
0	0	0	15.139661	6.044479	4.891574	6.044479	1.695308E+8	8.037973E-7	1244094.791157	15.454301	0.383572	0	0
0	0	0	14.704384	6.044439	4.378238	6.044439	1.339857E+8	4.455522E-7	2244405.764604	15.390771	0.381668	0	0
0	0	0	14.257305	6.044419	3.850948	6.044419	1.052198E+8	3.044435E-7	3284681.348078	15.387049	0.379566	0	0
0	0	0	13.795402	6.044346	3.306267	6.044346	8.197025E+7	1.606369E-7	6225220.287365	15.383244	0.377543	0	0
0	0	0	13.326149	6.0443	2.752872	6.0443	6.360473E+7	1.034106E-7	9670190.730555	15.289432	0.376115	0	0
0	0	0	12.8571	6.04442	2.199425	6.04442	4.935947E+7	1.428327E-7	7001196.208684	15.224223	0.374224	0	0
0	0	0	12.378863	6.04434	1.635493	6.04434	3.811487E+7	7.256881E-8	1.378002E+7	15.241717	0.371937	0	0
0	0	0	11.892785	6.04428	1.062279	6.04428	2.930743E+7	4.440789E-8	2.251852E+7	15.209477	0.370231	0	0
0	0	0	11.404951	6.044613	0.486286	6.044613	2.251379E+7	-2.54067E-7	-3935969.337798	15.113166	0.368764	0	0
0	0	0	10.909807	6.044473	-0.097478	6.044473	1.722676E+7	7.629842E-8	1.310643E+7	15.05293	0.366767	0	0
0	0	0	10.410498	6.044293	-0.686077	6.044293	1.315166E+7	2.087547E-8	4.79031E+7	15.061813	0.364837	0	0
0	0	0	9.906779	6.0444	-1.280403	6.0444	1.001664E+7	2.565338E-8	3.898121E+7	15.026024	0.363105	0	0
0	0	0	9.403387	6.044499	-1.874334	6.044499	7630275.625	4.59965E-8	2.174079E+7	14.92356	0.361531	0	0
0	0	0	8.898565	6.044413	-2.469603	6.044413	5807950.5	1.611017E-8	6.20726E+7	14.900486	0.359641	0	0
0	0	0	8.420532	6.044553	-3.033701	6.044553	4485334.25	9.726454E-8	1.028124E+7	14.923573	0.357724	0	0
0	0	0	7.965653	6.044486	-3.5701	6.044486	3507540.25	1.791135E-8	5.583052E+7	14.850996	0.356163	0	0
0	0	0	7.518043	6.044513	-4.098102	6.044513	2753702.75	2.025649E-8	4.936691E+7	14.74681	0.354696	0	0
0	0	0	7.083092	6.044499	-4.611095	6.044499	2176724.5	1.312196E-8	7.620814E+7	14.750436	0.352514	0	0
0	0	0	6.658147	6.044386	-5.112094	6.044386	1729970.75	4.115087E-9	2.430082E+8	14.743698	0.350862	0	0
0	0	0	6.246718	6.044493	-5.597577	6.044493	1384992.625	7.658029E-9	1.305819E+8	14.643702	0.349487	0	0
0	0	0	5.843661	6.044573	-6.073136	6.044573	1113836.625	9.29477E-7	1075873.827357	14.582717	0.347728	0	0
0	0	0	5.450731	6.044559	-6.536566	6.044559	900685.5	2.892286E-8	3.457473E+7	14.593997	0.345798	0	0
0	0	0	5.06552	6.044573	-6.990946	6.044573	731369.5	6.104399E-7	1638162.892095	14.54643	0.34429	0	0
0	0	0	4.680308	6.044606	-7.445367	6.044606	593882.5	-8.06261E-9	-1.240293E+8	14.457348	0.342836	0	0
0	0	0	4.321722	6.044506	-7.868115	6.044506	489232.25	3.241845E-9	3.084663E+8	14.417189	0.341038	0	0
0	0	0	3.967628	6.044526	-8.285806	6.044526	404002.625	3.811435E-9	2.623684E+8	14.424222	0.339081	0	0
0	0	0	3.634157	6.044573	-8.679227	6.044573	337361	2.816351E-7	3550693.838472	14.337712	0.337944	0	0
0	0	0	3.310159	6.044386	-9.060998	6.044386	283158.625	6.735518E-10	1.484667E+9	14.262312	0.336371	0	0
0	0	0	2.995146	6.044426	-9.432634	6.044426	238821.75	7.224588E-10	1.384162E+9	14.262676	0.334401	0	0
0	0	0	2.693363	6.044446	-9.788623	6.044446	202873	7.102057E-10	1.408043E+9	14.235088	0.332946	0	0
0	0	0	2.403709	6.044413	-10.130197	6.044413	173469.125	4.811761E-10	2.078241E+9	14.142803	0.331664	0	0
0	0	0	2.124755	6.044479	-10.459359	6.044479	149187.25	7.077296E-10	1.412969E+9	14.107642	0.329892	0	0
0	0	0	1.856785	6.044559	-10.775594	6.044559	129068.5	4.144716E-9	2.412711E+8	14.116173	0.328134	0	0
0	0	0	1.611847	6.044573	-11.064524	6.044573	113061.875	9.439585E-8	1.059369E+7	14.041237	0.326838	0	0
0	0	0	1.383407	6.044493	-11.333798	6.044493	99927.5	5.525307E-10	1.809854E+9	13.929394	0.325463	0	0
0	0	0	1.179306	6.044546	-11.574646	6.044546	89488.75	1.46503E-9	6.825798E+8	13.933931	0.32348	0	0
0	0	0	1.002769	6.044586	-11.782954	6.044586	81343.5	-2.829829E-9	-3.533782E+8	13.919844	0.322052	0	0
0	0	0	0.850204	6.044446	-11.962607	6.044446	74903.875	2.622191E-10	3.813605E+9	13.829079	0.320822	0	0
0	0	0	0.722059	6.044526	-12.113922	6.044526	69890.75	6.593634E-10	1.516614E+9	13.77187	0.319064	0	0
0	0	0	0.60253	6.044579	-12.255019	6.044579	65517.625	-4.756735E-9	-2.102282E+8	13.785275	0.317398	0	0
0	0	0	0.510198	6.04444	-12.363625	6.04444	62327.75	2.073271E-10	4.823295E+9	13.72174	0.316181	0	0
0	0	0	0.430036	6.044526	-12.45836	6.044526	59684.5	5.630756E-10	1.77596E+9	13.618113	0.314767	0	0
0	0	0	0.361839	6.044666	-12.539096	6.044666	57524.25	-2.760261E-10	-3.622846E+9	13.621338	0.312968	0	0
0	0	0	0.310181	6.044566	-12.599813	6.044566	55940.125	3.459697E-9	2.890427E+8	13.585473	0.311686	0	0
0	0	0	0.262116	6.044593	-12.656562	6.044593	54505.375	-1.246795E-9	-8.020567E+8	13.472954	0.31043	0	0
0	0	0	0.233735	6.044546	-12.689938	6.044546	53675.5	8.787277E-10	1.138009E+9	13.430077	0.30887	0	0
0	0	0	0.193429	6.044559	-12.737507	6.044559	52518.625	1.686508E-9	5.929412E+8	13.471485	0.307124	0	0
0	0	0	0.182444	6.044533	-12.750407	6.044533	52207.625	5.735467E-10	1.743537E+9	13.374127	0.306053	0	0
0	0	0	0.163128	6.044586	-12.773303	6.044586	51665.375	-1.797367E-9	-5.563694E+8	13.282318	0.304692	0	0
0	0	0	0.134216	6.044706	-12.807662	6.044706	50864.125	-1.705535E-10	-5.863263E+9	13.29929	0.302907	0	0
0	0	0	0.117595	6.044539	-12.826909	6.044539	50409.125	6.628021E-10	1.508746E+9	13.250573	0.30177	0	0
0	0	0	0.112287	6.044426	-12.832928	6.044426	50264.75	1.520558E-10	6.576535E+9	13.161822	0.300474	0	0
0	0	0	0.106815	6.044693	-12.839953	6.044693	50116.25	-1.868009E-10	-5.353293E+9	13.153986	0.298808	0	0
0	0	0	0.099709	6.044653	-12.848248	6.044653	49924.125	-2.797516E-10	-3.574599E+9	13.123892	0.29734	0	0
0	0	0	0.088683	6.044719	-12.861396	6.044719	49627.5	-1.512238E-10	-6.612714E+9	12.997887	0.296375	0	0
0	0	0	0.075942	6.044719	-12.876424	6.044719	49286.875	-1.501859E-10	-6.658415E+9	12.951906	0.294789	0	0
0	0	0	0.063855	6.044473	-12.890153	6.044473	48965.875	2.168855E-10	4.610727E+9	12.965926	0.293334	0	0
0	0	0	0.054789	6.044553	-12.901017	6.044553	48726.375	1.0567E-9	9.463422E+8	12.876342	0.29229	0	0
0	0	0	0.049848	6.044679	-12.907117	6.044679	48596.5	-2.038921E-10	-4.904556E+9	12.780142	0.290849	0	0
0	0	0	0.044784	6.044493	-12.91269	6.044493	48463.625	2.679707E-10	3.731751E+9	12.789888	0.289143	0	0
0	0	0	0.042211	6.044613	-12.915981	6.044613	48396.25	-5.46045E-10	-1.831351E+9	12.724079	0.288072	0	0
0	0	0	0.040455	6.044666	-12.918167	6.044666	48350.375	-2.320059E-10	-4.310235E+9	12.624953	0.286856	0	0
0	0	0	0.04021	6.044699	-12.918527	6.044699	48343.875	-1.706706E-10	-5.85924E+9	12.630204	0.285071	0	0
0	0	0	0.039557	6.044559	-12.918998	6.044559	48326.875	1.5519E-9	6.443713E+8	12.580596	0.284039	0	0
0	0	0	0.038618	6.044739	-12.920491	6.044739	48302.375	-1.294669E-10	-7.72398E+9	12.460709	0.282942	0	0
0	0	0	0.03825	6.044533	-12.920482	6.044533	48292.75	5.305383E-10	1.884878E+9	12.45816	0.28121	0	0
0	0	0	0.037352	6.044639	-12.92177	6.044639	48269.25	-3.250104E-10	-3.076824E+9	12.454324	0.279928	0	0
0	0	0	0.03727	6.044746	-12.922095	6.044746	48267.125	-1.243812E-10	-8.039798E+9	12.341401	0.278949	0	0
0	0	0	0.035065	6.044566	-12.92431	6.044566	48209.625	2.981593E-9	3.353911E+8	12.295647	0.277442	0	0
0	0	0	0.034289	6.044553	-12.925197	6.044553	48189.375	1.045055E-9	9.568878E+8	12.295821	0.275948	0	0
0	0	0	0.032165	6.044639	-12.927887	6.044639	48134.125	-3.241006E-10	-3.085462E+9	12.175535	0.275035	0	0
0	0	0	0.02849	6.044466	-12.931851	6.044466	48038.625	1.99546E-10	5.011377E+9	12.132021	0.273436	0	0
0	0	0	0.024815	6.044566	-12.9364	6.044566	47943.25	2.965119E-9	3.372546E+8	12.155983	0.272034	0	0
0	0	0	0.020159	6.044706	-12.942191	6.044706	47822.75	-1.603554E-10	-6.236147E+9	12.045368	0.271109	0	0
0	0	0	0.016402	6.044639	-12.94648	6.044639	47725.75	-3.213509E-10	-3.111863E+9	11.948546	0.26976	0	0
0	0	0	0.012482	6.044746	-12.951332	6.044746	47624.75	-1.227259E-10	-8.148241E+9	11.960403	0.268081	0	0
0	0	0	0.008031	6.044613	-12.956297	6.044613	47510.25	-5.360484E-10	-1.865503E+9	11.864788	0.267142	0	0
0	0	0	0.003906	6.044579	-12.96109	6.044579	47404.5	-3.441677E-9	-2.90556E+8	11.794094	0.265899	0	0
0	0	0	-0.000463	6.044499	-12.966072	6.044499	47292.625	2.850966E-10	3.507583E+9	11.814137	0.264339	0	0
0	0	0	-0.003934	6.044699	-12.970595	6.044699	47203.875	-1.66646E-10	-6.000744E+9	11.702731	0.263427	0	0
0	0	0	-0.008345	6.044513	-12.975397	6.044513	47091.5	3.464137E-10	2.886722E+9	11.582097	0.262369	0	0
0	0	0	-0.00961	6.044613	-12.977104	6.044613	47059.25	-5.309599E-10	-1.883381E+9	11.609812	0.260611	0	0
0	0	0	-0.012224	6.044573	-12.980101	6.044573	46992.875	3.923561E-8	2.548705E+7	11.521507	0.259883	0	0
0	0	0	-0.016063	6.044546	-12.984572	6.044546	46895.5	7.677316E-10	1.302539E+9	11.4362	0.258707	0	0
0	0	0	-0.017369	6.044686	-12.986413	6.044686	46862.375	-1.84996E-10	-5.405522E+9	11.454849	0.257054	0	0
0	0	0	-0.021657	6.044753	-12.991614	6.044753	46753.875	-1.160061E-10	-8.620233E+9	11.366295	0.256208	0	0
0	0	0	-0.024312	6.044459	-12.994116	6.044459	46686.75	1.825762E-10	5.477165E+9	11.263215	0.255058	0	0
0	0	0	-0.025088	6.04438	-12.994859	6.04438	46667.25	1.071905E-10	9.329187E+9	11.288471	0.253577	0	0
0	0	0	-0.026108	6.044646	-12.996635	6.044646	46641.5	-2.852911E-10	-3.505191E+9	11.207588	0.252678	0	0
0	0	0	-0.027415	6.044679	-12.998248	6.044679	46608.5	-1.955512E-10	-5.11375E+9	11.127736	0.251527	0	0
0	0	0	-0.028599	6.044519	-12.999302	6.044519	46578.75	3.85048E-10	2.597079E+9	11.141752	0.250139	0	0
0	0	0	-0.028232	6.044546	-12.998925	6.044546	46588	7.626975E-10	1.311136E+9	11.036965	0.249214	0	0
0	0	0	-0.027456	6.044719	-12.998382	6.044719	46607.5	-1.420214E-10	-7.041194E+9	10.943991	0.248037	0	0
0	0	0	-0.025618	6.044539	-12.995828	6.044539	46653.875	6.134263E-10	1.630188E+9	10.970154	0.246596	0	0
0	0	0	-0.025455	6.044586	-12.995736	6.044586	46658	-1.623167E-9	-6.160794E+8	10.830152	0.245921	0	0
0	0	0	-0.024107	6.044499	-12.993961	6.044499	46692	2.814758E-10	3.552703E+9	10.788912	0.244665	0	0
0	0	0	-0.025128	6.044699	-12.995593	6.044699	46666.125	-1.647476E-10	-6.069892E+9	10.797277	0.243251	0	0
0	0	0	-0.023495	6.044613	-12.993481	6.044613	46707.375	-5.269898E-10	-1.89757E+9	10.657196	0.242709	0	0
0	0	0	-0.023168	6.044533	-12.992924	6.044533	46715.625	5.132122E-10	1.948512E+9	10.627048	0.241135	0	0
0	0	0	-0.023944	6.044546	-12.993868	6.044546	46696.125	7.644676E-10	1.3081E+9	10.601208	0.240051	0	0
0	0	0	-0.021371	6.044599	-12.990948	6.044599	46761.125	-7.967779E-10	-1.255055E+9	10.441456	0.239297	0	0
0	0	0	-0.0208	6.044533	-12.990131	6.044533	46775.5	5.1387E-10	1.946017E+9	10.447766	0.23779	0	0
0	0	0	-0.018921	6.044533	-12.987915	6.044533	46823	5.143918E-10	1.944043E+9	10.422065	0.236838	0	0
0	0	0	-0.02031	6.044726	-12.989967	6.044726	46787.875	-1.363506E-10	-7.334033E+9	10.3079	0.235992	0	0
0	0	0	-0.019615	6.044686	-12.989062	6.044686	46805.5	-1.847715E-10	-5.412091E+9	10.324123	0.234458	0	0
0	0	0	-0.017043	6.044566	-12.985771	6.044566	46870.625	2.898781E-9	3.449726E+8	10.222681	0.233784	0	0
0	0	0	-0.017002	6.044586	-12.985765	6.044586	46871.625	-1.630599E-9	-6.132715E+8	10.137484	0.23266	0	0
0	0	0	-0.018145	6.044466	-12.986857	6.044466	46842.75	1.945785E-10	5.139315E+9	10.146245	0.231325	0	0
0	0	0	-0.017247	6.044746	-12.986397	6.044746	46865.5	-1.207693E-10	-8.280248E+9	10.02142	0.23073	0	0
0	0	0	-0.01447	6.044679	-12.982979	6.044679	46935.875	-1.969247E-10	-5.078082E+9	9.980256	0.229342	0	0
0	0	0	-0.013939	6.044433	-12.981824	6.044433	46949.375	1.487639E-10	6.72206E+9	9.966635	0.228416	0	0
0	0	0	-0.01104	6.044539	-12.978633	6.044539	47023	6.182798E-10	1.617391E+9	9.854021	0.227583	0	0
0	0	0	-0.010876	6.044446	-12.97824	6.044446	47027.125	1.646298E-10	6.074234E+9	9.83795	0.226168	0	0
0	0	0	-0.012183	6.044566	-12.980039	6.044566	46993.875	2.906404E-9	3.440678E+8	9.749019	0.225481	0	0
0	0	0	-0.014266	6.044679	-12.982738	6.044679	46941	-1.969462E-10	-5.077528E+9	9.63352	0.224489	0	0
0	0	0	-0.013082	6.044686	-12.981356	6.044686	46971.125	-1.854253E-10	-5.393007E+9	9.651878	0.223101	0	0
0	0	0	-0.016103	6.044546	-12.98462	6.044546	46894.5	7.677152E-10	1.302566E+9	9.530561	0.222559	0	0
0	0	0	-0.016267	6.044446	-12.984598	6.044446	46890.25	1.641506E-10	6.091965E+9	9.500289	0.221197	0	0
0	0	0	-0.020555	6.044659	-12.990113	6.044659	46781.75	-2.418535E-10	-4.134735E+9	9.486466	0.220258	0	0
0	0	0	-0.021208	6.044606	-12.990769	6.044606	46765.125	-6.348855E-10	-1.575087E+9	9.363912	0.219425	0	0
0	0	0	-0.023413	6.044553	-12.993256	6.044553	46709.5	1.012961E-9	9.872044E+8	9.381751	0.218037	0	0
0	0	0	-0.025578	6.044613	-12.995938	6.044613	46654.875	-5.263974E-10	-1.899705E+9	9.251723	0.217482	0	0
0	0	0	-0.025741	6.044613	-12.99613	6.044613	46650.75	-5.263509E-10	-1.899873E+9	9.179684	0.216358	0	0
0	0	0	-0.027824	6.044446	-12.998229	6.044446	46598.25	1.631284E-10	6.130139E+9	9.182612	0.215366	0	0
0	0	0	-0.027864	6.044466	-12.99832	6.044466	46597.25	1.935587E-10	5.166392E+9	9.032768	0.214718	0	0
0	0	0	-0.029375	6.044559	-13.000303	6.044559	46559.125	1.495133E-9	6.688367E+8	9.061824	0.213251	0	0
0	0	0	-0.030396	6.044546	-13.001478	6.044546	46533.5	7.618053E-10	1.312671E+9	8.969031	0.212682	0	0
0	0	0	-0.030805	6.044639	-13.00216	6.044639	46523.25	-3.132541E-10	-3.192296E+9	8.901077	0.211611	0	0
0	0	0	-0.031131	6.044646	-13.00256	6.044646	46515	-2.845174E-10	-3.514724E+9	8.884878	0.210686	0	0
0	0	0	-0.031662	6.044693	-13.003286	6.044693	46501.625	-1.733279E-10	-5.769411E+9	8.764106	0.209919	0	0
0	0	0	-0.031948	6.044626	-13.00348	6.044626	46494.5	-3.921162E-10	-2.550264E+9	8.755877	0.208663	0	0
0	0	0	-0.032397	6.044606	-13.003967	6.044606	46483.125	-6.310571E-10	-1.584643E+9	8.653082	0.207936	0	0
0	0	0	-0.032724	6.044539	-13.004209	6.044539	46475	6.110744E-10	1.636462E+9	8.596896	0.206785	0	0
0	0	0	-0.034153	6.044499	-13.00581	6.044499	46439.125	2.799514E-10	3.572048E+9	8.565291	0.205913	0	0
0	0	0	-0.034153	6.044506	-13.005824	6.044506	46439.125	3.077244E-10	3.249661E+9	8.426331	0.205265	0	0
0	0	0	-0.033949	6.044526	-13.005626	6.044526	46444.25	4.381644E-10	2.282248E+9	8.438755	0.204049	0	0
0	0	0	-0.034072	6.044586	-13.005899	6.044586	46441.125	-1.615623E-9	-6.189564E+8	8.313358	0.20352	0	0
0	0	0	-0.033622	6.044613	-13.005426	6.044613	46452.375	-5.241126E-10	-1.907987E+9	8.317438	0.202211	0	0
0	0	0	-0.0335	6.044566	-13.005182	6.044566	46455.5	2.873107E-9	3.480553E+8	8.242778	0.201629	0	0
0	0	0	-0.033908	6.044619	-13.005778	6.044619	46445.25	-4.48305E-10	-2.230624E+9	8.172039	0.200624	0	0
0	0	0	-0.033255	6.044646	-13.005064	6.044646	46461.625	-2.841909E-10	-3.518761E+9	8.173759	0.199672	0	0
0	0	0	-0.033663	6.044659	-13.005575	6.044659	46451.375	-2.401455E-10	-4.164142E+9	8.019846	0.198958	0	0
0	0	0	-0.032846	6.044633	-13.004554	6.044633	46471.875	-3.479876E-10	-2.873666E+9	8.032425	0.197887	0	0
0	0	0	-0.032479	6.044406	-13.003635	6.044406	46481.125	1.237906E-10	8.078161E+9	7.917553	0.197226	0	0
0	0	0	-0.031703	6.044613	-13.003162	6.044613	46500.625	-5.24657E-10	-1.906007E+9	7.890621	0.195983	0	0
0	0	0	-0.031295	6.044473	-13.002381	6.044473	46510.875	2.060116E-10	4.854097E+9	7.772311	0.195666	0	0
0	0	0	-0.030641	6.044453	-13.001567	6.044453	46527.375	1.718892E-10	5.817702E+9	7.716644	0.194476	0	0
0	0	0	-0.031458	6.044693	-13.003045	6.044693	46506.75	-1.73347E-10	-5.768775E+9	7.677957	0.193617	0	0
0	0	0	-0.031295	6.044459	-13.002352	6.044459	46510.875	1.818884E-10	5.497876E+9	7.569776	0.192889	0	0
0	0	0	-0.030846	6.044493	-13.001894	6.044493	46522.25	2.572363E-10	3.887477E+9	7.5459	0.191885	0	0
0	0	0	-0.030805	6.044573	-13.002017	6.044573	46523.25	3.884351E-8	2.574433E+7	7.406572	0.191422	0	0
0	0	0	-0.0306	6.044639	-13.001919	6.044639	46528.375	-3.132886E-10	-3.191945E+9	7.424246	0.190126	0	0
0	0	0	-0.029171	6.044613	-13.000176	6.044613	46564.375	-5.253763E-10	-1.903398E+9	7.299574	0.189862	0	0
0	0	0	-0.029702	6.044593	-13.000759	6.044593	46551	-1.064841E-9	-9.391077E+8	7.317932	0.188513	0	0
0	0	0	-0.028109	6.044546	-12.998781	6.044546	46591	7.627466E-10	1.311051E+9	7.21943	0.18813	0	0
0	0	0	-0.02766	6.044566	-12.998294	6.044566	46602.375	2.882191E-9	3.469583E+8	7.180912	0.186913	0	0
0	0	0	-0.025986	6.044593	-12.996376	6.044593	46644.625	-1.066982E-9	-9.372228E+8	7.107545	0.186384	0	0
0	0	0	-0.024761	6.044593	-12.994931	6.044593	46675.5	-1.067688E-9	-9.366028E+8	7.04663	0.18538	0	0
0	0	0	-0.025659	6.044559	-12.99592	6.044559	46652.75	1.49814E-9	6.674945E+8	7.001112	0.184599	0	0
0	0	0	-0.023822	6.044619	-12.993881	6.044619	46699.125	-4.507555E-10	-2.218497E+9	6.905417	0.183819	0	0
0	0	0	-0.024761	6.044553	-12.994846	6.044553	46675.5	1.012224E-9	9.879235E+8	6.879407	0.183	0	0
0	0	0	-0.025741	6.044593	-12.996087	6.044593	46650.75	-1.067122E-9	-9.370997E+8	6.763107	0.182325	0	0
0	0	0	-0.025659	6.044546	-12.995891	6.044546	46652.75	7.637575E-10	1.309316E+9	6.749262	0.181506	0	0
0	0	0	-0.028885	6.044533	-12.999668	6.044533	46571.5	5.116289E-10	1.954542E+9	6.635107	0.180726	0	0
0	0	0	-0.028926	6.04442	-12.999473	6.04442	46570.5	1.347763E-10	7.419702E+9	6.61806	0.179919	0	0
0	0	0	-0.03007	6.044679	-13.001379	6.044679	46541.75	-1.952711E-10	-5.121084E+9	6.486948	0.179192	0	0
0	0	0	-0.030355	6.044593	-13.00153	6.044593	46534.5	-1.064463E-9	-9.394407E+8	6.494171	0.178266	0	0
0	0	0	-0.030519	6.044606	-13.001751	6.044606	46530.375	-6.316985E-10	-1.583034E+9	6.36678	0.177645	0	0
0	0	0	-0.031172	6.044453	-13.002193	6.044453	46514	1.718398E-10	5.819375E+9	6.346198	0.176653	0	0
0	0	0	-0.032234	6.044373	-13.003274	6.044373	46487.25	1.032273E-10	9.687363E+9	6.240649	0.176058	0	0
0	0	0	-0.033051	6.044313	-13.004109	6.044313	46466.75	7.941932E-11	1.259139E+10	6.233187	0.175305	0	0
0	0	0	-0.0335	6.044539	-13.005125	6.044539	46455.5	6.10818E-10	1.637149E+9	6.10393	0.174577	0	0
0	0	0	-0.033622	6.044373	-13.004912	6.044373	46452.375	1.031498E-10	9.694636E+9	6.079606	0.173837	0	0
0	0	0	-0.033867	6.044673	-13.005844	6.044673	46446.25	-2.079315E-10	-4.809277E+9	5.970538	0.173123	0	0
0	0	0	-0.033582	6.044559	-13.005264	6.044559	46453.5	1.491741E-9	6.703575E+8	5.945015	0.17225	0	0
0	0	0	-0.034031	6.044626	-13.005937	6.044626	46442.125	-3.916745E-10	-2.55314E+9	5.839553	0.171563	0	0
0	0	0	-0.033786	6.04432	-13.00499	6.04432	46448.375	8.147268E-11	1.227405E+10	5.807039	0.170849	0	0
0	0	0	-0.034276	6.044593	-13.006154	6.044593	46436	-1.06221E-9	-9.414335E+8	5.730656	0.170003	0	0
0	0	0	-0.034929	6.044526	-13.006782	6.044526	46419.625	4.379321E-10	2.283459E+9	5.64702	0.169553	0	0
0	0	0	-0.035338	6.044473	-13.007149	6.044473	46409.375	2.05562E-10	4.864713E+9	5.618623	0.168615	0	0
0	0	0	-0.035338	6.044686	-13.007607	6.044686	46409.375	-1.832077E-10	-5.458285E+9	5.518572	0.168099	0	0
0	0	0	-0.035378	6.044519	-13.007297	6.044519	46408.375	3.836396E-10	2.606613E+9	5.480978	0.167068	0	0
0	0	0	-0.035909	6.044792	-13.00851	6.044792	46395	-9.413471E-11	-1.062307E+10	5.338691	0.166671	0	0
0	0	0	-0.035746	6.044659	-13.008031	6.044659	46399.125	-2.398754E-10	-4.168831E+9	5.315548	0.165574	0	0
0	0	0	-0.035909	6.044413	-13.007695	6.044413	46395	1.286925E-10	7.770463E+9	5.187675	0.165217	0	0
0	0	0	-0.035011	6.044673	-13.007193	6.044673	46417.625	-2.078033E-10	-4.812242E+9	5.14925	0.164357	0	0
0	0	0	-0.035011	6.044453	-13.006721	6.044453	46417.625	1.714837E-10	5.831457E+9	5.062938	0.16363	0	0
0	0	0	-0.035052	6.044579	-13.007041	6.044579	46416.5	-3.369946E-9	-2.967406E+8	4.994881	0.163141	0	0
0	0	0	-0.03497	6.044646	-13.007087	6.044646	46418.625	-2.839279E-10	-3.522021E+9	4.960678	0.162321	0	0
0	0	0	-0.034562	6.044666	-13.006648	6.044666	46428.875	-2.227857E-10	-4.488618E+9	4.851299	0.161779	0	0
0	0	0	-0.033786	6.044713	-13.005833	6.044713	46448.375	-1.483021E-10	-6.742993E+9	4.828322	0.160853	0	0
0	0	0	-0.034072	6.044539	-13.005799	6.044539	46441.125	6.10629E-10	1.637656E+9	4.75618	0.160219	0	0
0	0	0	-0.033827	6.044699	-13.005853	6.044699	46447.25	-1.639749E-10	-6.098496E+9	4.708972	0.159677	0	0
0	0	0	-0.032601	6.044493	-13.003965	6.044493	46478	2.569916E-10	3.891178E+9	4.650883	0.158764	0	0
0	0	0	-0.032887	6.044479	-13.004273	6.044479	46470.875	2.204533E-10	4.536108E+9	4.543026	0.158328	0	0
0	0	0	-0.032806	6.044619	-13.004477	6.044619	46473	-4.485729E-10	-2.229292E+9	4.489098	0.157588	0	0
0	0	0	-0.033377	6.044666	-13.005252	6.044666	46458.625	-2.229285E-10	-4.485744E+9	4.378168	0.156834	0	0
0	0	0	-0.032356	6.044406	-13.00349	6.044406	46484.25	1.237989E-10	8.077618E+9	4.321183	0.156345	0	0
0	0	0	-0.031866	6.044633	-13.003398	6.044633	46496.5	-3.48172E-10	-2.872144E+9	4.223231	0.155578	0	0
0	0	0	-0.032152	6.044639	-13.003749	6.044639	46489.375	-3.13026E-10	-3.194623E+9	4.147645	0.154943	0	0
0	0	0	-0.032193	6.044779	-13.004098	6.044779	46488.25	-1.004251E-10	-9.957673E+9	4.092276	0.154375	0	0
0	0	0	-0.031458	6.044526	-13.002688	6.044526	46506.75	4.387541E-10	2.279181E+9	4.05058	0.153542	0	0
0	0	0	-0.031213	6.044679	-13.002727	6.044679	46513	-1.951505E-10	-5.12425E+9	3.943398	0.153013	0	0
0	0	0	-0.03011	6.044646	-13.001355	6.044646	46540.75	-2.846749E-10	-3.512779E+9	3.878784	0.152431	0	0
0	0	0	-0.028885	6.044713	-13.000053	6.044713	46571.5	-1.486952E-10	-6.725166E+9	3.791698	0.151625	0	0
0	0	0	-0.028559	6.044606	-12.999439	6.044606	46579.75	-6.323688E-10	-1.581356E+9	3.708021	0.151215	0	0
0	0	0	-0.029702	6.044653	-13.000888	6.044653	46551	-2.608502E-10	-3.833618E+9	3.651225	0.150355	0	0
0	0	0	-0.030315	6.044733	-13.001782	6.044733	46535.5	-1.299456E-10	-7.695527E+9	3.581656	0.149721	0	0
0	0	0	-0.0306	6.044746	-13.002148	6.044746	46528.375	-1.199006E-10	-8.340243E+9	3.508012	0.149245	0	0
0	0	0	-0.031213	6.044673	-13.002713	6.044673	46513	-2.082303E-10	-4.802375E+9	3.437575	0.148491	0	0
0	0	0	-0.032071	6.044599	-13.003567	6.044599	46491.375	-7.921816E-10	-1.262337E+9	3.342785	0.147909	0	0
0	0	0	-0.031907	6.044719	-13.003632	6.044719	46495.5	-1.416801E-10	-7.058155E+9	3.285893	0.147328	0	0
0	0	0	-0.032765	6.044579	-13.004343	6.044579	46473.875	-3.374112E-9	-2.963743E+8	3.211101	0.14672	0	0
0	0	0	-0.032806	6.044559	-13.004349	6.044559	46473	1.492368E-9	6.700762E+8	3.16721	0.146085	0	0
0	0	0	-0.033867	6.044559	-13.005601	6.044559	46446.25	1.491509E-9	6.704621E+8	3.103861	0.145424	0	0
0	0	0	-0.034112	6.044586	-13.005947	6.044586	46440.125	-1.615588E-9	-6.189698E+8	3.055562	0.144855	0	0
0	0	0	-0.03448	6.044566	-13.006338	6.044566	46430.875	2.871584E-9	3.482399E+8	3.006462	0.144485	0	0
0	0	0	-0.034235	6.044506	-13.00592	6.044506	46437	3.077103E-10	3.24981E+9	2.969475	0.143824	0	0
0	0	0	-0.034521	6.044533	-13.006314	6.044533	46429.875	5.10073E-10	1.960504E+9	2.948699	0.143084	0	0
0	0	0	-0.034398	6.044653	-13.006427	6.044653	46432.875	-2.601883E-10	-3.843371E+9	2.926394	0.142541	0	0
0	0	0	-0.035419	6.044726	-13.007789	6.044726	46407.25	-1.352414E-10	-7.394186E+9	2.897864	0.141867	0	0
0	0	0	-0.035052	6.044506	-13.006883	6.044506	46416.5	3.075745E-10	3.251245E+9	2.912853	0.14114	0	0
0	0	0	-0.034929	6.044533	-13.006796	6.044533	46419.625	5.099604E-10	1.960937E+9	2.871557	0.14073	0	0
0	0	0	-0.035378	6.044333	-13.006897	6.044333	46408.375	8.591485E-11	1.163943E+10	2.850545	0.140347	0	0
0	0	0	-0.035828	6.044573	-13.007942	6.044573	46397.125	3.873821E-8	2.581431E+7	2.80361	0.139659	0	0
0	0	0	-0.036195	6.044593	-13.008418	6.044593	46387.875	-1.061109E-9	-9.424102E+8	2.798494	0.138932	0	0
0	0	0	-0.036644	6.044593	-13.008948	6.044593	46376.625	-1.060852E-9	-9.426388E+8	2.742271	0.138496	0	0
0	0	0	-0.036277	6.044566	-13.008457	6.044566	46385.75	2.868793E-9	3.485786E+8	2.736089	0.137874	0	0
0	0	0	-0.036481	6.044479	-13.008512	6.044479	46380.75	2.200258E-10	4.544922E+9	2.711695	0.137173	0	0
0	0	0	-0.036726	6.044593	-13.009044	6.044593	46374.5	-1.060803E-9	-9.42682E+8	2.692667	0.136645	0	0
0	0	0	-0.035828	6.044466	-13.007713	6.044466	46397.125	1.927274E-10	5.188676E+9	2.663039	0.136274	0	0
0	0	0	-0.036073	6.044413	-13.007888	6.044413	46390.875	1.28681E-10	7.771154E+9	2.639204	0.135587	0	0
0	0	0	-0.035868	6.044559	-13.007961	6.044559	46396	1.489895E-9	6.711883E+8	2.605495	0.134939	0	0
0	0	0	-0.036195	6.044646	-13.008532	6.044646	46387.875	-2.837398E-10	-3.524356E+9	2.572575	0.134608	0	0
0	0	0	-0.035746	6.044453	-13.007588	6.044453	46399.125	1.714154E-10	5.833782E+9	2.552635	0.133895	0	0
0	0	0	-0.034929	6.044606	-13.006953	6.044606	46419.625	-6.30195E-10	-1.58681E+9	2.545236	0.1333	0	0
0	0	0	-0.034888	6.044599	-13.006891	6.044599	46420.625	-7.90976E-10	-1.264261E+9	2.511151	0.132705	0	0
0	0	0	-0.035011	6.044559	-13.00695	6.044559	46417.625	1.490589E-9	6.708756E+8	2.525635	0.132334	0	0
0	0	0	-0.034684	6.044579	-13.006607	6.044579	46425.75	-3.370618E-9	-2.966815E+8	2.482751	0.131687	0	0
0	0	0	-0.034521	6.044446	-13.006129	6.044446	46429.875	1.62539E-10	6.15237E+9	2.455044	0.131025	0	0
0	0	0	-0.033908	6.044679	-13.005906	6.044679	46445.25	-1.948663E-10	-5.131725E+9	2.406998	0.130417	0	0
0	0	0	-0.03399	6.044733	-13.006117	6.044733	46443.125	-1.296877E-10	-7.710834E+9	2.384408	0.129862	0	0
0	0	0	-0.033459	6.044599	-13.005205	6.044599	46456.5	-7.915873E-10	-1.263284E+9	2.349147	0.129254	0	0
0	0	0	-0.034072	6.044673	-13.006085	6.044673	46441.125	-2.079085E-10	-4.809807E+9	2.328749	0.128778	0	0
0	0	0	-0.033377	6.044573	-13.005052	6.044573	46458.625	3.878955E-8	2.578014E+7	2.322431	0.128368	0	0
0	0	0	-0.033541	6.044693	-13.005501	6.044693	46454.5	-1.731523E-10	-5.775263E+9	2.294417	0.127746	0	0
0	0	0	-0.033051	6.044513	-13.004538	6.044513	46466.75	3.418179E-10	2.925534E+9	2.284752	0.127191	0	0
0	0	0	-0.032071	6.044546	-13.003453	6.044546	46491.375	7.611156E-10	1.313861E+9	2.230356	0.126702	0	0
0	0	0	-0.031213	6.044446	-13.002227	6.044446	46513	1.6283E-10	6.141375E+9	2.183802	0.126305	0	0
0	0	0	-0.03154	6.044599	-13.002941	6.044599	46504.75	-7.924095E-10	-1.261974E+9	2.191759	0.125486	0	0
0	0	0	-0.030029	6.044446	-13.00083	6.044446	46542.75	1.629341E-10	6.137449E+9	2.153178	0.125062	0	0
0	0	0	-0.031417	6.044759	-13.00314	6.044759	46507.875	-1.112627E-10	-8.98774E+9	2.128318	0.124745	0	0
0	0	0	-0.031785	6.044526	-13.003073	6.044526	46498.5	4.386762E-10	2.279586E+9	2.115018	0.124335	0	0
0	0	0	-0.031254	6.044566	-13.002533	6.044566	46511.875	2.876594E-9	3.476334E+8	2.11256	0.123502	0	0
0	0	0	-0.031172	6.044633	-13.002579	6.044633	46514	-3.48303E-10	-2.871063E+9	2.077365	0.123053	0	0
0	0	0	-0.032765	6.044579	-13.004343	6.044579	46473.875	-3.374112E-9	-2.963743E+8	0	0	0	0
0	0	0	-0.033092	6.044639	-13.004857	6.044639	46465.75	-3.12867E-10	-3.196247E+9	0	0	0	0
0	0	0	-0.032969	6.044593	-13.004613	6.044593	46468.75	-1.062959E-9	-9.4077E+8	0	0	0	0
0	0	0	-0.033377	6.044586	-13.00508	6.044586	46458.625	-1.616231E-9	-6.187233E+8	0	0	0	0
0	0	0	-0.033867	6.044619	-13.00573	6.044619	46446.25	-4.483147E-10	-2.230576E+9	0	0	0	0
0	0	0	-0.03399	6.044539	-13.005703	6.044539	46443.125	6.106553E-10	1.637585E+9	0	0	0	0
0	0	0	-0.034521	6.044546	-13.006343	6.044546	46429.875	7.601088E-10	1.315601E+9	0	0	0	0
0	0	0	-0.034766	6.044593	-13.006732	6.044593	46423.75	-1.06193E-9	-9.416819E+8	0	0	0	0
0	0	0	-0.035174	6.044606	-13.007242	6.044606	46413.5	-6.301118E-10	-1.58702E+9	0	0	0	0
0	0	0	-0.035052	6.044579	-13.007041	6.044579	46416.5	-3.369946E-9	-2.967406E+8	0	0	0	0
0	0	0	-0.035623	6.044573	-13.007701	6.044573	46402.125	3.874238E-8	2.581153E+7	0	0	0	0
0	0	0	-0.035664	6.044679	-13.007978	6.044679	46401.125	-1.946811E-10	-5.136605E+9	0	0	0	0
0	0	0	-0.036154	6.044506	-13.008184	6.044506	46388.875	3.073914E-10	3.253181E+9	0	0	0	0
0	0	0	-0.035828	6.044546	-13.007884	6.044546	46397.125	7.595727E-10	1.31653E+9	0	0	0	0
0	0	0	-0.036073	6.044786	-13.008688	6.044786	46390.875	-9.707516E-11	-1.03013E+10	0	0	0	0
0	0	0	-0.036032	6.044479	-13.007982	6.044479	46392	2.200791E-10	4.54382E+9	0	0	0	0
0	0	0	-0.03791	0	-0.03791	0	46344.875	0	0	0	0	0	0
0	0	0	-0.037379	0	-0.037379	0	46358.125	0	0	0	0	0	0
