Vload_(V)	ILoad_(A)	RsLoad (ohm)	SunsVoc_Voltage_(V)	SunsVoc_Current_(A)	Model_Voltage_(V)	Model_Current_(A)	Carrier_Density_(cm-3)	Lifetime_(s)	Inverse_Lifetime_(s-1)	Efficiency_(%)	Intensity_(suns)	Dark_IV_Voltage_(V)	Dark_IV_Current_(A)
3.317187	6.014716	0	50.421989	0.066112	50.381482	0.066112	6.393458E+15	0.000478	2023.709594	18.94497	1.194445	0	0
3.190165	6.023095	-0.547584	51.995178	-0.649723	52.37256	-0.649723	1.015826E+16	0.000678	1303.514499	18.944861	1.193004	0	0
3.276044	6.020502	-0.561175	52.466718	-1.193312	53.148442	-1.193312	1.163817E+16	0.000718	1167.428356	18.92893	1.191113	0	0
3.982436	6.019684	-0.678312	52.556395	-1.011336	53.132322	-1.011336	1.19417E+16	0.000756	1085.903854	18.893503	1.188363	0	0
5.995348	6.024309	-1.013543	52.515313	-0.652596	52.887491	-0.652596	1.180173E+16	0.000787	1038.77375	18.838729	1.184291	0	0
8.464735	6.020794	-1.423046	52.413263	-0.240082	52.550678	-0.240082	1.146073E+16	0.000815	1008.815956	18.774664	1.180867	0	0
10.950513	6.015164	-1.835658	52.288425	0.164035	52.194122	0.164035	1.105622E+16	0.000841	986.655599	18.732369	1.178831	0	0
13.002969	6.009552	3.177278	52.159667	0.539219	51.848266	0.539219	1.065313E+16	0.000865	967.023498	18.74108	1.176623	0	0
15.052929	6.011257	2.566849	52.028868	0.883032	51.516573	0.883032	1.025783E+16	0.000889	949.925793	18.786246	1.172788	0	0
17.154451	6.006391	2.810381	51.903418	1.205659	51.200887	1.205659	9.891658E+15	0.000915	930.483501	18.802585	1.168729	0	0
19.507544	6.00244	2.73193	51.769882	1.513814	50.883696	1.513814	9.515363E+15	0.00094	913.025264	18.791528	1.164128	0	0
21.70265	6.002576	2.354528	51.632345	1.796847	50.575467	1.796847	9.141811E+15	0.000964	898.446214	18.756651	1.159752	0	0
23.910331	5.998473	2.206731	51.500279	2.057141	50.284798	2.057141	8.796034E+15	0.000989	882.991675	18.73603	1.154939	0	0
26.072217	5.998231	1.856253	51.373931	2.296087	50.011391	2.296087	8.476655E+15	0.001014	866.889453	18.722968	1.15047	0	0
28.18595	5.998418	1.496226	51.249338	2.523287	49.745607	2.523287	8.17229E+15	0.001041	849.53294	18.729153	1.145922	0	0
30.32546	5.999199	1.110778	51.113352	2.737135	49.474642	2.737135	7.851671E+15	0.001066	836.052861	18.756031	1.141387	0	0
32.471619	5.995441	0.875641	50.987535	2.930024	49.225878	2.930024	7.565423E+15	0.001091	821.569209	18.781637	1.136125	0	0
33.178517	5.996782	0.718705	50.863882	3.108828	48.986935	3.108828	7.293507E+15	0.001117	807.337915	18.77233	1.130611	0	0
33.87629	5.99484	0.658864	50.743618	3.272401	48.759944	3.272401	7.0377E+15	0.001142	793.730057	18.754324	1.125243	0	0
34.583871	5.990637	0.637461	50.617351	3.431979	48.528167	3.431979	6.77801E+15	0.001167	780.321056	18.728999	1.120391	0	0
35.279476	5.988829	0.56302	50.495985	3.575685	48.310533	3.575685	6.536701E+15	0.001192	767.855705	18.724685	1.115446	0	0
35.977821	5.980854	0.59939	50.375966	3.708506	48.100321	3.708506	6.305817E+15	0.001216	756.139935	18.758127	1.110171	0	0
36.670709	5.967421	0.652975	50.251619	3.836724	47.887633	3.836724	6.074469E+15	0.001241	744.756553	18.785208	1.104935	0	0
37.365661	5.949409	0.697177	50.135765	3.952251	47.691325	3.952251	5.865897E+15	0.001265	733.276322	18.794824	1.099752	0	0
38.063861	5.927355	0.721426	50.012316	4.066856	47.486826	4.066856	5.650819E+15	0.001291	721.879991	18.791701	1.094225	0	0
38.754302	5.905828	0.712779	49.887152	4.173459	47.284884	4.173459	5.440062E+15	0.001314	711.729728	18.772042	1.088871	0	0
39.454078	5.868767	0.734768	49.772973	4.269121	47.101185	4.269121	5.254018E+15	0.001339	701.044497	18.759118	1.083397	0	0
40.152538	5.829134	0.727868	49.650504	4.363809	46.908633	4.363809	5.060849E+15	0.001364	690.799742	18.771036	1.077936	0	0
40.852875	5.778922	0.720598	49.534528	4.44819	46.729191	4.44819	4.883826E+15	0.001387	681.462693	18.787877	1.072595	0	0
41.543409	5.715452	0.714559	49.417817	4.531517	46.549218	4.531517	4.711299E+15	0.001413	670.856616	18.813382	1.067346	0	0
42.227252	5.64089	0.702041	49.298125	4.607771	46.370085	4.607771	4.540039E+15	0.001435	662.425646	18.824445	1.062467	0	0
42.919191	5.541356	0.693668	49.185661	4.678305	46.202145	4.678305	4.384198E+15	0.001459	653.331458	18.815402	1.057482	0	0
43.60985	5.427121	0.676321	49.064907	4.747336	46.025758	4.747336	4.222177E+15	0.001482	645.187844	18.807083	1.052247	0	0
44.289899	5.289369	0.659968	48.956935	4.807717	45.868618	4.807717	4.081823E+15	0.001504	637.071069	18.810795	1.046998	0	0
44.959912	5.115355	0.648452	48.838101	4.869324	45.698491	4.869324	3.93213E+15	0.001527	629.147939	18.828045	1.041683	0	0
45.624389	4.912753	0.634311	48.72678	4.923937	45.540857	4.923937	3.796312E+15	0.001548	621.97832	18.852808	1.036288	0	0
46.278115	4.672017	0.621478	48.615827	4.976314	45.384832	4.976314	3.665064E+15	0.00157	614.608162	18.863635	1.030947	0	0
46.92222	4.388508	0.610636	48.500423	5.026936	45.224812	5.026936	3.532789E+15	0.001591	607.824792	18.859649	1.02538	0	0
47.541599	4.074418	0.600134	48.393023	5.073145	45.076267	5.073145	3.413457E+15	0.001613	600.742384	18.86135	1.019906	0	0
48.159368	3.713409	0.59068	48.278966	5.119059	44.920368	5.119059	3.290593E+15	0.001634	593.895544	18.830666	1.01434	0	0
48.770129	3.306669	0.58198	48.169034	5.161464	44.771123	5.161464	3.175832E+15	0.001656	587.221985	18.803044	1.009025	0	0
49.351298	2.872542	0.577044	48.060164	5.200289	44.625228	5.200289	3.065618E+15	0.001674	581.607984	18.814452	1.003895	0	0
49.909215	2.417657	0.572164	47.95015	5.237185	44.479175	5.237185	2.957624E+15	0.001692	576.45076	18.845954	0.998567	0	0
50.44845	1.946209	0.573901	47.839524	5.272128	44.333578	5.272128	2.852357E+15	0.001709	571.736764	18.848626	0.993569	0	0
50.946101	1.473052	0.473156	47.734247	5.30524	44.194971	5.30524	2.755192E+15	0.001728	566.264616	18.841747	0.988479	0	0
51.397256	1.024006	0.396473	47.622192	5.338539	44.048586	5.338539	2.654907E+15	0.001747	560.835399	18.834258	0.982873	0	0
51.782348	0.628836	0.233995	47.512504	5.368671	43.906803	5.368671	2.559789E+15	0.001763	556.472498	18.831058	0.977267	0	0
42.164158	5.650744	0.699838	47.404288	5.397876	43.767142	5.397876	2.468815E+15	0.00178	551.545541	18.854637	0.971555	0	0
52.162378	0	0	47.29509	5.42539	43.627407	5.42539	2.379826E+15	0.001796	547.273866	18.867633	0.966161	0	0
0	0	0	47.192468	5.450933	43.496188	5.450933	2.298698E+15	0.001814	542.571406	18.875445	0.960832	0	0
0	0	0	47.082781	5.475594	43.357616	5.475594	2.214592E+15	0.001827	539.107993	18.862798	0.955729	0	0
0	0	0	46.978444	5.498624	43.225992	5.498624	2.137023E+15	0.001842	535.306957	18.840626	0.950559	0	0
0	0	0	46.872187	5.520835	43.092697	5.520835	2.0604E+15	0.001856	531.79625	18.833509	0.94535	0	0
0	0	0	46.768911	5.541008	42.964022	5.541008	1.98816E+15	0.001867	529.051589	18.849323	0.940246	0	0
0	0	0	46.661756	5.562641	42.829941	5.562641	1.915473E+15	0.001885	524.459858	18.883277	0.934838	0	0
0	0	0	46.559746	5.581197	42.703619	5.581197	1.848365E+15	0.001897	521.574032	18.887177	0.930079	0	0
0	0	0	46.453734	5.599425	42.572991	5.599425	1.780725E+15	0.001907	518.996858	18.876897	0.9252	0	0
0	0	0	46.34956	5.616569	42.445086	5.616569	1.71629E+15	0.001918	516.598606	18.850333	0.920176	0	0
0	0	0	46.253145	5.63125	42.327469	5.63125	1.658403E+15	0.001924	515.225443	18.843627	0.914794	0	0
0	0	0	46.145908	5.647712	42.196491	5.647712	1.595943E+15	0.001934	512.718454	18.859171	0.909651	0	0
0	0	0	46.045328	5.662315	42.074165	5.662315	1.539155E+15	0.001943	510.759031	18.882369	0.904323	0	0
0	0	0	45.945523	5.67595	41.953325	5.67595	1.484479E+15	0.001949	509.342532	18.889406	0.899299	0	0
0	0	0	45.83702	5.69068	41.821957	5.69068	1.426881E+15	0.001959	507.121839	18.873959	0.894367	0	0
0	0	0	45.740891	5.702675	41.706263	5.702675	1.377414E+15	0.001964	506.109013	18.8447	0.889475	0	0
0	0	0	45.637452	5.714899	41.582203	5.714899	1.325786E+15	0.001967	505.445549	18.838095	0.884358	0	0
0	0	0	45.534503	5.727125	41.458639	5.727125	1.276007E+15	0.001974	503.954203	18.855926	0.879175	0	0
0	0	0	45.439272	5.73715	41.345209	5.73715	1.231349E+15	0.001973	504.214102	18.877469	0.874125	0	0
0	0	0	45.33424	5.748258	41.220023	5.748258	1.183606E+15	0.001976	503.748529	18.88392	0.869312	0	0
0	0	0	45.233864	5.758611	41.100531	5.758611	1.139423E+15	0.001979	503.117357	18.866239	0.864724	0	0
0	0	0	45.135938	5.768379	40.984153	5.768379	1.097644E+15	0.001982	502.498231	18.838372	0.860017	0	0
0	0	0	45.029885	5.778195	40.858626	5.778195	1.053837E+15	0.001982	502.687975	18.827491	0.855178	0	0
0	0	0	44.932408	5.787224	40.743206	5.787224	1.01486E+15	0.001984	502.198757	18.84477	0.850167	0	0
0	0	0	44.834441	5.795712	40.627596	5.795712	9.768985E+14	0.001984	502.373378	18.867071	0.845183	0	0
0	0	0	44.730512	5.803958	40.505466	5.803958	9.379212E+14	0.00198	503.676396	18.868589	0.840568	0	0
0	0	0	44.633076	5.812047	40.390672	5.812047	9.025594E+14	0.001981	503.42832	18.847253	0.836113	0	0
0	0	0	44.535313	5.818597	40.276609	5.818597	8.681986E+14	0.001969	506.548489	18.815779	0.831485	0	0
0	0	0	44.432895	5.826871	40.156049	5.826871	8.333743E+14	0.001974	505.548552	18.801049	0.826725	0	0
0	0	0	44.3355	5.833255	40.042462	5.833255	8.013435E+14	0.001964	507.979542	18.822504	0.821886	0	0
0	0	0	44.235246	5.841102	39.924574	5.841102	7.694499E+14	0.001972	506.238054	18.849559	0.817192	0	0
0	0	0	44.134543	5.8471	39.80752	5.8471	7.38486E+14	0.00196	509.32441	18.841332	0.812895	0	0
0	0	0	44.036739	5.852924	39.693814	5.852924	7.094165E+14	0.001951	511.847335	18.817301	0.808453	0	0
0	0	0	43.936934	5.859542	39.577254	5.859542	6.807452E+14	0.001952	511.649085	18.791637	0.803971	0	0
0	0	0	43.838477	5.864349	39.463528	5.864349	6.534187E+14	0.001933	516.603637	18.774595	0.799515	0	0
0	0	0	43.736713	5.871241	39.344521	5.871241	6.261479E+14	0.001941	514.447977	18.799596	0.794689	0	0
0	0	0	43.636214	5.876098	39.228429	5.876098	6.001624E+14	0.001926	518.610716	18.813822	0.79022	0	0
0	0	0	43.537389	5.880335	39.114658	5.880335	5.755023E+14	0.001905	524.357891	18.79883	0.785923	0	0
0	0	0	43.43542	5.886116	38.996186	5.886116	5.509607E+14	0.001906	524.197529	18.766454	0.781534	0	0
0	0	0	43.336637	5.890983	38.881946	5.890983	5.28037E+14	0.001898	526.297194	18.743318	0.777118	0	0
0	0	0	43.237771	5.894284	38.768783	5.894284	5.059105E+14	0.001869	534.706131	18.750004	0.772596	0	0
0	0	0	43.136292	5.899275	38.651396	5.899275	4.840252E+14	0.001865	535.757039	18.771272	0.768206	0	0
0	0	0	43.03759	5.903843	38.537421	5.903843	4.635196E+14	0.00186	537.356952	18.771442	0.763962	0	0
0	0	0	42.93897	5.906851	38.424709	5.906851	4.437786E+14	0.00183	546.064768	18.739297	0.759903	0	0
0	0	0	42.834632	5.910302	38.305246	5.910302	4.236837E+14	0.001805	553.702267	18.711036	0.755699	0	0
0	0	0	42.734828	5.914376	38.190365	5.914376	4.052005E+14	0.001796	556.39284	18.690751	0.751534	0	0
0	0	0	42.631715	5.918199	38.071957	5.918199	3.868409E+14	0.001783	560.622634	18.708752	0.747065	0	0
0	0	0	42.527909	5.921384	37.953248	5.921384	3.690909E+14	0.001759	568.220035	18.729819	0.7429	0	0
0	0	0	42.429533	5.923764	37.841232	5.923764	3.52928E+14	0.001726	579.113009	18.726904	0.738854	0	0
0	0	0	42.31417	5.928091	37.708667	5.928091	3.347643E+14	0.001719	581.510982	18.687125	0.734901	0	0
0	0	0	42.210649	5.932074	37.589615	5.932074	3.19168E+14	0.001718	581.894684	18.660635	0.730908	0	0
0	0	0	42.103208	5.935385	37.466681	5.935385	3.036606E+14	0.001703	587.128275	18.659548	0.726637	0	0
0	0	0	41.999606	5.937522	37.348951	5.937522	2.893411E+14	0.001667	599.60688	18.674786	0.722459	0	0
0	0	0	41.899556	5.939502	37.235316	5.939502	2.760838E+14	0.001633	612.289241	18.678161	0.718453	0	0
0	0	0	41.789379	5.942391	37.109611	5.942391	2.621118E+14	0.001612	620.177426	18.653383	0.714606	0	0
0	0	0	41.681611	5.945459	36.986452	5.945459	2.490594E+14	0.0016	625.004972	18.61604	0.710745	0	0
0	0	0	41.574619	5.948489	36.864178	5.948489	2.3668E+14	0.00159	628.931833	18.593202	0.706765	0	0
0	0	0	41.471548	5.951168	36.746562	5.951168	2.252803E+14	0.001577	634.03758	18.605374	0.702825	0	0
0	0	0	41.361983	5.953023	36.622316	5.953023	2.137077E+14	0.001541	648.866886	18.617493	0.698819	0	0
0	0	0	41.257115	5.954758	36.50342	5.954758	2.031382E+14	0.001507	663.442113	18.599993	0.695011	0	0
0	0	0	41.14069	5.956883	36.371253	5.956883	1.919621E+14	0.001477	677.192679	18.566758	0.691415	0	0
0	0	0	41.036842	5.959035	36.25315	5.959035	1.824696E+14	0.001458	685.923437	18.531453	0.687634	0	0
0	0	0	40.919641	5.961857	36.119533	5.961857	1.722739E+14	0.00145	689.704216	18.52479	0.683812	0	0
0	0	0	40.808688	5.964015	35.993441	5.964015	1.631066E+14	0.001431	698.723003	18.546544	0.679978	0	0
0	0	0	40.693693	5.96596	35.862981	5.96596	1.540815E+14	0.001406	711.291569	18.554454	0.676184	0	0
0	0	0	40.573143	5.967855	35.726327	5.967855	1.451182E+14	0.001378	725.870542	18.513589	0.672601	0	0
0	0	0	40.454472	5.969215	35.592205	5.969215	1.367695E+14	0.001337	747.829023	18.469316	0.669084	0	0
0	0	0	40.329839	5.970773	35.451233	5.970773	1.284846E+14	0.001301	768.805115	18.45551	0.665263	0	0
0	0	0	40.212433	5.972368	35.318324	5.972368	1.211114E+14	0.001272	786.005949	18.459174	0.661481	0	0
0	0	0	40.091312	5.974144	35.181093	5.974144	1.13922E+14	0.001249	800.573891	18.466698	0.657832	0	0
0	0	0	39.968966	5.9757	35.042661	5.9757	1.070687E+14	0.001221	819.136059	18.454113	0.654209	0	0
0	0	0	39.85495	5.977715	34.913182	5.977715	1.010339E+14	0.001215	823.239282	18.397634	0.650758	0	0
0	0	0	39.732849	5.979276	34.775004	5.979276	9.492875E+13	0.001192	839.217651	18.370094	0.647175	0	0
0	0	0	39.61528	5.98084	34.641899	5.98084	8.938229E+13	0.001174	851.962561	18.387525	0.64342	0	0
0	0	0	39.495384	5.982273	34.506285	5.982273	8.404437E+13	0.001152	867.744661	18.401741	0.639943	0	0
0	0	0	39.370791	5.98351	34.365564	5.98351	7.882023E+13	0.001124	889.988611	18.374973	0.636558	0	0
0	0	0	39.252855	5.984334	34.232646	5.984334	7.416238E+13	0.001086	920.917974	18.323935	0.633213	0	0
0	0	0	39.126343	5.985341	34.089954	5.985341	6.945952E+13	0.001052	950.668004	18.287766	0.629842	0	0
0	0	0	38.998607	5.98609	33.946101	5.98609	6.500253E+13	0.00101	989.965699	18.295707	0.626126	0	0
0	0	0	38.87185	5.986946	33.803253	5.986946	6.085272E+13	0.000975	1025.85567	18.314191	0.622755	0	0
0	0	0	38.743215	5.987932	33.658184	5.987932	5.690334E+13	0.000945	1058.086145	18.304433	0.619463	0	0
0	0	0	38.613803	5.988793	33.512346	5.988793	5.318081E+13	0.000913	1095.747921	18.25291	0.616395	0	0
0	0	0	38.478512	5.989704	33.359868	5.989704	4.954177E+13	0.000881	1134.941245	18.212546	0.613077	0	0
0	0	0	38.344731	5.990703	33.209003	5.990703	4.618167E+13	0.000856	1168.890784	18.209529	0.609718	0	0
0	0	0	38.206459	5.992048	33.052797	5.992048	4.294202E+13	0.000843	1186.640263	18.231683	0.606241	0	0
0	0	0	38.064837	5.993169	32.893023	5.993169	3.985382E+13	0.000823	1215.350672	18.227884	0.603068	0	0
0	0	0	37.922195	5.994361	32.732036	5.994361	3.696288E+13	0.000808	1237.913858	18.183578	0.600001	0	0
0	0	0	37.779798	5.995133	32.571681	5.995133	3.428179E+13	0.000779	1284.109632	18.126994	0.597012	0	0
0	0	0	37.628008	5.996299	32.400446	5.996299	3.163358E+13	0.000764	1308.75638	18.121163	0.593548	0	0
0	0	0	37.477566	5.99737	32.230798	5.99737	2.920723E+13	0.000749	1335.050806	18.134628	0.590243	0	0
0	0	0	37.318385	5.998226	32.051532	5.998226	2.683897E+13	0.000724	1381.183375	18.145026	0.587096	0	0
0	0	0	37.159613	5.998936	31.872846	5.998936	2.466521E+13	0.000695	1438.167739	18.092058	0.584254	0	0
0	0	0	36.994714	5.999372	31.687529	5.999372	2.25912E+13	0.000655	1526.845027	18.049301	0.581199	0	0
0	0	0	36.833777	6.000102	31.506391	6.000102	2.073315E+13	0.000631	1584.546749	18.027346	0.578013	0	0
0	0	0	36.668103	6.000483	31.320245	6.000483	1.897805E+13	0.000593	1685.895794	18.043885	0.57484	0	0
0	0	0	36.498836	6.000929	31.130009	6.000929	1.733657E+13	0.000559	1787.680031	18.029076	0.571905	0	0
0	0	0	36.327608	6.001411	30.937539	6.001411	1.581908E+13	0.000529	1890.724938	17.99262	0.568983	0	0
0	0	0	36.154175	6.001685	30.74278	6.001685	1.441619E+13	0.000492	2031.94986	17.939871	0.566127	0	0
0	0	0	35.983274	6.002249	30.550596	6.002249	1.315453E+13	0.000469	2130.418414	17.913194	0.563165	0	0
0	0	0	35.80396	6.002673	30.349101	6.002673	1.194841E+13	0.000441	2265.727124	17.938962	0.559952	0	0
0	0	0	35.625219	6.002973	30.148357	6.002973	1.085547E+13	0.000411	2431.751343	17.944724	0.557004	0	0
0	0	0	35.438473	6.003318	29.938592	6.003318	9.81956E+12	0.000383	2609.219187	17.883211	0.554465	0	0
0	0	0	35.247603	6.003876	29.724003	6.003876	8.862285E+12	0.000364	2749.671388	17.833567	0.551768	0	0
0	0	0	35.053343	6.004223	29.505802	6.004223	7.983295E+12	0.000338	2954.597323	17.81296	0.548727	0	0
0	0	0	34.854632	6.004762	29.282429	6.004762	7.173888E+12	0.000321	3119.197687	17.832481	0.545646	0	0
0	0	0	34.652818	6.005238	29.055629	6.005238	6.435448E+12	0.000302	3310.751749	17.822054	0.542936	0	0
0	0	0	34.456598	6.005494	28.835305	6.005494	5.790162E+12	0.000279	3580.235414	17.767806	0.540292	0	0
0	0	0	34.267606	6.005878	28.622967	6.005878	5.229694E+12	0.000263	3798.945802	17.713743	0.537502	0	0
0	0	0	34.085761	6.006338	28.41857	6.006338	4.741541E+12	0.000252	3972.042957	17.701556	0.534606	0	0
0	0	0	33.897463	6.00657	28.207149	6.00657	4.283903E+12	0.000234	4274.789843	17.717716	0.531592	0	0
0	0	0	33.696792	6.007193	27.981474	6.007193	3.844587E+12	0.000227	4398.787412	17.705831	0.528921	0	0
0	0	0	33.482155	6.007424	27.740505	6.007424	3.424331E+12	0.000209	4787.073865	17.641515	0.526449	0	0
0	0	0	33.258983	6.007864	27.489759	6.007864	3.035912E+12	0.000197	5073.669286	17.597482	0.523527	0	0
0	0	0	33.029359	6.008192	27.23188	6.008192	2.682121E+12	0.000183	5468.00737	17.596758	0.520737	0	0
0	0	0	32.777765	6.00847	26.949403	6.00847	2.341564E+12	0.000167	5996.556735	17.617549	0.517921	0	0
0	0	0	32.53638	6.009021	26.678108	6.009021	2.055489E+12	0.000161	6228.493182	17.580694	0.515316	0	0
0	0	0	32.28891	6.009358	26.400193	6.009358	1.798407E+12	0.000149	6697.370498	17.522652	0.512817	0	0
0	0	0	32.035927	6.009532	26.11625	6.009532	1.568768E+12	0.000135	7428.113561	17.48145	0.510093	0	0
0	0	0	31.778494	6.009837	25.827184	6.009837	1.365141E+12	0.000124	8034.619145	17.483095	0.507251	0	0
0	0	0	31.517058	6.010317	25.53345	6.010317	1.185359E+12	0.00012	8341.99069	17.483262	0.504659	0	0
0	0	0	31.254274	6.010609	25.238389	6.010609	1.028489E+12	0.000111	8976.598924	17.451725	0.502134	0	0
0	0	0	30.982098	6.010978	24.93271	6.010978	8.878505E+11	0.000106	9463.282466	17.38336	0.499833	0	0
0	0	0	30.714129	6.011384	24.63171	6.011384	7.681777E+11	0.000103	9751.718207	17.346425	0.497097	0	0
0	0	0	30.442116	6.011397	24.326569	6.011397	6.631783E+11	8.887976E-5	11251.155127	17.35079	0.494426	0	0
0	0	0	30.168715	6.011533	24.019744	6.011533	5.720963E+11	7.996231E-5	12505.892238	17.366374	0.491636	0	0
0	0	0	29.89364	6.011773	23.710933	6.011773	4.930733E+11	7.453004E-5	13417.408461	17.297512	0.489441	0	0
0	0	0	29.618565	6.011917	23.402218	6.011917	4.249627E+11	6.754961E-5	14803.933974	17.24425	0.486942	0	0
0	0	0	29.35378	6.012	23.10511	6.012	3.683011E+11	6.032028E-5	16578.172586	17.217451	0.484404	0	0
0	0	0	29.084136	6.012108	22.802523	6.012108	3.183555E+11	5.430433E-5	18414.736497	17.220676	0.481654	0	0
0	0	0	28.807509	6.012672	22.491622	6.012672	2.741453E+11	5.967707E-5	16756.855878	17.203695	0.479168	0	0
0	0	0	28.53076	6.012394	22.181468	6.012394	2.36058E+11	4.521738E-5	22115.388832	17.132336	0.476986	0	0
0	0	0	28.254541	6.012757	21.87123	6.012757	2.033199E+11	4.616926E-5	21659.433608	17.080778	0.474607	0	0
0	0	0	27.976689	6.012894	21.559398	6.012894	1.74967E+11	4.272837E-5	23403.655304	17.083021	0.471936	0	0
0	0	0	27.686872	6.012899	21.234284	6.012899	1.495969E+11	3.662888E-5	27300.863393	17.092178	0.469252	0	0
0	0	0	27.387376	6.013082	20.89812	6.013082	1.272378E+11	3.46481E-5	28861.611176	17.056312	0.467004	0	0
0	0	0	27.093026	6.013311	20.567677	6.013311	1.085217E+11	3.436693E-5	29097.73647	16.975186	0.464743	0	0
0	0	0	26.790427	6.013288	20.228252	6.013288	9.21467E+10	2.870692E-5	34834.80339	16.935071	0.462178	0	0
0	0	0	26.489788	6.01345	19.890824	6.01345	7.832537E+10	2.752744E-5	36327.384181	16.945484	0.459666	0	0
0	0	0	26.182084	6.013606	19.545475	6.013606	6.632328E+10	2.657171E-5	37634.012836	16.944741	0.45722	0	0
0	0	0	25.877117	6.013614	19.203357	6.013614	5.624338E+10	2.271376E-5	44026.17386	16.870455	0.45529	0	0
0	0	0	25.574477	6.013735	18.863725	6.013735	4.775543E+10	2.165856E-5	46171.128197	16.809668	0.45283	0	0
0	0	0	25.301076	6.013789	18.556966	6.013789	4.119439E+10	1.97661E-5	50591.6572	16.801849	0.450292	0	0
0	0	0	25.044091	6.01373	18.26875	6.01373	3.585149E+10	1.617226E-5	61834.292463	16.809842	0.44778	0	0
0	0	0	24.752804	6.013837	17.941866	6.013837	3.06283E+10	1.549586E-5	64533.382527	16.756518	0.445744	0	0
0	0	0	24.428643	6.013877	17.578179	6.013877	2.570519E+10	1.36383E-5	73322.911426	16.685016	0.443655	0	0
0	0	0	24.09607	6.013971	17.204993	6.013971	2.147552E+10	1.283137E-5	77933.989116	16.65299	0.44142	0	0
0	0	0	23.756718	6.013939	16.824347	6.013939	1.787618E+10	1.023915E-5	97664.385119	16.664738	0.438697	0	0
0	0	0	23.408912	6.01396	16.434158	6.01396	1.481226E+10	8.716148E-6	114729.586154	16.639894	0.436634	0	0
0	0	0	23.079443	6.014013	16.064498	6.014013	1.239573E+10	7.849648E-6	127394.244611	16.592528	0.434598	0	0
0	0	0	22.802816	6.01414	15.754032	6.01414	1.067404E+10	8.238348E-6	121383.559364	16.523091	0.432601	0	0
0	0	0	22.526515	6.01412	15.444102	6.01412	9.193099E+9	6.860711E-6	145757.486245	16.511072	0.430261	0	0
0	0	0	22.2329	6.014279	15.114537	6.014279	7.843865E+9	7.988154E-6	125185.370605	16.532762	0.427881	0	0
0	0	0	21.918867	6.0141	14.762467	6.0141	6.619187E+9	4.784162E-6	209023.000643	16.495853	0.426096	0	0
0	0	0	21.565549	6.014247	14.365941	6.014247	5.46835E+9	5.182586E-6	192953.870067	16.403945	0.4241	0	0
0	0	0	21.209168	6.014287	13.966105	6.014287	4.510128E+9	4.672848E-6	214002.231314	16.359535	0.421773	0	0
0	0	0	20.85977	6.014201	13.574254	6.014201	3.733883E+9	3.223247E-6	310246.154685	16.386801	0.419525	0	0
0	0	0	20.528463	6.014386	13.202368	6.014386	3.121618E+9	4.212648E-6	237380.384393	16.37389	0.417568	0	0
0	0	0	20.209733	6.014393	12.844808	6.014393	2.627553E+9	3.619742E-6	276262.747842	16.283566	0.415757	0	0
0	0	0	19.903949	6.014314	12.501876	6.014314	2.227217E+9	2.462406E-6	406106.86543	16.211388	0.413589	0	0
0	0	0	19.578277	6.014294	12.136562	6.014294	1.867688E+9	1.96805E-6	508117.099888	16.225513	0.411354	0	0
0	0	0	19.24113	6.014148	11.758532	6.014148	1.556511E+9	1.219277E-6	820157.990416	16.225983	0.409239	0	0
0	0	0	18.913294	6.014413	11.390434	6.014413	1.303725E+9	1.915673E-6	522009.656706	16.164224	0.407388	0	0
0	0	0	18.579332	6.014334	11.015895	6.014334	1.088383E+9	1.266715E-6	789443.275287	16.094891	0.405576	0	0
0	0	0	18.246555	6.014499	10.642376	6.014499	9.091919E+8	1.868094E-6	535304.878763	16.102858	0.403223	0	0
0	0	0	17.926641	6.01438	10.283646	6.01438	7.648024E+8	1.01328E-6	986894.234156	16.105197	0.401055	0	0
0	0	0	17.607585	6.014347	9.925771	6.014347	6.436418E+8	7.762165E-7	1288300.299294	16.039349	0.399296	0	0
0	0	0	17.278809	6.014427	9.556848	6.014427	5.388371E+8	8.284925E-7	1207011.482449	15.962693	0.397577	0	0
0	0	0	16.947788	6.014261	9.185721	6.014261	4.505505E+8	4.405167E-7	2270061.364831	15.932387	0.39529	0	0
0	0	0	16.629344	6.014499	8.828181	6.014499	3.792995E+8	7.797435E-7	1282473.051314	15.94161	0.393003	0	0
0	0	0	16.320701	6.014453	8.482005	6.014453	3.210126E+8	5.434429E-7	1840119.672658	15.91756	0.391231	0	0
0	0	0	15.990619	6.01442	8.111761	6.01442	2.68552E+8	4.037364E-7	2476863.704461	15.840645	0.389433	0	0
0	0	0	15.653432	6.014493	7.733407	6.014493	2.238034E+8	4.464675E-7	2239804.656094	15.791577	0.387476	0	0
0	0	0	15.29848	6.014453	7.335273	6.014453	1.847288E+8	3.127581E-7	3197358.782598	15.794437	0.385228	0	0
0	0	0	14.926336	6.014281	6.91803	6.014281	1.510658E+8	1.544703E-7	6473735.379843	15.781886	0.383205	0	0
0	0	0	14.544106	6.014526	6.488915	6.014526	1.228654E+8	2.879175E-7	3473217.010084	15.69461	0.381738	0	0
0	0	0	14.144887	6.01448	6.041132	6.01448	9.90159E+7	1.86469E-7	5362822.627251	15.616863	0.379847	0	0
0	0	0	13.698502	6.014632	5.540169	6.014632	7.778699E+7	4.1299E-7	2421366.225928	15.6118	0.377665	0	0
0	0	0	13.29177	6.014586	5.083957	6.014586	6.243357E+7	2.13358E-7	4686958.564922	15.609492	0.375709	0	0
0	0	0	12.90615	6.014586	4.651366	6.014586	5.068576E+7	1.73216E-7	5773138.616205	15.541167	0.374096	0	0
0	0	0	12.500724	6.014652	4.196466	6.014652	4.071027E+7	2.834273E-7	3528241.852289	15.459027	0.372377	0	0
0	0	0	12.06508	6.014433	3.70806	6.014433	3.216825E+7	5.063875E-8	1.974772E+7	15.46262	0.370195	0	0
0	0	0	11.673661	6.014672	3.268632	6.014672	2.603358E+7	2.631137E-7	3800638.925408	15.469956	0.368265	0	0
0	0	0	11.309889	6.014619	2.860624	6.014619	2.138606E+7	9.804527E-8	1.019937E+7	15.399566	0.366771	0	0
0	0	0	10.870855	6.014473	2.368318	6.014473	1.68678E+7	3.090108E-8	3.236133E+7	15.306393	0.365131	0	0
0	0	0	10.023373	6.014619	1.417401	6.014619	1.066829E+7	4.891181E-8	2.044496E+7	15.306927	0.363016	0	0
0	0	0	9.074167	6.014659	0.352518	6.014659	6386298.25	4.96131E-8	2.015597E+7	15.321207	0.361125	0	0
0	0	0	8.142848	6.014652	-0.692234	6.014652	3860138.25	2.687821E-8	3.720486E+7	15.262917	0.359591	0	0
0	0	0	7.250078	6.014725	-1.693858	6.014725	2382357.125	-1.176025E-7	-8503222.355373	15.181438	0.357833	0	0
0	0	0	6.406599	6.014785	-2.640171	6.014785	1510019.875	-9.784002E-9	-1.022077E+8	15.153963	0.35585	0	0
0	0	0	5.612368	6.014725	-3.531056	6.014725	982925.625	-4.851683E-8	-2.061141E+7	15.167407	0.353959	0	0
0	0	0	4.854441	6.014559	-4.381051	6.014559	652501.75	1.852774E-9	5.397313E+8	15.092415	0.352558	0	0
0	0	0	4.142455	6.014705	-5.179987	6.014705	444046.375	1.817469E-8	5.502157E+7	15.005238	0.350878	0	0
0	0	0	3.466323	6.014758	-5.93856	6.014758	308100.625	-3.251812E-9	-3.075209E+8	14.990118	0.349001	0	0
0	0	0	2.876316	6.014798	-6.600499	6.014798	223963	-1.216318E-9	-8.221536E+8	15.003232	0.347044	0	0
0	0	0	2.380274	6.014712	-7.156827	6.014712	171285.375	1.796493E-8	5.566401E+7	14.934976	0.345616	0	0
0	0	0	1.968723	6.014811	-7.618668	6.014811	137119.75	-6.409655E-10	-1.560146E+9	14.832008	0.344109	0	0
0	0	0	1.623817	6.014745	-8.005481	6.014745	113795.875	-1.75198E-9	-5.707827E+8	14.816052	0.342112	0	0
0	0	0	1.337716	6.014831	-8.32657	6.014831	97489.625	-3.769621E-10	-2.652787E+9	14.825445	0.340354	0	0
0	0	0	1.098659	6.014725	-8.594576	6.014725	85671.125	-4.228486E-9	-2.364912E+8	14.749668	0.339045	0	0
0	0	0	0.899009	6.014732	-8.818556	6.014732	76906.375	-2.187457E-9	-4.571519E+8	14.662714	0.337458	0	0
0	0	0	0.734846	6.014732	-9.002716	6.014732	70375.625	-2.001702E-9	-4.99575E+8	14.663196	0.335422	0	0
0	0	0	0.594204	6.014824	-9.160639	6.014824	65223.375	-2.676141E-10	-3.736724E+9	14.655788	0.333836	0	0
0	0	0	0.475166	6.014864	-9.294243	6.014864	61158.5	-1.836005E-10	-5.446607E+9	14.584615	0.3325	0	0
0	0	0	0.380466	6.014818	-9.400403	6.014818	58106.375	-2.539344E-10	-3.938025E+9	14.50018	0.330887	0	0
0	0	0	0.297404	6.014804	-9.493561	6.014804	55555.125	-2.791301E-10	-3.582559E+9	14.503522	0.32897	0	0
0	0	0	0.22982	6.014652	-9.569129	6.014652	53562	3.729655E-10	2.681213E+9	14.482415	0.327423	0	0
0	0	0	0.184083	6.014718	-9.620546	6.014718	52253.875	-9.743279E-9	-1.026348E+8	14.402674	0.326022	0	0
0	0	0	0.140142	6.014625	-9.669687	6.014625	51027.375	2.51118E-10	3.982192E+9	14.326448	0.324475	0	0
0	0	0	0.105023	6.014546	-9.708954	6.014546	50067.75	1.310778E-10	7.62906E+9	14.323832	0.322637	0	0
0	0	0	0.069495	6.014751	-9.749145	6.014751	49115.375	-6.150942E-10	-1.625767E+9	14.301525	0.321103	0	0
0	0	0	0.054549	6.014625	-9.765706	6.014625	48720.125	2.397634E-10	4.170778E+9	14.217245	0.319834	0	0
0	0	0	0.024534	6.014639	-9.799399	6.014639	47936	2.76438E-10	3.617448E+9	14.155653	0.318128	0	0
0	0	0	-0.000131	6.014685	-9.827144	6.014685	47301.125	6.842935E-10	1.461361E+9	14.16763	0.316344	0	0
0	0	0	-0.008258	6.014758	-9.83638	6.014758	47093.75	-4.970443E-10	-2.011893E+9	14.09725	0.315048	0	0
0	0	0	-0.015037	6.014493	-9.843551	6.014493	46921.5	9.36278E-11	1.068059E+10	14.013593	0.313712	0	0
0	0	0	-0.02839	6.014718	-9.858899	6.014718	46584	-8.686069E-9	-1.151269E+8	13.988272	0.311967	0	0
0	0	0	-0.048563	6.014718	-9.88153	6.014718	46078.75	-8.59186E-9	-1.163892E+8	13.998684	0.310367	0	0
0	0	0	-0.065184	6.014705	-9.900153	6.014705	45666.625	1.869149E-9	5.350027E+8	13.916097	0.309204	0	0
0	0	0	-0.073474	6.014751	-9.909529	6.014751	45462.375	-5.69346E-10	-1.756401E+9	13.835562	0.307683	0	0
0	0	0	-0.077231	6.014725	-9.9137	6.014725	45370.125	-2.23934E-9	-4.465602E+8	13.852362	0.305965	0	0
0	0	0	-0.079273	6.014665	-9.915893	6.014665	45320.125	3.981866E-10	2.511385E+9	13.848794	0.304444	0	0
0	0	0	-0.080089	6.014712	-9.916885	6.014712	45300.125	4.751255E-9	2.104707E+8	13.717076	0.303386	0	0
0	0	0	-0.080865	6.014652	-9.917658	6.014652	45281.125	3.153037E-10	3.171545E+9	13.653245	0.301773	0	0
0	0	0	-0.081069	6.014685	-9.917941	6.014685	45276.125	6.549984E-10	1.526721E+9	13.673575	0.300015	0	0
0	0	0	-0.081723	6.014718	-9.918728	6.014718	45260.125	-8.439218E-9	-1.184944E+8	13.630427	0.298785	0	0
0	0	0	-0.081682	6.014838	-9.918878	6.014838	45261.125	-1.654785E-10	-6.043081E+9	13.487761	0.297741	0	0
0	0	0	-0.081355	6.014745	-9.918359	6.014745	45269.125	-6.969547E-10	-1.434813E+9	13.473033	0.295916	0	0
0	0	0	-0.081192	6.014586	-9.917916	6.014586	45273.125	1.547348E-10	6.462671E+9	13.493482	0.294448	0	0
0	0	0	-0.081274	6.014732	-9.918246	6.014732	45271.125	-1.287651E-9	-7.766078E+8	13.404832	0.293325	0	0
0	0	0	-0.0816	6.014645	-9.918472	6.014645	45263.125	2.855564E-10	3.501936E+9	13.308444	0.292016	0	0
0	0	0	-0.080824	6.014791	-9.91784	6.014791	45282.125	-2.6757E-10	-3.73734E+9	13.32067	0.29027	0	0
0	0	0	-0.080947	6.014679	-9.917793	6.014679	45279.125	5.388996E-10	1.855633E+9	13.287571	0.288975	0	0
0	0	0	-0.080865	6.014745	-9.91781	6.014745	45281.125	-6.971395E-10	-1.434433E+9	13.181999	0.287824	0	0
0	0	0	-0.080579	6.014712	-9.917435	6.014712	45288.125	4.749997E-9	2.105265E+8	13.152106	0.286211	0	0
0	0	0	-0.080293	6.014751	-9.917179	6.014751	45295.125	-5.672514E-10	-1.762887E+9	13.153501	0.284744	0	0
0	0	0	-0.080334	6.014566	-9.916922	6.014566	45294.125	1.342933E-10	7.446387E+9	13.061584	0.283713	0	0
0	0	0	-0.080498	6.014771	-9.917441	6.014771	45290.125	-3.636522E-10	-2.74988E+9	12.973929	0.282324	0	0
0	0	0	-0.080661	6.014844	-9.917743	6.014844	45286.125	-1.570177E-10	-6.368707E+9	12.997196	0.280698	0	0
0	0	0	-0.080702	6.014791	-9.917702	6.014791	45285.125	-2.675877E-10	-3.737092E+9	12.971756	0.279534	0	0
0	0	0	-0.080089	6.014831	-9.91708	6.014831	45300.125	-1.751615E-10	-5.709018E+9	12.844164	0.27853	0	0
0	0	0	-0.079232	6.014712	-9.915923	6.014712	45321.125	4.753458E-9	2.103732E+8	12.790122	0.277088	0	0
0	0	0	-0.079763	6.014771	-9.916616	6.014771	45308.125	-3.637967E-10	-2.748788E+9	12.807698	0.275581	0	0
0	0	0	-0.079518	6.014758	-9.91632	6.014758	45314.125	-4.782615E-10	-2.090906E+9	12.708778	0.274444	0	0
0	0	0	-0.079313	6.014745	-9.916069	6.014745	45319.125	-6.977245E-10	-1.43323E+9	12.615161	0.273228	0	0
0	0	0	-0.079191	6.014851	-9.916105	6.014851	45322.125	-1.494244E-10	-6.692349E+9	12.626895	0.271549	0	0
0	0	0	-0.079273	6.014983	-9.916413	6.014983	45320.125	-7.537527E-11	-1.326695E+10	12.577497	0.270438	0	0
0	0	0	-0.079885	6.014778	-9.916764	6.014778	45305.125	-3.24908E-10	-3.077794E+9	12.468234	0.269499	0	0
0	0	0	-0.08062	6.014758	-9.917557	6.014758	45287.125	-4.779765E-10	-2.092153E+9	12.467854	0.267952	0	0
0	0	0	-0.080538	6.014659	-9.917302	6.014659	45289.125	3.518594E-10	2.842044E+9	12.468161	0.266472	0	0
0	0	0	-0.080988	6.014785	-9.918012	6.014785	45278.125	-2.933713E-10	-3.40865E+9	12.339299	0.265639	0	0
0	0	0	-0.081233	6.014698	-9.918146	6.014698	45272.125	1.151108E-9	8.687286E+8	12.277743	0.264184	0	0
0	0	0	-0.081927	6.014957	-9.919348	6.014957	45255.125	-8.354738E-11	-1.196926E+10	12.315076	0.262902	0	0
0	0	0	-0.082049	6.014877	-9.919355	6.014877	45252.125	-1.246955E-10	-8.019538E+9	12.232857	0.26195	0	0
0	0	0	-0.082254	6.014632	-9.919183	6.014632	45247.125	2.402884E-10	4.161665E+9	12.117224	0.260773	0	0
0	0	0	-0.082172	6.014698	-9.9192	6.014698	45249.125	1.150523E-9	8.691701E+8	12.123172	0.259226	0	0
0	0	0	-0.082049	6.014738	-9.919127	6.014738	45252.125	-9.040421E-10	-1.106143E+9	12.08609	0.25801	0	0
0	0	0	-0.082703	6.014705	-9.919806	6.014705	45236.125	1.851529E-9	5.400942E+8	11.959909	0.25715	0	0
0	0	0	-0.08307	6.014645	-9.920121	6.014645	45227.125	2.853292E-10	3.504723E+9	11.966745	0.255603	0	0
0	0	0	-0.083234	6.014738	-9.920456	6.014738	45223.125	-9.034627E-10	-1.106853E+9	11.952648	0.254374	0	0
0	0	0	-0.084336	6.014526	-9.921346	6.014526	45196.25	1.059298E-10	9.44021E+9	11.792215	0.253594	0	0
0	0	0	-0.083683	6.014778	-9.921025	6.014778	45212.25	-3.24242E-10	-3.084117E+9	11.750719	0.252192	0	0
0	0	0	-0.084336	6.014685	-9.921606	6.014685	45196.25	6.538428E-10	1.52942E+9	11.775462	0.250698	0	0
0	0	0	-0.084704	6.014758	-9.922138	6.014758	45187.25	-4.769224E-10	-2.096777E+9	11.67629	0.249944	0	0
0	0	0	-0.086174	6.014751	-9.923776	6.014751	45151.375	-5.654512E-10	-1.768499E+9	11.612658	0.248715	0	0
0	0	0	-0.086501	6.014632	-9.923947	6.014632	45143.375	2.397375E-10	4.17123E+9	11.611043	0.24726	0	0
0	0	0	-0.087726	6.014778	-9.92556	6.014778	45113.5	-3.235338E-10	-3.090867E+9	11.511985	0.246414	0	0
0	0	0	-0.087767	6.014705	-9.925487	6.014705	45112.5	1.846469E-9	5.415743E+8	11.416035	0.245264	0	0
0	0	0	-0.087113	6.014599	-9.92458	6.014599	45128.375	1.717276E-10	5.823176E+9	11.454077	0.243849	0	0
0	0	0	-0.087481	6.014665	-9.925101	6.014665	45119.5	3.964239E-10	2.522552E+9	11.371902	0.242977	0	0
0	0	0	-0.086623	6.014871	-9.924475	6.014871	45140.375	-1.297123E-10	-7.709367E+9	11.260848	0.242051	0	0
0	0	0	-0.086419	6.014685	-9.923942	6.014685	45145.375	6.531068E-10	1.531143E+9	11.273271	0.240597	0	0
0	0	0	-0.086011	6.014559	-9.923278	6.014559	45155.375	1.282186E-10	7.799182E+9	11.20153	0.239777	0	0
0	0	0	-0.085643	6.014579	-9.922899	6.014579	45164.25	1.468839E-10	6.8081E+9	11.091222	0.238772	0	0
0	0	0	-0.084663	6.014785	-9.922135	6.014785	45188.25	-2.92789E-10	-3.415429E+9	11.127628	0.237305	0	0
0	0	0	-0.085112	6.014592	-9.922325	6.014592	45177.25	1.626907E-10	6.146631E+9	11.059534	0.236472	0	0
0	0	0	-0.083683	6.014685	-9.920873	6.014685	45212.25	6.540743E-10	1.528878E+9	10.933378	0.235652	0	0
0	0	0	-0.083601	6.014798	-9.920966	6.014798	45214.125	-2.455526E-10	-4.072447E+9	10.925178	0.234197	0	0
0	0	0	-0.083356	6.014844	-9.920767	6.014844	45220.125	-1.567889E-10	-6.378002E+9	10.867399	0.233497	0	0
0	0	0	-0.082294	6.014738	-9.919402	6.014738	45246.125	-9.039222E-10	-1.10629E+9	10.75099	0.232492	0	0
0	0	0	-0.082744	6.014745	-9.919917	6.014745	45235.125	-6.964312E-10	-1.435892E+9	10.796096	0.231077	0	0
0	0	0	-0.082172	6.014765	-9.919308	6.014765	45249.125	-4.126875E-10	-2.423141E+9	10.732187	0.230244	0	0
0	0	0	-0.082621	6.014751	-9.91979	6.014751	45238.125	-5.665376E-10	-1.765108E+9	10.601254	0.229411	0	0
0	0	0	-0.08209	6.014659	-9.919043	6.014659	45251.125	3.515641E-10	2.844431E+9	10.618491	0.22793	0	0
0	0	0	-0.08258	6.014698	-9.919658	6.014698	45239.125	1.150268E-9	8.693623E+8	10.539669	0.227177	0	0
0	0	0	-0.082131	6.014672	-9.919111	6.014672	45250.125	4.574469E-10	2.186046E+9	10.454842	0.226278	0	0
0	0	0	-0.081641	6.014798	-9.918767	6.014798	45262.125	-2.458133E-10	-4.068128E+9	10.489105	0.224916	0	0
0	0	0	-0.0816	6.014692	-9.918548	6.014692	45263.125	8.347032E-10	1.198031E+9	10.409305	0.224268	0	0
0	0	0	-0.081274	6.014758	-9.91829	6.014758	45271.125	-4.778077E-10	-2.092892E+9	10.299785	0.223184	0	0
0	0	0	-0.081682	6.014645	-9.918563	6.014645	45261.125	2.855437E-10	3.50209E+9	10.317473	0.221901	0	0
0	0	0	-0.081314	6.014765	-9.918346	6.014765	45270.125	-4.12879E-10	-2.422017E+9	10.201824	0.22128	0	0
0	0	0	-0.081274	6.014685	-9.91817	6.014685	45271.125	6.54926E-10	1.52689E+9	10.121277	0.220288	0	0
0	0	0	-0.080865	6.014804	-9.917907	6.014804	45281.125	-2.275096E-10	-4.395419E+9	10.139958	0.219164	0	0
0	0	0	-0.081396	6.014738	-9.918394	6.014738	45268.125	-9.043617E-10	-1.105752E+9	10.045943	0.218384	0	0
0	0	0	-0.081192	6.014745	-9.918176	6.014745	45273.125	-6.970163E-10	-1.434687E+9	9.977888	0.217287	0	0
0	0	0	-0.081845	6.014944	-9.919234	6.014944	45257.125	-8.841435E-11	-1.131038E+10	9.982492	0.216071	0	0
0	0	0	-0.081968	6.014778	-9.919101	6.014778	45254.125	-3.245423E-10	-3.081263E+9	9.826223	0.215502	0	0
0	0	0	-0.082621	6.014831	-9.919921	6.014831	45238.125	-1.749218E-10	-5.716842E+9	9.807687	0.21422	0	0
0	0	0	-0.082499	6.014751	-9.919653	6.014751	45241.125	-5.665752E-10	-1.764991E+9	9.790003	0.213413	0	0
0	0	0	-0.083275	6.014917	-9.920794	6.014917	45222.125	-9.998576E-11	-1.000142E+10	9.650695	0.212726	0	0
0	0	0	-0.083601	6.014553	-9.920565	6.014553	45214.125	1.231749E-10	8.118534E+9	9.67569	0.211337	0	0
0	0	0	-0.083805	6.014798	-9.921195	6.014798	45209.125	-2.455255E-10	-4.072897E+9	9.616516	0.210716	0	0
0	0	0	-0.0845	6.014553	-9.921573	6.014553	45192.25	1.231153E-10	8.122464E+9	9.500235	0.20979	0	0
0	0	0	-0.086011	6.014698	-9.923506	6.014698	45155.375	1.148139E-9	8.709747E+8	9.515918	0.208653	0	0
0	0	0	-0.085602	6.014665	-9.922994	6.014665	45165.375	3.96827E-10	2.51999E+9	9.403248	0.207966	0	0
0	0	0	-0.085439	6.014559	-9.922637	6.014559	45169.25	1.28258E-10	7.796787E+9	9.334983	0.206974	0	0
0	0	0	-0.085561	6.014639	-9.922905	6.014639	45166.25	2.604654E-10	3.839282E+9	9.361416	0.205824	0	0
0	0	0	-0.085929	6.014625	-9.923295	6.014625	45157.25	2.222297E-10	4.499849E+9	9.218271	0.205269	0	0
0	0	0	-0.086705	6.014645	-9.924198	6.014645	45138.375	2.847693E-10	3.511614E+9	9.217272	0.204012	0	0
0	0	0	-0.087644	6.014798	-9.925501	6.014798	45115.5	-2.45017E-10	-4.081349E+9	9.148551	0.203285	0	0
0	0	0	-0.089318	6.014665	-9.927163	6.014665	45074.625	3.960297E-10	2.525063E+9	9.017943	0.202558	0	0
0	0	0	-0.091074	6.014785	-9.929327	6.014785	45031.875	-2.917758E-10	-3.427289E+9	9.039935	0.201276	0	0
0	0	0	-0.091238	6.014486	-9.929023	6.014486	45027.875	8.725544E-11	1.14606E+10	8.892061	0.200853	0	0
0	0	0	-0.090707	6.014751	-9.928861	6.014751	45040.875	-5.640674E-10	-1.772838E+9	8.876806	0.199491	0	0
0	0	0	-0.091033	6.014672	-9.929097	6.014672	45032.875	4.552506E-10	2.196592E+9	8.839015	0.198896	0	0
0	0	0	-0.091115	6.014718	-9.929265	6.014718	45030.875	-8.396472E-9	-1.190976E+8	8.724213	0.198129	0	0
0	0	0	-0.091074	6.014692	-9.929176	6.014692	45031.875	8.304387E-10	1.204183E+9	8.737708	0.196886	0	0
0	0	0	-0.089931	6.014612	-9.927763	6.014612	45059.75	1.933931E-10	5.170815E+9	8.63252	0.196357	0	0
0	0	0	-0.089523	6.014672	-9.927402	6.014672	45069.75	4.556234E-10	2.194795E+9	8.582621	0.19526	0	0
0	0	0	-0.087481	6.014804	-9.925329	6.014804	45119.5	-2.266975E-10	-4.411164E+9	8.571033	0.194268	0	0
0	0	0	-0.087971	6.014818	-9.9259	6.014818	45107.5	-1.971272E-10	-5.072867E+9	8.412568	0.193792	0	0
0	0	0	-0.087236	6.014771	-9.925	6.014771	45125.375	-3.623293E-10	-2.75992E+9	8.409847	0.192721	0	0
0	0	0	-0.085153	6.014811	-9.922728	6.014811	45176.25	-2.111761E-10	-4.735385E+9	8.332373	0.192034	0	0
0	0	0	-0.08548	6.014652	-9.922835	6.014652	45168.25	3.145178E-10	3.179471E+9	8.274056	0.191016	0	0
0	0	0	-0.08499	6.014831	-9.922578	6.014831	45180.25	-1.74698E-10	-5.724165E+9	8.261523	0.190156	0	0
0	0	0	-0.084377	6.014705	-9.921684	6.014705	45195.25	1.849856E-9	5.405827E+8	8.127121	0.189535	0	0
0	0	0	-0.08401	6.014705	-9.921272	6.014705	45204.25	1.850224E-9	5.40475E+8	8.148277	0.188318	0	0
0	0	0	-0.083111	6.0145	-9.919928	6.0145	45226.125	9.300968E-11	1.075157E+10	8.027124	0.187869	0	0
0	0	0	-0.083642	6.014606	-9.920697	6.014606	45213.125	1.823896E-10	5.482768E+9	7.997422	0.186719	0	0
0	0	0	-0.084255	6.014606	-9.921384	6.014606	45198.25	1.823296E-10	5.484572E+9	7.957309	0.185991	0	0
0	0	0	-0.083356	6.014798	-9.920691	6.014798	45220.125	-2.455852E-10	-4.071906E+9	7.830097	0.185251	0	0
0	0	0	-0.083275	6.014791	-9.920588	6.014791	45222.125	-2.672155E-10	-3.742298E+9	7.847891	0.184206	0	0
0	0	0	-0.083315	6.014771	-9.920602	6.014771	45221.125	-3.630981E-10	-2.754076E+9	7.690423	0.183876	0	0
0	0	0	-0.082376	6.014659	-9.919364	6.014659	45244.125	3.515098E-10	2.844871E+9	7.694536	0.182541	0	0
0	0	0	-0.082172	6.014884	-9.919503	6.014884	45249.125	-1.197705E-10	-8.349301E+9	7.592292	0.18217	0	0
0	0	0	-0.082172	6.014632	-9.919091	6.014632	45249.125	2.40299E-10	4.161481E+9	7.539309	0.181245	0	0
0	0	0	-0.082254	6.014652	-9.919216	6.014652	45247.125	3.15067E-10	3.173928E+9	7.492636	0.180557	0	0
0	0	0	-0.081478	6.014692	-9.91841	6.014692	45266.125	8.347585E-10	1.197951E+9	7.398402	0.179605	0	0
0	0	0	-0.082049	6.014665	-9.919008	6.014665	45252.125	3.975892E-10	2.515159E+9	7.414857	0.178733	0	0
0	0	0	-0.08209	6.014785	-9.919249	6.014785	45251.125	-2.931964E-10	-3.410684E+9	7.27474	0.178283	0	0
0	0	0	-0.08209	6.014553	-9.91887	6.014553	45251.125	1.232757E-10	8.111896E+9	7.297448	0.177146	0	0
0	0	0	-0.082539	6.014758	-9.91971	6.014758	45240.125	-4.774805E-10	-2.094326E+9	7.16207	0.176723	0	0
0	0	0	-0.083193	6.014857	-9.920605	6.014857	45224.125	-1.421209E-10	-7.036264E+9	7.131195	0.175612	0	0
0	0	0	-0.083356	6.014645	-9.920442	6.014645	45220.125	2.852851E-10	3.505266E+9	7.028564	0.175163	0	0
0	0	0	-0.084214	6.014751	-9.921577	6.014751	45199.25	-5.660508E-10	-1.766626E+9	6.961232	0.174184	0	0
0	0	0	-0.08499	6.014679	-9.922328	6.014679	45180.25	5.377228E-10	1.859694E+9	6.903008	0.173669	0	0
0	0	0	-0.084908	6.014665	-9.922215	6.014665	45182.25	3.969753E-10	2.519049E+9	6.813713	0.172796	0	0
0	0	0	-0.085602	6.014765	-9.923156	6.014765	45165.375	-4.119237E-10	-2.427634E+9	6.785997	0.172016	0	0
0	0	0	-0.086378	6.014698	-9.923918	6.014698	45146.375	1.14791E-9	8.711483E+8	6.662864	0.171434	0	0
0	0	0	-0.087317	6.014785	-9.925113	6.014785	45123.5	-2.923694E-10	-3.42033E+9	6.662864	0.17039	0	0
0	0	0	-0.087522	6.014665	-9.925147	6.014665	45118.5	3.964151E-10	2.522608E+9	6.510433	0.169967	0	0
0	0	0	-0.08793	6.014778	-9.925789	6.014778	45108.5	-3.234979E-10	-3.09121E+9	6.542443	0.169002	0	0
0	0	0	-0.088093	6.014725	-9.925886	6.014725	45104.5	-2.226229E-9	-4.4919E+8	6.3993	0.168592	0	0
0	0	0	-0.088175	6.014579	-9.925739	6.014579	45102.5	1.46683E-10	6.817421E+9	6.415811	0.16756	0	0
0	0	0	-0.088869	6.014751	-9.9268	6.014751	45085.625	-5.646278E-10	-1.771078E+9	6.281311	0.167071	0	0
0	0	0	-0.089196	6.014652	-9.927003	6.014652	45077.625	3.138867E-10	3.185863E+9	6.285064	0.16604	0	0
0	0	0	-0.091319	6.014771	-9.929581	6.014771	45025.875	-3.615304E-10	-2.766019E+9	6.151289	0.165696	0	0
0	0	0	-0.092463	6.014652	-9.930668	6.014652	44998.125	3.133331E-10	3.191491E+9	6.157997	0.164519	0	0
0	0	0	-0.093239	6.014625	-9.931495	6.014625	44979.25	2.213537E-10	4.517657E+9	6.020783	0.164295	0	0
0	0	0	-0.091932	6.014732	-9.930203	6.014732	45011	-1.280252E-9	-7.81096E+8	6.016903	0.163211	0	0
0	0	0	-0.093239	6.014778	-9.931745	6.014778	44979.25	-3.22571E-10	-3.100093E+9	5.896466	0.162854	0	0
0	0	0	-0.09332	6.014758	-9.931804	6.014758	44977.25	-4.74706E-10	-2.106567E+9	5.880444	0.161716	0	0
0	0	0	-0.09377	6.014891	-9.932524	6.014891	44966.375	-1.145068E-10	-8.733103E+9	5.757335	0.161492	0	0
0	0	0	-0.093565	6.014824	-9.932187	6.014824	44971.25	-1.845188E-10	-5.419502E+9	5.752326	0.160421	0	0
0	0	0	-0.092381	6.014745	-9.930728	6.014745	45000.125	-6.928132E-10	-1.44339E+9	5.620072	0.160024	0	0
0	0	0	-0.090258	6.014659	-9.928205	6.014659	45051.75	3.500152E-10	2.857019E+9	5.610997	0.159032	0	0
0	0	0	-0.088828	6.014619	-9.926537	6.014619	45086.625	2.067262E-10	4.837315E+9	5.47267	0.158649	0	0
0	0	0	-0.087971	6.014785	-9.925846	6.014785	45107.5	-2.922658E-10	-3.421543E+9	5.453089	0.157776	0	0
0	0	0	-0.087522	6.014718	-9.925234	6.014718	45118.5	-8.41281E-9	-1.188663E+8	5.363946	0.157195	0	0
0	0	0	-0.088093	6.014579	-9.925647	6.014579	45104.5	1.466895E-10	6.817119E+9	5.351233	0.156348	0	0
0	0	0	-0.086623	6.014751	-9.92428	6.014751	45140.375	-5.653134E-10	-1.76893E+9	5.241751	0.155701	0	0
0	0	0	-0.086868	6.014526	-9.924186	6.014526	45134.375	1.057848E-10	9.453152E+9	5.199016	0.155145	0	0
0	0	0	-0.085602	6.014546	-9.922799	6.014546	45165.375	1.182433E-10	8.457139E+9	5.12555	0.154392	0	0
0	0	0	-0.084826	6.014665	-9.922123	6.014665	45184.25	3.969928E-10	2.518937E+9	5.049715	0.153836	0	0
0	0	0	-0.084336	6.014765	-9.921736	6.014765	45196.25	-4.122053E-10	-2.425976E+9	5.044715	0.152937	0	0
0	0	0	-0.084704	6.014897	-9.922365	6.014897	45187.25	-1.108635E-10	-9.020098E+9	4.943962	0.152646	0	0
0	0	0	-0.084418	6.014698	-9.921719	6.014698	45194.25	1.149127E-9	8.702255E+8	4.927935	0.151721	0	0
0	0	0	-0.084622	6.014685	-9.921927	6.014685	45189.25	6.537416E-10	1.529656E+9	4.795628	0.151364	0	0
0	0	0	-0.083969	6.014745	-9.921291	6.014745	45205.25	-6.959713E-10	-1.436841E+9	4.758173	0.150544	0	0
0	0	0	-0.083315	6.014685	-9.920461	6.014685	45221.125	6.542027E-10	1.528578E+9	4.672743	0.14987	0	0
0	0	0	-0.08307	6.014738	-9.920273	6.014738	45227.125	-9.035426E-10	-1.106755E+9	4.581334	0.14942	0	0
0	0	0	-0.082784	6.014732	-9.919941	6.014732	45234.125	-1.286599E-9	-7.772431E+8	4.509063	0.148574	0	0
0	0	0	-0.082417	6.014572	-9.919269	6.014572	45243.125	1.403409E-10	7.125506E+9	4.378425	0.148125	0	0
0	0	0	-0.082172	6.014751	-9.919287	6.014751	45249.125	-5.666754E-10	-1.764679E+9	4.336494	0.147384	0	0
0	0	0	-0.082703	6.014745	-9.919871	6.014745	45236.125	-6.964466E-10	-1.43586E+9	4.23705	0.146829	0	0
0	0	0	-0.08401	6.014632	-9.921153	6.014632	45204.25	2.400607E-10	4.165612E+9	4.155681	0.146274	0	0
0	0	0	-0.083193	6.014751	-9.920432	6.014751	45224.125	-5.663623E-10	-1.765654E+9	4.127966	0.145441	0	0
0	0	0	-0.082621	6.014718	-9.919736	6.014718	45238.125	-8.435116E-9	-1.18552E+8	4.040479	0.144951	0	0
0	0	0	-0.083846	6.014864	-9.921349	6.014864	45208.125	-1.357168E-10	-7.368284E+9	4.008814	0.144356	0	0
0	0	0	-0.083887	6.014765	-9.921232	6.014765	45207.25	-4.123056E-10	-2.425386E+9	3.926215	0.143775	0	0
0	0	0	-0.084785	6.014758	-9.922229	6.014758	45185.25	-4.769013E-10	-2.09687E+9	3.849542	0.143153	0	0
0	0	0	-0.084867	6.014824	-9.922429	6.014824	45183.25	-1.853886E-10	-5.394074E+9	3.77479	0.142558	0	0
0	0	0	-0.086827	6.014844	-9.924661	6.014844	45135.375	-1.564951E-10	-6.389978E+9	3.680748	0.141858	0	0
0	0	0	-0.086623	6.014679	-9.924161	6.014679	45140.375	5.372482E-10	1.861337E+9	3.590548	0.141461	0	0
0	0	0	-0.087236	6.014652	-9.924804	6.014652	45125.375	3.142192E-10	3.182492E+9	3.537125	0.140734	0	0
0	0	0	-0.088093	6.014698	-9.925842	6.014698	45104.5	1.146845E-9	8.719571E+8	3.467171	0.140099	0	0
0	0	0	-0.08793	6.014652	-9.925583	6.014652	45108.5	3.141017E-10	3.183682E+9	3.36546	0.139663	0	0
0	0	0	-0.088257	6.014599	-9.925863	6.014599	45100.5	1.716215E-10	5.826775E+9	3.301758	0.138883	0	0
0	0	0	-0.089645	6.014679	-9.927551	6.014679	45066.75	5.36372E-10	1.864378E+9	3.197201	0.138394	0	0
0	0	0	-0.0894	6.014619	-9.927178	6.014619	45072.625	2.06662E-10	4.838818E+9	3.130996	0.137851	0	0
0	0	0	-0.090135	6.0145	-9.927808	6.0145	45054.75	9.265724E-11	1.079246E+10	3.06237	0.137362	0	0
0	0	0	-0.090503	6.014599	-9.928383	6.014599	45045.875	1.714136E-10	5.833841E+9	2.994835	0.136582	0	0
0	0	0	-0.092789	6.014732	-9.931165	6.014732	44990.125	-1.279659E-9	-7.814584E+8	2.93165	0.136159	0	0
0	0	0	-0.092749	6.014745	-9.931141	6.014745	44991.125	-6.926747E-10	-1.443679E+9	2.890136	0.135577	0	0
0	0	0	-0.093361	6.014632	-9.931644	6.014632	44976.25	2.388499E-10	4.186729E+9	2.825774	0.134916	0	0
0	0	0	-0.095771	6.014705	-9.934466	6.014705	44917.75	1.838498E-9	5.439224E+8	2.802763	0.13444	0	0
0	0	0	-0.095811	6.014725	-9.934544	6.014725	44916.75	-2.216963E-9	-4.510676E+8	2.771383	0.133806	0	0
0	0	0	-0.095566	6.014632	-9.934117	6.014632	44922.75	2.385658E-10	4.191715E+9	2.763656	0.133224	0	0
0	0	0	-0.095485	6.014685	-9.934112	6.014685	44924.625	6.499133E-10	1.538667E+9	2.736282	0.13284	0	0
0	0	0	-0.0943	6.014606	-9.932654	6.014606	44953.5	1.813423E-10	5.514433E+9	2.719953	0.132364	0	0
0	0	0	-0.094341	6.014804	-9.933025	6.014804	44952.5	-2.258584E-10	-4.427552E+9	2.669165	0.131571	0	0
0	0	0	-0.092136	6.014672	-9.930334	6.014672	45006	4.549789E-10	2.197904E+9	2.653555	0.13095	0	0
0	0	0	-0.090176	6.014751	-9.928265	6.014751	45053.75	-5.642286E-10	-1.772331E+9	2.627281	0.130487	0	0
0	0	0	-0.090503	6.014804	-9.928719	6.014804	45045.875	-2.263276E-10	-4.418374E+9	2.620205	0.129694	0	0
0	0	0	-0.089441	6.014672	-9.927311	6.014672	45071.625	4.556423E-10	2.194704E+9	2.603097	0.129138	0	0
0	0	0	-0.089359	6.014493	-9.926926	6.014493	45073.625	8.994053E-11	1.111846E+10	2.577208	0.128795	0	0
0	0	0	-0.087889	6.014599	-9.925451	6.014599	45109.5	1.716558E-10	5.825613E+9	2.584314	0.128239	0	0
0	0	0	-0.087277	6.014659	-9.924861	6.014659	45124.5	3.505804E-10	2.852413E+9	2.551766	0.127644	0	0
0	0	0	-0.085357	6.014685	-9.922751	6.014685	45171.25	6.534812E-10	1.530266E+9	2.51727	0.127036	0	0
0	0	0	-0.085929	6.014559	-9.923187	6.014559	45157.25	1.282239E-10	7.798859E+9	2.501453	0.126653	0	0
0	0	0	-0.085235	6.014665	-9.922581	6.014665	45174.25	3.96905E-10	2.519495E+9	2.472382	0.126124	0	0
0	0	0	-0.085112	6.014672	-9.922455	6.014672	45177.25	4.567101E-10	2.189573E+9	2.443703	0.125383	0	0
0	0	0	-0.084622	6.014844	-9.922187	6.014844	45189.25	-1.566819E-10	-6.38236E+9	2.41089	0.12504	0	0
0	0	0	-0.084867	6.014732	-9.922278	6.014732	45183.25	-1.285152E-9	-7.781182E+8	2.385978	0.124683	0	0
0	0	0	-0.084581	6.014679	-9.92187	6.014679	45190.25	5.378418E-10	1.859283E+9	2.378788	0.124114	0	0
0	0	0	-0.084091	6.014738	-9.921418	6.014738	45202.25	-9.030457E-10	-1.107364E+9	2.360489	0.1234	0	0
0	0	0	-0.083152	6.014685	-9.920278	6.014685	45225.125	6.542606E-10	1.528443E+9	2.339643	0.123017	0	0
0	0	0	-0.082662	6.014559	-9.919522	6.014559	45237.125	1.284507E-10	7.785088E+9	2.311735	0.12258	0	0
0	0	0	-0.08307	6.014572	-9.920002	6.014572	45227.125	1.402913E-10	7.128027E+9	2.26784	0.122118	0	0
0	0	0	-0.08307	6.014751	-9.920294	6.014751	45227.125	-5.663999E-10	-1.765537E+9	0	0	0	0
0	0	0	-0.082825	6.014831	-9.92015	6.014831	45233.125	-1.749024E-10	-5.717474E+9	0	0	0	0
0	0	0	-0.082744	6.014824	-9.920047	6.014824	45235.125	-1.856015E-10	-5.387888E+9	0	0	0	0
0	0	0	-0.083438	6.014692	-9.920609	6.014692	45218.125	8.338734E-10	1.199223E+9	0	0	0	0
0	0	0	-0.083397	6.014698	-9.920574	6.014698	45219.125	1.14976E-9	8.697468E+8	0	0	0	0
0	0	0	-0.083846	6.014765	-9.921186	6.014765	45208.125	-4.123136E-10	-2.425339E+9	0	0	0	0
0	0	0	-0.085276	6.014751	-9.922768	6.014751	45173.25	-5.657252E-10	-1.767643E+9	0	0	0	0
0	0	0	-0.086582	6.014665	-9.924093	6.014665	45141.375	3.966161E-10	2.52133E+9	0	0	0	0
0	0	0	-0.086827	6.014738	-9.924487	6.014738	45135.375	-9.017097E-10	-1.109004E+9	0	0	0	0
0	0	0	-0.086582	6.014712	-9.924169	6.014712	45141.375	4.734605E-9	2.112109E+8	0	0	0	0
0	0	0	-0.087277	6.014798	-9.925089	6.014798	45124.5	-2.450659E-10	-4.080535E+9	0	0	0	0
0	0	0	-0.086868	6.014751	-9.924555	6.014751	45134.375	-5.652383E-10	-1.769165E+9	0	0	0	0
0	0	0	-0.08842	6.014632	-9.9261	6.014632	45096.625	2.394892E-10	4.175554E+9	0	0	0	0
0	0	0	-0.08842	6.014705	-9.92622	6.014705	45096.625	1.845819E-9	5.417649E+8	0	0	0	0
0	0	0	-0.089686	6.014645	-9.927542	6.014645	45065.75	2.843112E-10	3.517273E+9	0	0	0	0
0	0	0	-0.09038	6.014665	-9.928354	6.014665	45048.75	3.958023E-10	2.526514E+9	0	0	0	0
0	0	0	-0.089849	6.014844	-9.928051	6.014844	45061.75	-1.562398E-10	-6.400418E+9	0	0	0	0
0	0	0	-0.090217	6.014831	-9.928441	6.014831	45052.75	-1.74205E-10	-5.740365E+9	0	0	0	0
0	0	0	-0.090421	6.014725	-9.928497	6.014725	45047.875	-2.223435E-9	-4.497546E+8	0	0	0	0
0	0	0	-0.092299	6.014619	-9.930431	6.014619	45002.125	2.063388E-10	4.846398E+9	0	0	0	0
0	0	0	-0.093239	6.014771	-9.931734	6.014771	44979.25	-3.61156E-10	-2.768886E+9	0	0	0	0
0	0	0	-0.095566	0	-0.095566	0	44922.75	0	0	0	0	0	0
0	0	0	-0.096301	0	-0.096301	0	44904.875	0	0	0	0	0	0
