Vload_(V)	ILoad_(A)	RsLoad (ohm)	SunsVoc_Voltage_(V)	SunsVoc_Current_(A)	Model_Voltage_(V)	Model_Current_(A)	Carrier_Density_(cm-3)	Lifetime_(s)	Inverse_Lifetime_(s-1)	Efficiency_(%)	Intensity_(suns)	Dark_IV_Voltage_(V)	Dark_IV_Current_(A)
3.47508	6.365362	0	64.879938	-1.120129	65.228201	-1.120129	3.716777E+15	0.000208	4774.722173	19.517961	1.177032	0	0
3.466977	6.369283	-0.554733	65.278625	-1.091817	65.595287	-1.091817	4.084428E+15	0.00023	4321.59716	19.579412	1.176252	0	0
5.14058	6.365023	0.845274	65.289202	-1.156606	65.624014	-1.156606	4.094603E+15	0.000229	4348.344858	19.568426	1.175486	0	0
8.180241	6.3559	5.80096	65.182904	-0.778969	65.412736	-0.778969	3.993354E+15	0.000235	4235.385441	19.515627	1.17456	0	0
11.386102	6.344538	5.991617	65.02793	-0.340098	65.131035	-0.340098	3.849696E+15	0.000241	4124.722102	19.508121	1.171308	0	0
14.088063	6.345846	5.535081	64.861684	0.101581	64.830004	0.101581	3.700664E+15	0.000248	4009.373127	19.531789	1.1675	0	0
16.907318	6.343314	5.148142	64.686699	0.519484	64.519927	0.519484	3.54929E+15	0.000255	3902.676355	19.520941	1.164617	0	0
19.723984	6.336838	4.850198	64.516656	0.906708	64.217495	0.906708	3.407408E+15	0.000262	3796.974695	19.47889	1.162356	0	0
22.529274	6.330344	4.510846	64.345591	1.265443	63.916732	1.265443	3.26969E+15	0.000269	3697.877957	19.475776	1.159355	0	0
25.541797	6.329786	4.042777	64.177099	1.596902	63.621816	1.596902	3.1388E+15	0.000276	3602.654106	19.51518	1.155494	0	0
29.109556	6.22325	4.164851	64.007873	1.899965	63.330366	1.899965	3.011936E+15	0.000283	3516.686741	19.528743	1.151369	0	0
32.051535	6.225826	3.682826	63.84228	2.182188	63.04521	2.182188	2.892112E+15	0.00029	3431.724638	19.494019	1.147575	0	0
34.944626	6.221472	3.233644	63.677872	2.448489	62.762448	2.448489	2.777232E+15	0.000298	3346.911634	19.465569	1.143238	0	0
37.840885	6.221397	2.768381	63.515751	2.690759	62.486901	2.690759	2.667813E+15	0.000305	3269.366885	19.484952	1.138862	0	0
40.169636	6.311201	1.932901	63.354814	2.91898	62.214095	2.91898	2.562869E+15	0.000312	3192.504337	19.515424	1.135186	0	0
43.090064	6.298229	1.57031	63.192407	3.129788	61.942683	3.129788	2.460564E+15	0.000319	3122.455672	19.495444	1.13159	0	0
45.941457	6.278333	1.236022	63.038208	3.322298	61.684783	3.322298	2.366672E+15	0.000326	3053.710199	19.46707	1.127174	0	0
46.86264	6.269179	1.134252	62.879721	3.504078	61.423156	3.504078	2.273363E+15	0.000334	2989.666849	19.490612	1.122057	0	0
47.79583	6.262207	1.017099	62.730627	3.671345	61.175864	3.671345	2.188452E+15	0.000341	2924.553248	19.518899	1.117191	0	0
48.717464	6.24071	0.955143	62.576713	3.831294	60.923329	3.831294	2.103628E+15	0.000348	2862.275567	19.504071	1.112815	0	0
49.651395	6.212417	0.897144	62.426394	3.977727	60.678499	3.977727	2.023481E+15	0.000356	2804.093321	19.461435	1.108822	0	0
50.57951	6.177321	0.841455	62.27681	4.111518	60.437912	4.111518	1.946297E+15	0.000363	2752.318626	19.473875	1.104393	0	0
51.521171	6.133221	0.785203	62.130778	4.238197	60.202807	4.238197	1.87335E+15	0.00037	2699.113081	19.517532	1.100003	0	0
52.453736	6.072755	0.740522	61.980989	4.357108	59.964742	4.357108	1.800925E+15	0.000376	2651.045216	19.510853	1.096103	0	0
53.385097	5.996239	0.697095	61.837489	4.467645	59.736513	4.467645	1.733756E+15	0.000384	2602.476391	19.477883	1.091555	0	0
54.296731	5.895853	0.661679	61.690764	4.570987	59.506061	4.570987	1.667257E+15	0.00039	2559.194683	19.48477	1.086358	0	0
55.22611	5.763746	0.628263	61.546365	4.669222	59.279399	4.669222	1.603907E+15	0.000397	2514.901169	19.519991	1.081242	0	0
56.127056	5.60211	0.594824	61.400946	4.761892	59.052718	4.761892	1.54215E+15	0.000404	2472.956484	19.516297	1.076667	0	0
57.032091	5.388485	0.568851	61.261979	4.848716	58.835644	4.848716	1.484998E+15	0.000411	2429.29235	19.484356	1.071881	0	0
57.918956	5.129305	0.544264	61.112885	4.929506	58.607628	4.929506	1.425651E+15	0.000417	2395.863014	19.485945	1.066552	0	0
58.810881	4.797256	0.523824	60.975347	5.00364	58.39637	5.00364	1.372665E+15	0.000423	2360.065848	19.522711	1.060933	0	0
59.661008	4.410831	0.50498	60.835972	5.074443	58.183458	5.074443	1.32065E+15	0.000429	2325.661073	19.523871	1.055539	0	0
60.511714	3.944728	0.488196	60.702559	5.140398	57.979649	5.140398	1.272402E+15	0.000436	2290.682023	19.487946	1.050092	0	0
61.337562	3.406143	0.470268	60.562939	5.203168	57.76873	5.203168	1.223484E+15	0.000442	2260.363156	19.479167	1.0443	0	0
62.11661	2.807832	0.461507	60.426218	5.261668	57.562915	5.261668	1.177103E+15	0.000448	2231.320535	19.523527	1.038351	0	0
62.854503	2.17132	0.45162	60.293295	5.316386	57.363203	5.316386	1.133417E+15	0.000454	2202.575094	19.539338	1.032705	0	0
63.541753	1.509783	0.461215	60.162658	5.367796	57.167505	5.367796	1.0918E+15	0.000459	2174.598647	19.505812	1.027205	0	0
64.133195	0.888969	0.465023	60.036269	5.416572	56.978043	5.416572	1.052748E+15	0.000466	2145.105239	19.483913	1.021493	0	0
53.602336	5.976101	0.686652	59.905225	5.462213	56.783739	5.462213	1.013487E+15	0.000471	2121.131244	19.524751	1.015451	0	0
64.938896	0	0	59.780183	5.506491	56.59733	5.506491	9.771641E+14	0.000478	2092.217023	19.548344	1.009713	0	0
0	0	0	59.651221	5.54775	56.407048	5.54775	9.408394E+14	0.000483	2068.706005	19.504381	1.00412	0	0
0	0	0	59.530263	5.586272	56.228172	5.586272	9.077942E+14	0.000489	2043.077851	19.482722	0.998368	0	0
0	0	0	59.402485	5.623397	56.040816	5.623397	8.739381E+14	0.000494	2021.184147	19.5373	0.992657	0	0
0	0	0	59.273278	5.658164	55.852534	5.658164	8.407766E+14	0.000499	2002.539472	19.563739	0.987117	0	0
0	0	0	59.154852	5.690451	55.679292	5.690451	8.113076E+14	0.000505	1980.600576	19.525525	0.98196	0	0
0	0	0	59.030587	5.721298	55.498949	5.721298	7.81315E+14	0.000509	1962.70078	19.500431	0.976249	0	0
0	0	0	58.912569	5.749804	55.327793	5.749804	7.536916E+14	0.000514	1944.643808	19.532537	0.970286	0	0
0	0	0	58.794306	5.777167	55.156687	5.777167	7.26833E+14	0.000519	1926.923992	19.548855	0.964971	0	0
0	0	0	58.673266	5.803657	54.982175	5.803657	7.001766E+14	0.000523	1910.25517	19.512373	0.960105	0	0
0	0	0	58.556882	5.828416	54.814515	5.828416	6.753219E+14	0.000528	1893.309772	19.499636	0.95524	0	0
0	0	0	58.438048	5.852296	54.643923	5.852296	6.507113E+14	0.000532	1877.577526	19.541231	0.949964	0	0
0	0	0	58.319458	5.87494	54.474162	5.87494	6.269065E+14	0.000537	1862.906022	19.561293	0.944834	0	0
0	0	0	58.201808	5.896652	54.305965	5.896652	6.040184E+14	0.000541	1847.93533	19.518586	0.940445	0	0
0	0	0	58.084035	5.917334	54.138028	5.917334	5.81816E+14	0.000545	1833.844241	19.500543	0.935751	0	0
0	0	0	57.971163	5.936468	53.9773	5.936468	5.61188E+14	0.000549	1820.087656	19.539205	0.930766	0	0
0	0	0	57.852533	5.955153	53.809097	5.955153	5.401783E+14	0.000553	1808.535166	19.559462	0.92602	0	0
0	0	0	57.742846	5.972	53.653663	5.972	5.213498E+14	0.000556	1796.925708	19.525411	0.9213	0	0
0	0	0	57.628176	5.988462	53.491755	5.988462	5.022654E+14	0.000559	1787.172709	19.503852	0.916222	0	0
0	0	0	57.515427	6.004212	53.332669	6.004212	4.84084E+14	0.000563	1776.835061	19.538879	0.910788	0	0
0	0	0	57.407496	6.019034	53.180387	6.019034	4.672092E+14	0.000566	1765.479628	19.558586	0.905447	0	0
0	0	0	57.291765	6.033025	53.018262	6.033025	4.496768E+14	0.000568	1760.238324	19.51128	0.900528	0	0
0	0	0	57.186243	6.046864	52.869517	6.046864	4.341861E+14	0.000572	1747.143315	19.494991	0.895266	0	0
0	0	0	57.072921	6.059544	52.711178	6.059544	4.180639E+14	0.000574	1742.303631	19.53677	0.889898	0	0
0	0	0	56.964786	6.071992	52.559693	6.071992	4.031635E+14	0.000577	1733.177082	19.55619	0.884742	0	0
0	0	0	56.85171	6.083869	52.401968	6.083869	3.880758E+14	0.000579	1727.685264	19.51262	0.880233	0	0
0	0	0	56.744881	6.095062	52.252849	6.095062	3.742739E+14	0.000581	1720.177519	19.503197	0.875328	0	0
0	0	0	56.63646	6.106134	52.101594	6.106134	3.607045E+14	0.000584	1711.795364	19.551948	0.870317	0	0
0	0	0	56.529631	6.115889	51.9533	6.115889	3.47756E+14	0.000585	1708.728429	19.559369	0.865636	0	0
0	0	0	56.421578	6.125966	51.803037	6.125966	3.350741E+14	0.000588	1701.780165	19.510941	0.861234	0	0
0	0	0	56.315607	6.135587	51.655758	6.135587	3.230322E+14	0.00059	1694.291054	19.495353	0.856514	0	0
0	0	0	56.211596	6.14434	51.511628	6.14434	3.115845E+14	0.000592	1689.64321	19.547297	0.851503	0	0
0	0	0	56.099622	6.153275	51.356732	6.153275	2.996615E+14	0.000593	1685.858447	19.544836	0.846915	0	0
0	0	0	56.001328	6.161951	51.220027	6.161951	2.895292E+14	0.000598	1673.481146	19.495239	0.842644	0	0
0	0	0	55.891601	6.16912	51.069282	6.16912	2.78578E+14	0.000596	1677.987018	19.492332	0.837831	0	0
0	0	0	55.788815	6.177038	50.927053	6.177038	2.68655E+14	0.000599	1669.763738	19.545349	0.832966	0	0
0	0	0	55.689378	6.18385	50.790048	6.18385	2.593562E+14	0.0006	1667.077337	19.549204	0.828338	0	0
0	0	0	55.583652	6.190759	50.644567	6.190759	2.497857E+14	0.000601	1665.076412	19.493453	0.824054	0	0
0	0	0	55.484337	6.197072	50.50798	6.197072	2.410849E+14	0.000601	1662.792944	19.493678	0.819348	0	0
0	0	0	55.382205	6.203812	50.36725	6.203812	2.324219E+14	0.000604	1655.701626	19.53671	0.814627	0	0
0	0	0	55.277541	6.209234	50.224164	6.209234	2.23836E+14	0.000602	1661.516738	19.527773	0.810515	0	0
0	0	0	55.176919	6.215944	50.085323	6.215944	2.158527E+14	0.000606	1648.926145	19.482687	0.806179	0	0
0	0	0	55.076502	6.220519	49.948442	6.220519	2.081433E+14	0.000603	1657.650669	19.491948	0.801578	0	0
0	0	0	54.97535	6.22664	49.809255	6.22664	2.006309E+14	0.000607	1647.048416	19.538624	0.79691	0	0
0	0	0	54.874361	6.231324	49.67142	6.231324	1.933774E+14	0.000606	1651.131203	19.515106	0.792732	0	0
0	0	0	54.772515	6.236002	49.532404	6.236002	1.863053E+14	0.000605	1654.007299	19.467335	0.788634	0	0
0	0	0	54.672751	6.241949	49.395026	6.241949	1.796077E+14	0.000611	1636.808552	19.483721	0.783993	0	0
0	0	0	54.569802	6.245423	49.255465	6.245423	1.729282E+14	0.000605	1652.185606	19.51704	0.779736	0	0
0	0	0	54.470365	6.249707	49.119833	6.249707	1.666939E+14	0.000605	1652.761578	19.492723	0.775756	0	0
0	0	0	54.369784	6.255168	48.981625	6.255168	1.605989E+14	0.000612	1634.485248	19.453182	0.771604	0	0
0	0	0	54.269898	6.258429	48.846188	6.258429	1.547502E+14	0.000607	1646.070199	19.490053	0.767096	0	0
0	0	0	54.174994	6.261351	48.717627	6.261351	1.493762E+14	0.000603	1658.681693	19.517082	0.762957	0	0
0	0	0	54.075148	6.265877	48.58107	6.265877	1.439095E+14	0.000607	1646.78255	19.472689	0.759083	0	0
0	0	0	53.976365	6.269878	48.446339	6.269878	1.386843E+14	0.00061	1640.10448	19.437448	0.754998	0	0
0	0	0	53.883216	6.272126	48.320607	6.272126	1.339195E+14	0.000603	1658.474258	19.478524	0.750476	0	0
0	0	0	53.783779	6.274974	48.185964	6.274974	1.290018E+14	0.000599	1669.106781	19.494438	0.746496	0	0
0	0	0	53.686261	6.278812	48.052952	6.278812	1.243433E+14	0.000603	1658.109228	19.448834	0.742715	0	0
0	0	0	53.590908	6.282595	47.922829	6.282595	1.199409E+14	0.000608	1643.85089	19.434695	0.738497	0	0
0	0	0	53.493758	6.285024	47.791506	6.285024	1.156062E+14	0.000604	1655.431342	19.472843	0.734081	0	0
0	0	0	53.39673	6.286981	47.660753	6.286981	1.114244E+14	0.000597	1675.719301	19.465	0.730366	0	0
0	0	0	53.30252	6.289861	47.532879	6.289861	1.075006E+14	0.000598	1673.064429	19.422447	0.726571	0	0
0	0	0	53.206595	6.293156	47.402314	6.293156	1.036395E+14	0.000603	1659.677021	19.431639	0.722354	0	0
0	0	0	53.107362	6.296002	47.267733	6.296002	9.978348E+13	0.000604	1655.853167	19.471488	0.718123	0	0
0	0	0	53.010824	6.298022	47.137477	6.298022	9.616282E+13	0.000599	1668.161897	19.447154	0.714513	0	0
0	0	0	52.914001	6.299386	47.007436	6.299386	9.265682E+13	0.00059	1696.21895	19.403031	0.710719	0	0
0	0	0	52.816279	6.301277	46.87569	6.301277	8.924163E+13	0.000585	1710.668398	19.42582	0.706448	0	0
0	0	0	52.717903	6.303536	46.742705	6.303536	8.592479E+13	0.000583	1714.056998	19.448803	0.702455	0	0
0	0	0	52.621937	6.306422	46.612305	6.306422	8.280263E+13	0.00059	1695.658313	19.411662	0.698991	0	0
0	0	0	52.522378	6.308922	46.477465	6.308922	7.967813E+13	0.000593	1687.416312	19.387624	0.694919	0	0
0	0	0	52.424615	6.310551	46.345829	6.310551	7.671991E+13	0.000588	1701.909995	19.420102	0.690979	0	0
0	0	0	52.327506	6.312175	46.21505	6.312175	7.388573E+13	0.000583	1714.827694	19.421533	0.687158	0	0
0	0	0	52.227333	6.313534	46.080438	6.313534	7.106747E+13	0.000576	1737.296593	19.366108	0.683614	0	0
0	0	0	52.12855	6.315058	45.947496	6.315058	6.838952E+13	0.000571	1752.208015	19.376205	0.67982	0	0
0	0	0	52.030909	6.316754	45.815892	6.316754	6.583806E+13	0.000569	1758.755327	19.425325	0.675985	0	0
0	0	0	51.930778	6.319208	45.680206	6.319208	6.331679E+13	0.000576	1736.483841	19.410413	0.672534	0	0
0	0	0	51.833914	6.320977	45.549523	6.320977	6.09665E+13	0.000577	1734.311098	19.343849	0.669097	0	0
0	0	0	51.731414	6.322724	45.411342	6.322724	5.857123E+13	0.000577	1734.145965	19.3542	0.665408	0	0
0	0	0	51.619767	6.324035	45.261404	6.324035	5.606571E+13	0.000569	1755.967536	19.412846	0.661587	0	0
0	0	0	51.520615	6.325142	45.128293	6.325142	5.392782E+13	0.000563	1776.67844	19.374926	0.658453	0	0
0	0	0	51.415747	6.325989	44.987823	6.325989	5.175264E+13	0.000552	1812.373087	19.316244	0.655055	0	0
0	0	0	51.317045	6.326879	44.855508	6.326879	4.978325E+13	0.000543	1841.446217	19.33902	0.651274	0	0
0	0	0	51.216873	6.328	44.720991	6.328	4.7859E+13	0.000538	1859.708849	19.376422	0.647731	0	0
0	0	0	51.104327	6.32953	44.569564	6.32953	4.578327E+13	0.000536	1864.413787	19.336032	0.64465	0	0
0	0	0	51.004237	6.330728	44.435049	6.330728	4.401105E+13	0.000533	1874.662914	19.298347	0.641292	0	0
0	0	0	50.896387	6.332476	44.289615	6.332476	4.217625E+13	0.000538	1857.46117	19.351069	0.637471	0	0
0	0	0	50.793683	6.334038	44.151209	6.334038	4.049844E+13	0.000543	1842.552228	19.354532	0.634218	0	0
0	0	0	50.691143	6.335253	44.01337	6.335253	3.888834E+13	0.000542	1844.411846	19.295722	0.631204	0	0
0	0	0	50.581537	6.336367	43.866215	6.336367	3.723646E+13	0.000539	1854.984192	19.296588	0.6277	0	0
0	0	0	50.47528	6.337147	43.723863	6.337147	3.570064E+13	0.000531	1882.715942	19.342495	0.624064	0	0
0	0	0	50.365675	6.338246	43.576701	6.338246	3.418139E+13	0.000529	1889.795046	19.311408	0.621142	0	0
0	0	0	50.257581	6.338587	43.432355	6.338587	3.274518E+13	0.000513	1947.891189	19.263227	0.618008	0	0
0	0	0	50.145402	6.339259	43.282208	6.339259	3.131729E+13	0.000504	1985.56457	19.299674	0.614386	0	0
0	0	0	50.037186	6.339935	43.137325	6.339935	2.999778E+13	0.000495	2019.255253	19.321424	0.611094	0	0
0	0	0	49.916473	6.340405	42.976013	6.340405	2.859026E+13	0.000481	2079.455923	19.264413	0.608251	0	0
0	0	0	49.803845	6.341236	42.825069	6.341236	2.733565E+13	0.000476	2102.493537	19.239702	0.604932	0	0
0	0	0	49.687461	6.342283	42.668872	6.342283	2.609609E+13	0.000475	2106.84141	19.298093	0.601336	0	0
0	0	0	49.568218	6.342994	42.509228	6.342994	2.488347E+13	0.000467	2141.428769	19.283492	0.598361	0	0
0	0	0	49.451916	6.34414	42.353004	6.34414	2.375426E+13	0.00047	2128.228195	19.211243	0.595439	0	0
0	0	0	49.328058	6.34491	42.187125	6.34491	2.260721E+13	0.000464	2155.100753	19.21672	0.592001	0	0
0	0	0	49.207059	6.34613	42.024535	6.34613	2.153944E+13	0.00047	2127.028629	19.266227	0.588643	0	0
0	0	0	49.080752	6.346864	41.855408	6.346864	2.04779E+13	0.000465	2151.853431	19.232938	0.585734	0	0
0	0	0	48.954567	6.348006	41.685969	6.348006	1.946901E+13	0.000471	2123.67506	19.168786	0.582746	0	0
0	0	0	48.821399	6.348304	41.508182	6.348304	1.845753E+13	0.000454	2201.582235	19.213491	0.579177	0	0
0	0	0	48.686597	6.349579	41.327081	6.349579	1.748657E+13	0.000465	2150.095123	19.230156	0.576228	0	0
0	0	0	48.552326	6.349912	41.147768	6.349912	1.65697E+13	0.00045	2221.275804	19.181317	0.573425	0	0
0	0	0	48.411236	6.350429	40.959147	6.350429	1.565751E+13	0.00044	2272.038023	19.157841	0.570278	0	0
0	0	0	48.266879	6.351128	40.765949	6.351128	1.477567E+13	0.000436	2294.899105	19.208576	0.566933	0	0
0	0	0	48.115579	6.351227	40.564203	6.351227	1.390422E+13	0.000413	2421.749279	19.173881	0.564289	0	0
0	0	0	47.962728	6.351629	40.360024	6.351629	1.307558E+13	0.0004	2501.972331	19.120748	0.561433	0	0
0	0	0	47.801096	6.351949	40.144237	6.351949	1.22526E+13	0.000383	2607.859422	19.146455	0.558154	0	0
0	0	0	47.630563	6.352147	39.916729	6.352147	1.143998E+13	0.000363	2751.969332	19.172788	0.555206	0	0
0	0	0	47.45031	6.352511	39.67606	6.352511	1.063917E+13	0.000348	2877.626855	19.112083	0.552641	0	0
0	0	0	47.262135	6.352847	39.424861	6.352847	9.862533E+12	0.000331	3023.015103	19.089513	0.549692	0	0
0	0	0	47.066773	6.353002	39.164301	6.353002	9.11582E+12	0.00031	3230.006675	19.145791	0.546506	0	0
0	0	0	46.859731	6.353223	38.88809	6.353223	8.385752E+12	0.00029	3448.385342	19.127834	0.543888	0	0
0	0	0	46.637254	6.353775	38.590883	6.353775	7.665978E+12	0.000278	3600.755836	19.052296	0.541323	0	0
0	0	0	46.397992	6.353966	38.271755	6.353966	6.960398E+12	0.000256	3900.477209	19.062421	0.538348	0	0
0	0	0	46.148685	6.354429	37.938881	6.354429	6.293916E+12	0.000242	4138.349814	19.118253	0.535307	0	0
0	0	0	45.878142	6.354816	37.577791	6.354816	5.642411E+12	0.000225	4452.663661	19.065378	0.532821	0	0
0	0	0	45.592286	6.355152	37.196347	6.355152	5.026923E+12	0.000207	4838.63962	19.017171	0.530032	0	0
0	0	0	45.284623	6.355604	36.785672	6.355604	4.439075E+12	0.000191	5236.658432	19.062847	0.527017	0	0
0	0	0	44.954337	6.355995	36.34491	6.355995	3.884097E+12	0.000174	5745.123924	19.068916	0.524214	0	0
0	0	0	44.603469	6.35648	35.876571	6.35648	3.370175E+12	0.000159	6278.26076	18.997828	0.521927	0	0
0	0	0	44.232142	6.35693	35.380993	6.35693	2.900016E+12	0.000144	6926.636548	19.006656	0.518939	0	0
0	0	0	43.846114	6.35738	34.865801	6.35738	2.480537E+12	0.00013	7666.181778	19.040725	0.516004	0	0
0	0	0	43.444363	6.357658	34.32988	6.357658	2.108189E+12	0.000115	8705.764115	18.990432	0.51365	0	0
0	0	0	43.023869	6.35816	33.768634	6.35816	1.778121E+12	0.000104	9648.725767	18.960625	0.510834	0	0
0	0	0	42.584549	6.358541	33.182451	6.358541	1.488289E+12	9.159178E-5	10918.010138	19.003144	0.507846	0	0
0	0	0	42.112723	6.359033	32.552751	6.359033	1.229366E+12	8.153943E-5	12264.005648	18.99531	0.505373	0	0
0	0	0	41.625543	6.35947	31.902642	6.35947	1.009161E+12	7.189255E-5	13909.647489	18.922452	0.50298	0	0
0	0	0	41.126152	6.359872	31.236287	6.359872	8.242902E+11	6.302676E-5	15866.276133	18.932236	0.500045	0	0
0	0	0	40.603117	6.360249	30.53843	6.360249	6.668512E+11	5.475001E-5	18264.838252	18.977471	0.497348	0	0
0	0	0	40.06097	6.360461	29.815341	6.360461	5.353101E+11	4.584294E-5	21813.607342	18.925042	0.494994	0	0
0	0	0	39.495384	6.360781	29.060812	6.360781	4.25646E+11	3.899701E-5	25642.98893	18.87732	0.492376	0	0
0	0	0	38.904846	6.360964	28.273228	6.360964	3.350372E+11	3.197831E-5	31271.192039	18.921047	0.489454	0	0
0	0	0	38.282904	6.361503	27.443162	6.361503	2.603776E+11	2.832203E-5	35308.202957	18.906268	0.487194	0	0
0	0	0	37.625354	6.361682	26.566211	6.361682	1.994529E+11	2.274837E-5	43959.189625	18.841269	0.484814	0	0
0	0	0	36.941137	6.361886	25.653652	6.361886	1.511396E+11	1.82493E-5	54796.635428	18.860289	0.481997	0	0
0	0	0	36.228048	6.362501	24.70184	6.362501	1.131957E+11	1.66065E-5	60217.386261	18.898152	0.479459	0	0
0	0	0	35.479432	6.362329	23.704073	6.362329	8.356476E+10	1.156261E-5	86485.628812	18.837626	0.477317	0	0
0	0	0	34.706436	6.362645	22.67289	6.362645	6.108322E+10	9.436428E-6	105972.297944	18.80144	0.474884	0	0
0	0	0	33.906611	6.362848	21.606132	6.362848	4.416671E+10	7.372974E-6	135630.478383	18.865798	0.472042	0	0
0	0	0	33.075994	6.363231	20.497946	6.363231	3.153882E+10	6.212719E-6	160960.118354	18.842504	0.469913	0	0
0	0	0	32.212668	6.363277	19.346797	6.363277	2.222467E+10	4.474085E-6	223509.378703	18.762754	0.467678	0	0
0	0	0	31.34342	6.363511	18.18736	6.363511	1.562362E+10	3.54297E-6	282249.08951	18.791671	0.464928	0	0
0	0	0	30.456082	6.363387	17.004539	6.363387	1.090291E+10	2.316889E-6	431613.339224	18.824387	0.462443	0	0
0	0	0	29.552573	6.363634	15.799366	6.363634	7.558843E+9	1.835683E-6	544756.378285	18.754066	0.460526	0	0
0	0	0	28.625051	6.363712	14.562528	6.363712	5.189672E+9	1.320026E-6	757560.714931	18.72392	0.458093	0	0
0	0	0	27.681195	6.363832	13.303808	6.363832	3.539551E+9	9.708783E-7	1029995.164426	18.766788	0.455435	0	0
0	0	0	26.72178	6.36398	12.024268	6.36398	2.398925E+9	7.283503E-7	1372965.67874	18.741332	0.45332	0	0
0	0	0	25.743989	6.364226	10.719979	6.364226	1.613799E+9	5.959328E-7	1678041.662308	18.677893	0.45127	0	0
0	0	0	24.762645	6.364156	9.41169	6.364156	1.084068E+9	3.771333E-7	2651582.397221	18.721129	0.448692	0	0
0	0	0	23.772521	6.364366	8.09101	6.364366	7.256342E+8	3.058041E-7	3270067.660123	18.728318	0.446537	0	0
0	0	0	22.768186	6.364402	6.751801	6.364402	4.829216E+8	2.109692E-7	4740028.603904	18.644509	0.444607	0	0
0	0	0	21.791783	6.364374	5.449995	6.364374	3.250526E+8	1.379847E-7	7247180.434331	18.653052	0.442028	0	0
0	0	0	20.831837	6.364402	4.169987	6.364402	2.202564E+8	9.623345E-8	1.03914E+7	18.704565	0.439556	0	0
0	0	0	19.890554	6.364619	2.914354	6.364619	1.503797E+8	8.492315E-8	1.177535E+7	18.635128	0.437969	0	0
0	0	0	18.961603	6.364507	1.67604	6.364507	1.031862E+8	5.063016E-8	1.975107E+7	18.591047	0.435709	0	0
0	0	0	18.05838	6.364584	0.471516	6.364584	7.154575E+7	3.858523E-8	2.591665E+7	18.642618	0.433196	0	0
0	0	0	17.179576	6.364563	-0.700179	6.364563	5.010095E+7	2.630902E-8	3.800978E+7	18.627642	0.431187	0	0
0	0	0	16.325642	6.364886	-1.839693	6.364886	3.543946E+7	3.120266E-8	3.204855E+7	18.556882	0.429309	0	0
0	0	0	15.502295	6.36497	-2.937761	6.36497	2.53813E+7	2.713742E-8	3.684949E+7	18.578262	0.426876	0	0
0	0	0	14.704022	6.3649	-4.00195	6.3649	1.83635E+7	1.665846E-8	6.002955E+7	18.601367	0.424629	0	0
0	0	0	13.926248	6.364823	-5.038778	6.364823	1.339697E+7	1.041653E-8	9.600128E+7	18.515719	0.422765	0	0
0	0	0	13.171138	6.364928	-6.045931	6.364928	9863898	9.525585E-9	1.049804E+8	18.515183	0.420477	0	0
0	0	0	12.453844	6.364731	-7.00175	6.364731	7374775.75	4.905679E-9	2.038454E+8	18.574738	0.418163	0	0
0	0	0	11.764767	6.364801	-7.920753	6.364801	5577218.375	4.173811E-9	2.395892E+8	18.511429	0.416471	0	0
0	0	0	11.108074	6.365012	-8.797022	6.365012	4273546.875	5.117862E-9	1.953941E+8	18.443169	0.414316	0	0
0	0	0	10.482703	6.365019	-9.630898	6.365019	3316456.875	4.052773E-9	2.467446E+8	18.491221	0.411883	0	0
0	0	0	9.885427	6.365075	-10.427469	6.365075	2603198.375	3.802175E-9	2.630073E+8	18.484436	0.410032	0	0
0	0	0	9.317308	6.365229	-11.185482	6.365229	2067636.125	6.520398E-9	1.533649E+8	18.421574	0.408221	0	0
0	0	0	8.777081	6.364991	-11.905038	6.364991	1660932.625	1.876452E-9	5.329207E+8	18.447774	0.405656	0	0
0	0	0	8.267726	6.365089	-12.58452	6.365089	1351032.75	2.074538E-9	4.82035E+8	18.463702	0.403672	0	0
0	0	0	7.781566	6.365124	-13.23287	6.365124	1109338.125	1.95406E-9	5.117549E+8	18.379464	0.40198	0	0
0	0	0	7.320113	6.365026	-13.847836	6.365026	920051.5	1.147756E-9	8.712655E+8	18.372904	0.399891	0	0
0	0	0	6.885122	6.365166	-14.428312	6.365166	771293.75	1.649945E-9	6.060806E+8	18.437432	0.397577	0	0
0	0	0	6.477532	6.365152	-14.971738	6.365152	653811	1.305324E-9	7.660936E+8	18.367849	0.396083	0	0
0	0	0	6.093627	6.365257	-15.483986	6.365257	559570.75	2.23584E-9	4.472593E+8	18.323482	0.393941	0	0
0	0	0	5.731978	6.365299	-15.966347	6.365299	483255.375	3.221051E-9	3.104576E+8	18.365593	0.391733	0	0
0	0	0	5.394586	6.365229	-16.415981	6.365229	421472.625	1.32914E-9	7.523661E+8	18.33996	0.390094	0	0
0	0	0	5.074223	6.365152	-16.842883	6.365152	370135.375	7.389697E-10	1.353235E+9	18.280769	0.388256	0	0
0	0	0	4.755167	6.365243	-17.268622	6.365243	325223.375	1.146415E-9	8.722848E+8	18.321941	0.385929	0	0
0	0	0	4.466493	6.365243	-17.653536	6.365243	289302.875	1.019795E-9	9.805896E+8	18.318079	0.384065	0	0
0	0	0	4.191989	6.365264	-18.019628	6.365264	258832.375	1.108177E-9	9.02383E+8	18.228957	0.382531	0	0
0	0	0	3.923611	6.36525	-18.377431	6.36525	232147.125	8.695293E-10	1.150047E+9	18.25071	0.380323	0	0
0	0	0	3.674181	6.365447	-18.710708	6.365447	209818.625	-1.04481E-9	-9.571115E+8	18.306461	0.3783	0	0
0	0	0	3.436472	6.365152	-19.02663	6.365152	190541.125	3.804126E-10	2.628725E+9	18.233979	0.376872	0	0
0	0	0	3.208277	6.365299	-19.331422	6.365299	173703.5	1.15779E-9	8.637143E+8	18.188161	0.37477	0	0
0	0	0	2.991353	6.365419	-19.621089	6.365419	159079.125	-1.187235E-9	-8.422931E+8	18.235587	0.372747	0	0
0	0	0	2.778635	6.365271	-19.904201	6.365271	145934.5	6.729472E-10	1.486001E+9	18.183844	0.3712	0	0
0	0	0	2.580578	6.365257	-20.168238	6.365257	134674.25	5.381093E-10	1.858359E+9	18.131654	0.369402	0	0
0	0	0	2.389707	6.365384	-20.423195	6.365384	124645.5	-2.470402E-9	-4.047924E+8	18.191432	0.367128	0	0
0	0	0	2.202921	6.365313	-20.672003	6.365313	115554.625	9.908995E-10	1.009184E+9	18.174985	0.365488	0	0
0	0	0	2.019156	6.365356	-20.917184	6.365356	107258.25	6.550913E-9	1.526505E+8	18.062621	0.364008	0	0
0	0	0	1.835637	6.365236	-21.161457	6.365236	99567.375	3.314554E-10	3.016997E+9	18.125942	0.361681	0	0
0	0	0	1.655261	6.36537	-21.402449	6.36537	92545.875	-5.430692E-9	-1.841386E+8	18.125467	0.359935	0	0
0	0	0	1.474804	6.365327	-21.642916	6.365327	86016.625	1.033834E-9	9.672734E+8	18.032153	0.358534	0	0
0	0	0	1.293898	6.365229	-21.883777	6.365229	79933.5	2.520754E-10	3.967068E+9	18.055687	0.356365	0	0
0	0	0	1.106458	6.365398	-22.134321	6.365398	74084	-8.833211E-10	-1.132091E+9	18.08097	0.354488	0	0
0	0	0	0.911668	6.365587	-22.394747	6.365587	68458.375	-1.279685E-10	-7.814423E+9	17.979639	0.353007	0	0
0	0	0	0.707526	6.365405	-22.666281	6.365405	63020.5	-6.265896E-10	-1.595941E+9	17.960969	0.351077	0	0
0	0	0	0.4661	6.365391	-22.988146	6.365391	57144.125	-8.508312E-10	-1.175321E+9	18.024275	0.349054	0	0
0	0	0	0.240314	6.365531	-23.289725	6.365531	52145.375	-1.299393E-10	-7.6959E+9	17.934601	0.347824	0	0
0	0	0	0.090934	6.365271	-23.487948	6.365271	49081	2.263271E-10	4.418384E+9	17.910876	0.345934	0	0
0	0	0	0.009465	6.365342	-23.596837	6.365342	47486.25	9.537826E-10	1.048457E+9	17.969513	0.34395	0	0
0	0	0	-0.034924	6.36537	-23.65613	6.36537	46639.375	-2.736846E-9	-3.653841E+8	17.924785	0.342483	0	0
0	0	0	-0.061141	6.365496	-23.691556	6.365496	46146.25	-1.452191E-10	-6.886147E+9	17.873761	0.340909	0	0
0	0	0	-0.090054	6.365447	-23.729926	6.365447	45608.5	-2.271115E-10	-4.403124E+9	17.936704	0.338913	0	0
0	0	0	-0.101855	6.365306	-23.745141	6.365306	45390.75	3.40457E-10	2.937229E+9	17.894281	0.337538	0	0
0	0	0	-0.105367	6.365313	-23.74985	6.365313	45326.125	3.886789E-10	2.572818E+9	17.799324	0.33611	0	0
0	0	0	-0.106511	6.365468	-23.751948	6.365468	45305.125	-1.805407E-10	-5.538916E+9	17.857061	0.334047	0	0
0	0	0	-0.107695	6.365377	-23.753188	6.365377	45283.375	-1.341792E-9	-7.45272E+8	17.85127	0.332567	0	0
0	0	0	-0.109206	6.36544	-23.755437	6.36544	45255.625	-2.458039E-10	-4.068284E+9	17.766068	0.331218	0	0
0	0	0	-0.109492	6.365313	-23.755349	6.365313	45250.375	3.880293E-10	2.577125E+9	17.803098	0.329354	0	0
0	0	0	-0.11137	6.365327	-23.757906	6.365327	45216	5.434513E-10	1.840091E+9	17.792607	0.327913	0	0
0	0	0	-0.111248	6.365475	-23.75829	6.365475	45218.25	-1.689464E-10	-5.919036E+9	17.69998	0.326656	0	0
0	0	0	-0.111125	6.365405	-23.757866	6.365405	45220.5	-4.496107E-10	-2.224146E+9	17.727426	0.324713	0	0
0	0	0	-0.111738	6.365496	-23.759022	6.365496	45209.25	-1.422704E-10	-7.028868E+9	17.756439	0.323179	0	0
0	0	0	-0.111411	6.365398	-23.758221	6.365398	45215.25	-5.39112E-10	-1.854902E+9	17.660929	0.321936	0	0
0	0	0	-0.11186	6.365531	-23.759315	6.365531	45207	-1.126498E-10	-8.877067E+9	17.665273	0.320204	0	0
0	0	0	-0.111738	6.365285	-23.75824	6.365285	45209.25	2.464466E-10	4.057675E+9	17.705299	0.318459	0	0
0	0	0	-0.111411	6.365285	-23.757804	6.365285	45215.25	2.464793E-10	4.057136E+9	17.601064	0.317454	0	0
0	0	0	-0.11137	6.365503	-23.758558	6.365503	45216	-1.351842E-10	-7.397315E+9	17.594735	0.315749	0	0
0	0	0	-0.110717	6.365426	-23.7574	6.365426	45228	-3.001226E-10	-3.331972E+9	17.647242	0.31399	0	0
0	0	0	-0.110023	6.365327	-23.756109	6.365327	45240.75	5.437487E-10	1.839085E+9	17.567827	0.312787	0	0
0	0	0	-0.109655	6.365573	-23.756531	6.365573	45247.5	-9.021561E-11	-1.108456E+10	17.523648	0.311412	0	0
0	0	0	-0.110594	6.365594	-23.757862	6.365594	45230.25	-8.198789E-11	-1.219692E+10	17.59962	0.309415	0	0
0	0	0	-0.110023	6.365412	-23.756422	6.365412	45240.75	-3.857363E-10	-2.592445E+9	17.511598	0.30853	0	0
0	0	0	-0.110309	6.365524	-23.75722	6.365524	45235.5	-1.176175E-10	-8.502138E+9	17.474037	0.30689	0	0
0	0	0	-0.109573	6.365489	-23.75611	6.365489	45248.875	-1.502972E-10	-6.653485E+9	17.548932	0.305079	0	0
0	0	0	-0.11039	6.365335	-23.756625	6.365335	45233.875	6.802656E-10	1.470014E+9	17.464255	0.304166	0	0
0	0	0	-0.110064	6.365342	-23.756216	6.365342	45239.875	9.086632E-10	1.100518E+9	17.423941	0.30258	0	0
0	0	0	-0.109328	6.365552	-23.756017	6.365552	45253.375	-1.002452E-10	-9.975544E+9	17.484986	0.300795	0	0
0	0	0	-0.108798	6.365243	-23.754163	6.365243	45263.125	1.595529E-10	6.267515E+9	17.410323	0.29983	0	0
0	0	0	-0.109451	6.365545	-23.756155	6.365545	45251.125	-1.040926E-10	-9.60683E+9	17.341498	0.298336	0	0
0	0	0	-0.108593	6.365447	-23.754646	6.365447	45266.875	-2.254103E-10	-4.436354E+9	17.412997	0.296471	0	0
0	0	0	-0.108389	6.365222	-23.753541	6.365222	45270.625	1.356185E-10	7.373628E+9	17.364384	0.295586	0	0
0	0	0	-0.109165	6.365482	-23.755539	6.365482	45256.375	-1.591542E-10	-6.283216E+9	17.286612	0.294171	0	0
0	0	0	-0.108838	6.36532	-23.754504	6.36532	45262.375	4.530373E-10	2.207324E+9	17.358558	0.292307	0	0
0	0	0	-0.108716	6.365503	-23.755018	6.365503	45264.625	-1.353296E-10	-7.389369E+9	17.291824	0.291381	0	0
0	0	0	-0.109206	6.365503	-23.755672	6.365503	45255.625	-1.353026E-10	-7.390838E+9	17.242191	0.289927	0	0
0	0	0	-0.109533	6.365454	-23.755925	6.365454	45249.75	-2.08019E-10	-4.807253E+9	17.306406	0.288142	0	0
0	0	0	-0.109941	6.365496	-23.756626	6.365496	45242.125	-1.423739E-10	-7.023761E+9	17.248583	0.287071	0	0
0	0	0	-0.110799	6.365313	-23.757092	6.365313	45226.5	3.878246E-10	2.578485E+9	17.167805	0.285762	0	0
0	0	0	-0.110758	6.365482	-23.757663	6.365482	45227.25	-1.590517E-10	-6.287262E+9	17.2323	0.284096	0	0
0	0	0	-0.111248	6.365447	-23.758186	6.365447	45218.25	-2.251682E-10	-4.441124E+9	17.190794	0.282959	0	0
0	0	0	-0.111493	6.365622	-23.759164	6.365622	45213.75	-7.310245E-11	-1.367943E+10	17.12083	0.281822	0	0
0	0	0	-0.111289	6.365363	-23.757928	6.365363	45217.5	-1.353239E-7	-7389679.79805	17.204687	0.279971	0	0
0	0	0	-0.112473	6.365391	-23.759611	6.365391	45195.75	-6.729292E-10	-1.486041E+9	17.12835	0.278979	0	0
0	0	0	-0.112473	6.365447	-23.759819	6.365447	45195.75	-2.250562E-10	-4.443335E+9	17.039288	0.27775	0	0
0	0	0	-0.113698	6.365475	-23.761557	6.365475	45173.375	-1.687788E-10	-5.924916E+9	17.112566	0.275965	0	0
0	0	0	-0.112963	6.365398	-23.76029	6.365398	45186.75	-5.387722E-10	-1.856072E+9	17.028357	0.275119	0	0
0	0	0	-0.114147	6.365377	-23.761791	6.365377	45165.125	-1.338288E-9	-7.472232E+8	16.995094	0.27373	0	0
0	0	0	-0.114147	6.365447	-23.762052	6.365447	45165.125	-2.249037E-10	-4.446348E+9	17.076664	0.272078	0	0
0	0	0	-0.114025	6.365384	-23.761654	6.365384	45167.375	-8.95191E-10	-1.11708E+9	16.981547	0.271178	0	0
0	0	0	-0.114106	6.365398	-23.761815	6.365398	45165.875	-5.385233E-10	-1.85693E+9	16.921738	0.269949	0	0
0	0	0	-0.113984	6.365327	-23.761391	6.365327	45168.125	5.428758E-10	1.842042E+9	16.998985	0.268336	0	0
0	0	0	-0.115781	6.365349	-23.763865	6.365349	45135.25	1.364421E-9	7.329115E+8	16.904445	0.267424	0	0
0	0	0	-0.11721	6.365398	-23.765953	6.365398	45109	-5.378452E-10	-1.859271E+9	16.879076	0.266048	0	0
0	0	0	-0.117863	6.365559	-23.767424	6.365559	45097.125	-9.633376E-11	-1.038058E+10	16.950356	0.264488	0	0
0	0	0	-0.117128	6.365433	-23.765975	6.365433	45110.5	-2.694683E-10	-3.711011E+9	16.853172	0.263655	0	0
0	0	0	-0.117904	6.365356	-23.766723	6.365356	45096.375	2.754313E-9	3.630669E+8	16.820771	0.262227	0	0
0	0	0	-0.116557	6.365433	-23.765212	6.365433	45121	-2.69531E-10	-3.710148E+9	16.880155	0.260866	0	0
0	0	0	-0.116271	6.365342	-23.764492	6.365342	45126.25	9.06381E-10	1.103289E+9	16.768714	0.260046	0	0
0	0	0	-0.115903	6.36551	-23.764628	6.36551	45133	-1.285166E-10	-7.781095E+9	16.769653	0.258578	0	0
0	0	0	-0.115821	6.365292	-23.763711	6.365292	45134.375	2.706915E-10	3.694242E+9	16.825268	0.257216	0	0
0	0	0	-0.115168	6.365349	-23.763048	6.365349	45146.375	1.364758E-9	7.327309E+8	16.703471	0.256542	0	0
0	0	0	-0.114637	6.365405	-23.762549	6.365405	45156.125	-4.489707E-10	-2.227317E+9	16.700048	0.254876	0	0
0	0	0	-0.112555	6.365391	-23.75972	6.365391	45194.25	-6.729068E-10	-1.48609E+9	16.717928	0.253739	0	0
0	0	0	-0.113535	6.365489	-23.761391	6.365489	45176.25	-1.500559E-10	-6.664181E+9	16.587647	0.252946	0	0
0	0	0	-0.113861	6.365517	-23.761931	6.365517	45170.375	-1.227819E-10	-8.144526E+9	16.644565	0.251214	0	0
0	0	0	-0.113208	6.36551	-23.761034	6.36551	45182.25	-1.286569E-10	-7.772613E+9	16.653128	0.250222	0	0
0	0	0	-0.112269	6.365229	-23.758739	6.365229	45199.5	1.425395E-10	7.015599E+9	16.549216	0.249376	0	0
0	0	0	-0.111942	6.36551	-23.759346	6.36551	45205.5	-1.287231E-10	-7.768616E+9	16.604083	0.247803	0	0
0	0	0	-0.111493	6.365426	-23.758434	6.365426	45213.75	-3.00028E-10	-3.333022E+9	16.596306	0.246732	0	0
0	0	0	-0.111738	6.365327	-23.758396	6.365327	45209.25	5.433701E-10	1.840366E+9	16.470219	0.24574	0	0
0	0	0	-0.111084	6.365384	-23.757734	6.365384	45221.25	-8.962588E-10	-1.115749E+9	16.542954	0.244259	0	0
0	0	0	-0.111615	6.365377	-23.758415	6.365377	45211.5	-1.339662E-9	-7.464568E+8	16.490772	0.243492	0	0
0	0	0	-0.111493	6.36544	-23.758486	6.36544	45213.75	-2.455765E-10	-4.072052E+9	16.426559	0.242369	0	0
0	0	0	-0.110962	6.365391	-23.757596	6.365391	45223.5	-6.733423E-10	-1.485129E+9	16.509224	0.240808	0	0
0	0	0	-0.110758	6.365419	-23.757428	6.365419	45227.25	-3.375387E-10	-2.962623E+9	16.422159	0.240174	0	0
0	0	0	-0.110104	6.365433	-23.756609	6.365433	45239.25	-2.702374E-10	-3.70045E+9	16.367611	0.239076	0	0
0	0	0	-0.109737	6.365419	-23.756067	6.365419	45245.875	-3.376777E-10	-2.961403E+9	16.42752	0.237741	0	0
0	0	0	-0.109859	6.365643	-23.757064	6.365643	45243.75	-6.766737E-11	-1.477817E+10	16.300182	0.237199	0	0
0	0	0	-0.109533	6.365433	-23.755847	6.365433	45249.75	-2.703001E-10	-3.699591E+9	16.292497	0.235784	0	0
0	0	0	-0.109941	6.365454	-23.756469	6.365454	45242.125	-2.079839E-10	-4.808063E+9	16.34326	0.234607	0	0
0	0	0	-0.110962	6.365384	-23.75757	6.365384	45223.5	-8.963034E-10	-1.115694E+9	16.22246	0.233986	0	0
0	0	0	-0.110962	6.365489	-23.757961	6.365489	45223.5	-1.502129E-10	-6.657219E+9	16.259058	0.232532	0	0
0	0	0	-0.110962	6.36544	-23.757779	6.36544	45223.5	-2.456294E-10	-4.071174E+9	16.263654	0.231527	0	0
0	0	0	-0.11186	6.365335	-23.758586	6.365335	45207	6.798614E-10	1.470888E+9	16.129288	0.230919	0	0
0	0	0	-0.111697	6.36551	-23.759019	6.36551	45210	-1.287359E-10	-7.767842E+9	16.21813	0.229358	0	0
0	0	0	-0.112105	6.365377	-23.759069	6.365377	45202.5	-1.339396E-9	-7.466054E+8	16.153041	0.228605	0	0
0	0	0	-0.113249	6.365363	-23.760541	6.365363	45181.625	-1.352165E-7	-7395547.485097	16.090277	0.227693	0	0
0	0	0	-0.113698	6.365405	-23.761297	6.365405	45173.375	-4.491422E-10	-2.226466E+9	16.180536	0.226198	0	0
0	0	0	-0.114719	6.365292	-23.762241	6.365292	45154.625	2.70813E-10	3.692585E+9	16.082733	0.225564	0	0
0	0	0	-0.113657	6.365419	-23.761294	6.365419	45174	-3.371413E-10	-2.966115E+9	16.023507	0.224493	0	0
0	0	0	-0.114882	6.36544	-23.763006	6.36544	45151.625	-2.45239E-10	-4.077654E+9	16.064216	0.223303	0	0
0	0	0	-0.114066	6.365447	-23.761943	6.365447	45166.625	-2.249111E-10	-4.4462E+9	15.937929	0.222655	0	0
0	0	0	-0.115291	6.365426	-23.763498	6.365426	45144.125	-2.99566E-10	-3.338163E+9	15.992798	0.221161	0	0
0	0	0	-0.11427	6.365285	-23.761616	6.365285	45162.875	2.461938E-10	4.061841E+9	16.012223	0.220236	0	0
0	0	0	-0.114474	6.36532	-23.762018	6.36532	45159.125	4.520038E-10	2.212371E+9	15.873235	0.219641	0	0
0	0	0	-0.115821	6.365496	-23.764467	6.365496	45134.375	-1.420348E-10	-7.040529E+9	15.953956	0.218199	0	0
0	0	0	-0.117251	6.365426	-23.766112	6.365426	45108.375	-2.993288E-10	-3.340808E+9	15.892427	0.217525	0	0
0	0	0	-0.117332	6.365454	-23.766325	6.365454	45106.75	-2.073616E-10	-4.822493E+9	15.800196	0.216613	0	0
0	0	0	-0.118558	6.365384	-23.767698	6.365384	45084.375	-8.93546E-10	-1.119137E+9	15.898913	0.215106	0	0
0	0	0	-0.119088	6.365384	-23.768406	6.365384	45074.75	-8.933552E-10	-1.119376E+9	15.770049	0.214735	0	0
0	0	0	-0.119456	6.36537	-23.768844	6.36537	45068	-2.644636E-9	-3.781239E+8	15.762348	0.213545	0	0
0	0	0	-0.119538	6.36544	-23.769213	6.36544	45066.5	-2.447767E-10	-4.085357E+9	15.820718	0.212448	0	0
0	0	0	-0.119048	6.365538	-23.768925	6.365538	45075.5	-1.078328E-10	-9.273613E+9	15.686641	0.211893	0	0
0	0	0	-0.118803	6.365349	-23.767895	6.365349	45079.875	1.362747E-9	7.338118E+8	15.728703	0.210531	0	0
0	0	0	-0.11917	6.365433	-23.768697	6.365433	45073.25	-2.692458E-10	-3.714078E+9	15.706035	0.209724	0	0
0	0	0	-0.118027	6.365292	-23.766651	6.365292	45094.125	2.704501E-10	3.697539E+9	15.603309	0.208905	0	0
0	0	0	-0.116189	6.365377	-23.764514	6.365377	45127.75	-1.337181E-9	-7.478421E+8	15.677208	0.207649	0	0
0	0	0	-0.115903	6.365608	-23.764993	6.365608	45133	-7.713933E-11	-1.296356E+10	15.574205	0.207067	0	0
0	0	0	-0.114188	6.36551	-23.762341	6.36551	45164.375	-1.28606E-10	-7.775689E+9	15.556572	0.205996	0	0
0	0	0	-0.114311	6.365524	-23.762556	6.365524	45162.125	-1.174267E-10	-8.515951E+9	15.628583	0.204938	0	0
0	0	0	-0.11525	6.365391	-23.763314	6.365391	45144.875	-6.721717E-10	-1.487715E+9	15.494283	0.204449	0	0
0	0	0	-0.114351	6.365461	-23.762376	6.365461	45161.375	-1.928044E-10	-5.186604E+9	15.550398	0.203047	0	0
0	0	0	-0.11333	6.365447	-23.760963	6.365447	45180	-2.249777E-10	-4.444884E+9	15.504301	0.202519	0	0
0	0	0	-0.113494	6.365496	-23.761363	6.365496	45177.125	-1.421693E-10	-7.033867E+9	15.38392	0.20158	0	0
0	0	0	-0.11231	6.365398	-23.759419	6.365398	45198.75	-5.389153E-10	-1.855579E+9	15.458833	0.20039	0	0
0	0	0	-0.111493	6.36544	-23.758486	6.36544	45213.75	-2.455765E-10	-4.072052E+9	15.343036	0.19998	0	0
0	0	0	-0.112473	6.365475	-23.759924	6.365475	45195.75	-1.688624E-10	-5.921982E+9	15.369535	0.198658	0	0
0	0	0	-0.111901	6.365349	-23.758692	6.365349	45206.25	1.366568E-9	7.317604E+8	15.417268	0.197759	0	0
0	0	0	-0.112555	6.365447	-23.759928	6.365447	45194.25	-2.250487E-10	-4.443483E+9	15.267206	0.197336	0	0
0	0	0	-0.111493	6.365271	-23.757861	6.365271	45213.75	2.08494E-10	4.7963E+9	15.351405	0.195987	0	0
0	0	0	-0.112065	6.365405	-23.759118	6.365405	45203.25	-4.494392E-10	-2.224995E+9	15.272038	0.195471	0	0
0	0	0	-0.110431	6.365531	-23.757409	6.365531	45233.25	-1.127152E-10	-8.871916E+9	15.182846	0.194599	0	0
0	0	0	-0.110758	6.365391	-23.757324	6.365391	45227.25	-6.733982E-10	-1.485006E+9	15.261245	0.193501	0	0
0	0	0	-0.110023	6.36551	-23.756787	6.36551	45240.75	-1.288234E-10	-7.762563E+9	15.114371	0.193065	0	0
0	0	0	-0.110227	6.365489	-23.756981	6.365489	45237	-1.502577E-10	-6.655232E+9	15.161209	0.191835	0	0
0	0	0	-0.110594	6.365496	-23.757497	6.365496	45230.25	-1.423365E-10	-7.025605E+9	15.163452	0.191108	0	0
0	0	0	-0.110431	6.365285	-23.756498	6.365285	45233.25	2.465774E-10	4.055522E+9	15.076358	0.19046	0	0
0	0	0	-0.111452	6.365391	-23.75825	6.365391	45214.5	-6.732083E-10	-1.485424E+9	15.165215	0.189151	0	0
0	0	0	-0.111738	6.36551	-23.759074	6.36551	45209.25	-1.287337E-10	-7.767971E+9	15.008796	0.18894	0	0
0	0	0	-0.111125	6.365517	-23.758283	6.365517	45220.5	-1.229181E-10	-8.135498E+9	14.9972	0.187856	0	0
0	0	0	-0.112595	6.365482	-23.760113	6.365482	45193.5	-1.589331E-10	-6.291958E+9	15.017131	0.186957	0	0
0	0	0	-0.11329	6.36551	-23.761143	6.36551	45180.75	-1.286526E-10	-7.772871E+9	14.870558	0.186428	0	0
0	0	0	-0.114474	6.365412	-23.762357	6.365412	45159.125	-3.850403E-10	-2.597131E+9	14.972003	0.185026	0	0
0	0	0	-0.114882	6.365377	-23.762771	6.365377	45151.625	-1.337888E-9	-7.474466E+8	14.879643	0.184722	0	0
0	0	0	-0.114923	6.365496	-23.763269	6.365496	45150.875	-1.420867E-10	-7.037956E+9	14.860391	0.18377	0	0
0	0	0	-0.115372	6.365412	-23.763555	6.365412	45142.625	-3.848996E-10	-2.59808E+9	14.925333	0.182805	0	0
0	0	0	-0.115495	6.365412	-23.763718	6.365412	45140.375	-3.848804E-10	-2.598209E+9	14.783673	0.182382	0	0
0	0	0	-0.115781	6.365517	-23.76449	6.365517	45135.25	-1.226864E-10	-8.150864E+9	14.865267	0.181166	0	0
0	0	0	-0.115495	6.365292	-23.763276	6.365292	45140.375	2.707275E-10	3.693751E+9	14.754095	0.180769	0	0
0	0	0	-0.116638	6.365313	-23.764878	6.365313	45119.5	3.869071E-10	2.5846E+9	14.70276	0.179962	0	0
0	0	0	-0.117128	6.365419	-23.765923	6.365419	45110.5	-3.366674E-10	-2.970291E+9	14.759777	0.178905	0	0
0	0	0	-0.117618	6.365433	-23.766628	6.365433	45101.625	-2.694153E-10	-3.711742E+9	14.5892	0.17864	0	0
0	0	0	-0.117292	6.365349	-23.76588	6.365349	45107.5	1.363582E-9	7.333624E+8	14.693323	0.177358	0	0
0	0	0	-0.118027	6.365475	-23.767329	6.365475	45094.125	-1.684827E-10	-5.935328E+9	14.624369	0.176842	0	0
0	0	0	-0.118313	6.36525	-23.766876	6.36525	45088.875	1.688847E-10	5.921198E+9	14.593392	0.176022	0	0
0	0	0	-0.119905	6.365363	-23.769417	6.365363	45059.75	-1.348517E-7	-7415550.870036	14.648085	0.175137	0	0
0	0	0	-0.120354	6.36537	-23.770042	6.36537	45051.625	-2.643675E-9	-3.782613E+8	14.488592	0.174819	0	0
0	0	0	-0.120599	6.365313	-23.77016	6.365313	45047.125	3.862864E-10	2.588753E+9	14.579394	0.173603	0	0
0	0	0	-0.120599	6.365405	-23.770499	6.365405	45047.125	-4.478869E-10	-2.232706E+9	14.475547	0.17318	0	0
0	0	0	-0.119905	6.365517	-23.76999	6.365517	45059.75	-1.224812E-10	-8.164522E+9	14.437276	0.17236	0	0
0	0	0	-0.119007	6.365278	-23.767906	6.365278	45076.25	2.252106E-10	4.440289E+9	14.472363	0.171382	0	0
0	0	0	-0.118149	6.365454	-23.767414	6.365454	45091.875	-2.072932E-10	-4.824084E+9	14.316112	0.171091	0	0
0	0	0	-0.118068	6.365327	-23.766836	6.365327	45093.375	5.419774E-10	1.845095E+9	14.400706	0.169835	0	0
0	0	0	-0.116597	6.36544	-23.765293	6.36544	45120.25	-2.450686E-10	-4.08049E+9	14.305699	0.169597	0	0
0	0	0	-0.115862	6.36537	-23.764052	6.36537	45133.75	-2.648494E-9	-3.77573E+8	14.294024	0.168645	0	0
0	0	0	-0.115046	6.365384	-23.763015	6.365384	45148.625	-8.948194E-10	-1.117544E+9	14.294696	0.168036	0	0
0	0	0	-0.11476	6.365545	-23.763233	6.365545	45153.875	-1.038689E-10	-9.627521E+9	14.183432	0.167455	0	0
0	0	0	-0.115046	6.365454	-23.763276	6.365454	45148.625	-2.075541E-10	-4.818021E+9	14.288507	0.166357	0	0
0	0	0	-0.114311	6.365433	-23.762218	6.365433	45162.125	-2.697767E-10	-3.706769E+9	14.140652	0.166146	0	0
0	0	0	-0.114106	6.36537	-23.761711	6.36537	45165.875	-2.650379E-9	-3.773045E+8	14.190722	0.164943	0	0
0	0	0	-0.112391	6.365475	-23.759815	6.365475	45197.25	-1.68868E-10	-5.921786E+9	14.118735	0.164467	0	0
0	0	0	-0.112432	6.365552	-23.760156	6.365552	45196.5	-1.001192E-10	-9.988097E+9	14.008237	0.163832	0	0
0	0	0	-0.112595	6.365384	-23.759748	6.365384	45193.5	-8.957088E-10	-1.116434E+9	14.075437	0.162946	0	0
0	0	0	-0.11284	6.365545	-23.760674	6.365545	45189	-1.039497E-10	-9.620037E+9	13.918511	0.162563	0	0
0	0	0	-0.113657	6.365426	-23.76132	6.365426	45174	-2.997642E-10	-3.335955E+9	14.027712	0.161333	0	0
0	0	0	-0.112473	6.365475	-23.759924	6.365475	45195.75	-1.688624E-10	-5.921982E+9	13.946923	0.161122	0	0
0	0	0	-0.111493	6.365363	-23.7582	6.365363	45213.75	-1.353126E-7	-7390293.429341	13.926381	0.160289	0	0
0	0	0	-0.110676	6.365461	-23.757476	6.365461	45228.75	-1.93092E-10	-5.178877E+9	13.936101	0.159575	0	0
0	0	0	-0.109737	6.365489	-23.756327	6.365489	45245.875	-1.502872E-10	-6.653926E+9	13.829505	0.159059	0	0
0	0	0	-0.110676	6.365475	-23.757528	6.365475	45228.75	-1.689857E-10	-5.917662E+9	13.920318	0.158028	0	0
0	0	0	-0.110513	6.365468	-23.757284	6.365468	45231.625	-1.802478E-10	-5.547917E+9	13.772507	0.157777	0	0
0	0	0	-0.111248	6.365454	-23.758212	6.365454	45218.25	-2.078742E-10	-4.810602E+9	13.800256	0.156679	0	0
0	0	0	-0.11137	6.365699	-23.759287	6.365699	45216	-5.635958E-11	-1.774321E+10	13.744445	0.156256	0	0
0	0	0	-0.111942	6.365173	-23.758095	6.365173	45205.5	1.002876E-10	9.971325E+9	13.67376	0.155674	0	0
0	0	0	-0.111044	6.365419	-23.757809	6.365419	45222	-3.374995E-10	-2.962967E+9	13.7283	0.154788	0	0
0	0	0	-0.11186	6.365398	-23.75882	6.365398	45207	-5.390137E-10	-1.855241E+9	13.572025	0.154392	0	0
0	0	0	-0.112922	6.365349	-23.760054	6.365349	45187.5	1.366001E-9	7.32064E+8	13.677244	0.153241	0	0
0	0	0	-0.114474	6.365447	-23.762487	6.365447	45159.125	-2.248738E-10	-4.446939E+9	13.54004	0.153096	0	0
0	0	0	-0.115086	6.365377	-23.763044	6.365377	45147.875	-1.337777E-9	-7.475087E+8	13.617691	0.151999	0	0
0	0	0	-0.114556	6.36551	-23.762831	6.36551	45157.625	-1.285867E-10	-7.776852E+9	13.512084	0.151695	0	0
0	0	0	-0.114719	6.365468	-23.762892	6.365468	45154.625	-1.79941E-10	-5.557377E+9	13.462125	0.150941	0	0
0	0	0	-0.115168	6.365398	-23.763231	6.365398	45146.375	-5.382908E-10	-1.857732E+9	13.520055	0.150161	0	0
0	0	0	-0.115985	6.36551	-23.764737	6.36551	45131.5	-1.285123E-10	-7.781354E+9	13.368919	0.149764	0	0
0	0	0	-0.115658	6.365306	-23.763545	6.365306	45137.5	3.385575E-10	2.953708E+9	13.454712	0.148944	0	0
0	0	0	-0.117332	6.365377	-23.766038	6.365377	45106.75	-1.336558E-9	-7.481902E+8	13.293478	0.148667	0	0
0	0	0	-0.117414	6.365622	-23.767059	6.365622	45105.25	-7.292702E-11	-1.371234E+10	13.365343	0.147543	0	0
0	0	0	-0.117292	6.365447	-23.766245	6.365447	45107.5	-2.246167E-10	-4.452028E+9	13.238572	0.147384	0	0
0	0	0	-0.117292	6.365356	-23.765906	6.365356	45107.5	2.754993E-9	3.629773E+8	13.244943	0.146432	0	0
0	0	0	-0.118149	6.365264	-23.766711	6.365264	45091.875	1.930585E-10	5.179777E+9	13.229771	0.145917	0	0
0	0	0	-0.11721	6.365264	-23.765458	6.365264	45109	1.931318E-10	5.177811E+9	13.135157	0.145467	0	0
0	0	0	-0.119742	6.365531	-23.769824	6.365531	45062.75	-1.122904E-10	-8.905484E+9	13.206529	0.144515	0	0
0	0	0	-0.121334	6.365384	-23.771401	6.365384	45033.625	-8.925402E-10	-1.120398E+9	13.038933	0.144277	0	0
0	0	0	-0.121171	6.365482	-23.771548	6.365482	45036.625	-1.583814E-10	-6.313874E+9	13.141023	0.143299	0	0
0	0	0	-0.121171	6.365405	-23.771261	6.365405	45036.625	-4.477825E-10	-2.233227E+9	13.009246	0.143048	0	0
0	0	0	-0.121702	6.365447	-23.772125	6.365447	45027	-2.242159E-10	-4.459988E+9	13.067804	0.142162	0	0
0	0	0	-0.120559	6.365349	-23.770236	6.365349	45047.875	1.36178E-9	7.343331E+8	12.985554	0.141831	0	0
0	0	0	-0.11966	6.365398	-23.76922	6.365398	45064.25	-5.373116E-10	-1.861117E+9	12.982475	0.140985	0	0
0	0	0	-0.119742	6.365475	-23.769616	6.365475	45062.75	-1.683655E-10	-5.939461E+9	12.970734	0.140549	0	0
0	0	0	-0.118639	6.365363	-23.767729	6.365363	45082.875	-1.349209E-7	-7411747.869439	12.878163	0.140033	0	0
0	0	0	-0.117986	6.365524	-23.767457	6.365524	45094.875	-1.172518E-10	-8.528651E+9	12.920619	0.139346	0	0
0	0	0	-0.117659	6.365285	-23.766135	6.365285	45100.875	2.458558E-10	4.067425E+9	12.764286	0.138896	0	0
0	0	0	-0.116271	6.365419	-23.764779	6.365419	45126.25	-3.367849E-10	-2.969254E+9	12.861948	0.137944	0	0
0	0	0	-0.11623	6.365405	-23.764673	6.365405	45127	-4.486811E-10	-2.228754E+9	12.709063	0.137957	0	0
0	0	0	-0.115005	6.365601	-23.763769	6.365601	45149.375	-7.943561E-11	-1.258881E+10	12.781082	0.136781	0	0
0	0	0	-0.114433	6.365335	-23.762016	6.365335	45159.875	6.791527E-10	1.472423E+9	12.685239	0.136648	0	0
0	0	0	-0.11378	6.365215	-23.760702	6.365215	45171.875	1.288726E-10	7.759604E+9	12.719104	0.135749	0	0
0	0	0	-0.113535	6.365489	-23.761391	6.365489	45176.25	-1.500559E-10	-6.664181E+9	12.628463	0.135511	0	0
0	0	0	-0.113453	6.365391	-23.760918	6.365391	45177.75	-6.726611E-10	-1.486633E+9	12.611369	0.134533	0	0
0	0	0	-0.113412	6.365433	-23.76102	6.365433	45178.5	-2.698745E-10	-3.705426E+9	12.582696	0.134202	0	0
0	0	0	-0.113412	6.365391	-23.760863	6.365391	45178.5	-6.726723E-10	-1.486608E+9	12.492387	0.13366	0	0
0	0	0	-0.113249	6.365496	-23.761036	6.365496	45181.625	-1.421835E-10	-7.033166E+9	12.542722	0.132933	0	0
0	0	0	-0.112228	6.365587	-23.760014	6.365587	45200.25	-8.449233E-11	-1.183539E+10	12.423716	0.132523	0	0
0	0	0	-0.112881	6.365468	-23.760442	6.365468	45188.25	-1.80075E-10	-5.553242E+9	12.480593	0.131822	0	0
0	0	0	-0.112024	6.365524	-23.759507	6.365524	45204	-1.175356E-10	-8.508062E+9	12.326599	0.131505	0	0
0	0	0	-0.111125	6.365412	-23.757892	6.365412	45220.5	-3.855636E-10	-2.593606E+9	12.415283	0.130553	0	0
0	0	0	-0.110799	6.365356	-23.757248	6.365356	45226.5	2.762261E-9	3.620223E+8	12.252533	0.130461	0	0
0	0	0	-0.110921	6.365363	-23.757438	6.365363	45224.25	-1.353441E-7	-7388577.375893	12.355418	0.129522	0	0
0	0	0	-0.110799	6.365257	-23.756883	6.365257	45226.5	1.807087E-10	5.533769E+9	12.204769	0.12939	0	0
0	0	0	-0.111207	6.365398	-23.757949	6.365398	45219	-5.391567E-10	-1.854748E+9	12.254721	0.12853	0	0
0	0	0	-0.111125	6.36544	-23.757996	6.36544	45220.5	-2.456131E-10	-4.071444E+9	12.166376	0.128292	0	0
0	0	0	-0.110676	6.365545	-23.757788	6.365545	45228.75	-1.040411E-10	-9.611583E+9	12.198729	0.127512	0	0
0	0	0	-0.11231	6.365566	-23.760044	6.365566	45198.75	-9.32238E-11	-1.072687E+10	12.087697	0.127221	0	0
0	0	0	-0.111779	6.365278	-23.758268	6.365278	45208.5	2.258713E-10	4.4273E+9	12.138217	0.126335	0	0
0	0	0	-0.113371	6.36551	-23.761252	6.36551	45179.375	-1.286487E-10	-7.773108E+9	12.067411	0.126005	0	0
0	0	0	-0.113861	6.365405	-23.761514	6.365405	45170.375	-4.491124E-10	-2.226614E+9	12.019127	0.12537	0	0
0	0	0	-0.113861	6.365517	-23.761931	6.365517	45170.375	-1.227819E-10	-8.144526E+9	12.02505	0.12504	0	0
0	0	0	-0.115331	6.365327	-23.763188	6.365327	45143.5	5.425799E-10	1.843047E+9	11.965573	0.124352	0	0
0	0	0	-0.115821	6.365468	-23.764363	6.365468	45134.375	-1.798603E-10	-5.559871E+9	11.960627	0.12377	0	0
0	0	0	-0.115658	6.365356	-23.763728	6.365356	45137.5	2.756825E-9	3.627361E+8	11.832286	0.123493	0	0
0	0	0	-0.116148	6.365461	-23.764772	6.365461	45128.5	-1.92664E-10	-5.190382E+9	11.868918	0.122885	0	0
0	0	0	-0.116761	6.365489	-23.765693	6.365489	45117.25	-1.4986E-10	-6.672896E+9	11.75521	0.122514	0	0
0	0	0	-0.116924	6.365208	-23.764869	6.365208	45114.25	1.228525E-10	8.139845E+9	0	0	0	0
0	0	0	-0.117414	6.365391	-23.766199	6.365391	45105.25	-6.715817E-10	-1.489022E+9	0	0	0	0
0	0	0	-0.118027	6.365433	-23.767173	6.365433	45094.125	-2.693705E-10	-3.712359E+9	0	0	0	0
0	0	0	-0.117455	6.365475	-23.766567	6.365475	45104.625	-1.685219E-10	-5.933947E+9	0	0	0	0
0	0	0	-0.116924	6.365426	-23.765676	6.365426	45114.25	-2.993677E-10	-3.340373E+9	0	0	0	0
0	0	0	-0.11819	6.365405	-23.767286	6.365405	45091.125	-4.483244E-10	-2.230528E+9	0	0	0	0
0	0	0	-0.121661	6.365405	-23.771915	6.365405	45027.75	-4.476943E-10	-2.233667E+9	0	0	0	0
0	0	0	-0.121784	6.365327	-23.771791	6.365327	45025.5	5.411616E-10	1.847877E+9	0	0	0	0
0	0	0	-0.122927	6.365601	-23.774332	6.365601	45004.625	-7.918094E-11	-1.26293E+10	0	0	0	0
0	0	0	-0.121171	6.365264	-23.77074	6.365264	45036.625	1.928219E-10	5.186132E+9	0	0	0	0
0	0	0	-0.121947	6.365398	-23.77227	6.365398	45022.5	-5.368138E-10	-1.862843E+9	0	0	0	0
0	0	0	-0.121171	6.365292	-23.770844	6.365292	45036.625	2.701053E-10	3.70226E+9	0	0	0	0
0	0	0	-0.120028	6.365398	-23.76971	6.365398	45057.5	-5.372311E-10	-1.861396E+9	0	0	0	0
0	0	0	-0.118108	6.365447	-23.767334	6.365447	45092.625	-2.245427E-10	-4.453497E+9	0	0	0	0
0	0	0	-0.119415	6.365419	-23.768972	6.365419	45068.75	-3.363558E-10	-2.973042E+9	0	0	0	0
0	0	0	-0.117659	6.365299	-23.766187	6.365299	45100.875	3.006121E-10	3.326546E+9	0	0	0	0
0	0	0	-0.116924	6.365496	-23.765937	6.365496	45114.25	-1.419715E-10	-7.04367E+9	0	0	0	0
0	0	0	-0.117047	6.365356	-23.765579	6.365356	45112	2.755268E-9	3.629411E+8	0	0	0	0
0	0	0	-0.116189	6.365461	-23.764827	6.365461	45127.75	-1.926608E-10	-5.190468E+9	0	0	0	0
0	0	0	-0.116107	6.365447	-23.764666	6.365447	45129.25	-2.24725E-10	-4.449883E+9	0	0	0	0
0	0	0	-0.113861	6.365503	-23.761879	6.365503	45170.375	-1.350478E-10	-7.404787E+9	0	0	0	0
0	0	0	-0.114719	0	-0.114719	0	45154.625	0	0	0	0	0	0
0	0	0	-0.11329	0	-0.11329	0	45180.75	0	0	0	0	0	0
