Vload_(V)	ILoad_(A)	RsLoad (ohm)	SunsVoc_Voltage_(V)	SunsVoc_Current_(A)	Model_Voltage_(V)	Model_Current_(A)	Carrier_Density_(cm-3)	Lifetime_(s)	Inverse_Lifetime_(s-1)	Efficiency_(%)	Intensity_(suns)	Dark_IV_Voltage_(V)	Dark_IV_Current_(A)
3.095434	6.023653	0	52.215738	-0.536378	52.494086	-0.536378	1.082694E+16	0.000734	1167.45773	19.470867	1.186321	0	0
3.100376	6.024808	-0.528778	52.773403	-0.844343	53.192846	-0.844343	1.270748E+16	0.000823	946.905024	19.371778	1.185792	0	0
3.188874	6.023146	2.939602	52.90555	-0.747024	53.272724	-0.747024	1.319637E+16	0.000867	864.293442	19.291355	1.184681	0	0
3.921159	6.022309	3.846786	52.877863	-0.453761	53.101392	-0.453761	1.309248E+16	0.000899	827.625504	19.246895	1.18242	0	0
5.967226	6.0204	4.091764	52.801498	-0.10994	52.85599	-0.10994	1.280996E+16	0.000929	803.966287	19.221653	1.179128	0	0
8.484431	6.016617	4.157274	52.698427	0.245962	52.575507	0.245962	1.243779E+16	0.000958	787.446718	19.164587	1.175677	0	0
10.903663	6.006503	4.448225	52.585595	0.598496	52.283812	0.598496	1.204213E+16	0.000987	772.025115	19.078025	1.173892	0	0
12.99213	5.997869	4.31713	52.47407	0.928945	52.001544	0.928945	1.166278E+16	0.001018	756.200459	19.030465	1.171764	0	0
15.009374	6.000289	3.923431	52.354256	1.247624	51.713684	1.247624	1.126782E+16	0.001049	742.07734	19.046317	1.168511	0	0
17.140921	5.994669	3.699694	52.23387	1.537915	51.436893	1.537915	1.088371E+16	0.001079	729.87179	19.070707	1.164161	0	0
19.461012	5.996838	3.263069	52.118465	1.796827	51.179072	1.796827	1.052709E+16	0.001108	718.644738	19.07046	1.159864	0	0
21.643975	5.995521	2.930229	51.997916	2.044479	50.919249	2.044479	1.016632E+16	0.001137	708.307626	19.027469	1.155951	0	0
23.778868	5.995345	2.577816	51.887494	2.270535	50.679592	2.270535	9.846064E+15	0.001167	695.954319	18.989155	1.152235	0	0
25.947696	5.993339	2.257028	51.767557	2.495685	50.427977	2.495685	9.50893E+15	0.001199	683.939396	18.979607	1.148203	0	0
28.095179	5.99261	1.912659	51.640759	2.702544	50.176523	2.702544	9.164266E+15	0.001228	675.248893	18.99939	1.144144	0	0
30.221356	5.989368	1.611747	51.526008	2.883159	49.950762	2.883159	8.862428E+15	0.001255	666.213398	19.021555	1.139913	0	0
32.355957	5.986746	1.293267	51.409052	3.060115	49.722895	3.060115	8.564335E+15	0.001286	656.115672	19.033048	1.135061	0	0
33.086958	5.988012	1.153036	51.299038	3.220598	49.510367	3.220598	8.292466E+15	0.001316	645.721197	19.01115	1.129693	0	0
33.811879	5.98267	1.10561	51.180204	3.382565	49.285598	3.382565	8.007806E+15	0.001349	634.96726	18.967322	1.124629	0	0
34.495151	5.981828	1.001903	51.059859	3.528672	49.066533	3.528672	7.728767E+15	0.001378	626.528076	18.958571	1.119485	0	0
35.191468	5.978221	0.9278	50.951397	3.664066	48.865788	3.664066	7.485004E+15	0.001411	615.654659	18.983195	1.114276	0	0
35.893559	5.972141	0.876587	50.834073	3.792708	48.657551	3.792708	7.229318E+15	0.001442	606.96209	18.995767	1.108908	0	0
36.601121	5.963321	0.838636	50.727408	3.907592	48.468386	3.907592	7.003858E+15	0.001472	597.746829	18.974475	1.103659	0	0
37.298581	5.949608	0.824004	50.611024	4.017989	48.269589	4.017989	6.765231E+15	0.0015	590.474291	18.955656	1.098304	0	0
37.998203	5.931225	0.820027	50.504073	4.119902	48.085731	4.119902	6.552534E+15	0.001531	581.846312	18.959258	1.09254	0	0
38.696657	5.907177	0.819265	50.391894	4.214465	47.89925	4.214465	6.336025E+15	0.001558	575.246258	18.9723	1.086802	0	0
39.384603	5.883385	0.794954	50.282983	4.305475	47.717868	4.305475	6.132082E+15	0.001588	567.451703	18.991838	1.081222	0	0
40.088272	5.845566	0.792275	50.171459	4.389357	47.536907	4.389357	5.929452E+15	0.001614	561.232238	18.989667	1.075854	0	0
40.788212	5.803439	0.776938	50.066427	4.468695	47.365595	4.468695	5.744197E+15	0.001643	553.755685	18.968145	1.070526	0	0
41.484191	5.753049	0.759429	49.949063	4.547772	47.179218	4.547772	5.543405E+15	0.001671	547.49267	18.965101	1.064893	0	0
42.181666	5.68664	0.746956	49.845583	4.618582	47.01361	4.618582	5.371652E+15	0.001701	540.1081	18.981892	1.059102	0	0
42.882502	5.607762	0.727757	49.73222	4.68726	46.837011	4.68726	5.189015E+15	0.001727	534.252951	19.006353	1.05343	0	0
43.572875	5.512709	0.708422	49.625759	4.751398	46.670823	4.751398	5.022604E+15	0.001756	527.549774	19.011323	1.047917	0	0
44.26057	5.403683	0.683651	49.517665	4.810084	46.50556	4.810084	4.858554E+15	0.001781	522.314248	18.991188	1.042509	0	0
44.93043	5.261145	0.668709	49.411694	4.867145	46.343352	4.867145	4.7024E+15	0.001809	516.160511	18.967664	1.036744	0	0
45.592496	5.082991	0.657234	49.301231	4.922546	46.176345	4.922546	4.544412E+15	0.001836	510.401026	18.976209	1.030781	0	0
46.262905	4.882962	0.636187	49.198078	4.971337	46.021831	4.971337	4.401167E+15	0.001861	505.334882	19.003822	1.025083	0	0
46.913887	4.632958	0.624937	49.086349	5.022694	45.854979	5.022694	4.250552E+15	0.001889	499.382615	19.018804	1.019318	0	0
47.559221	4.350522	0.610391	48.983196	5.066575	45.702816	5.066575	4.115574E+15	0.001913	494.650558	18.994623	1.013752	0	0
48.195061	4.02499	0.594464	48.878327	5.110853	45.547972	5.110853	3.98225E+15	0.001941	488.949893	18.97251	1.008186	0	0
48.81358	3.641443	0.587578	48.768763	5.152157	45.38905	5.152157	3.84704E+15	0.001964	484.681838	18.970622	1.002804	0	0
49.411692	3.225774	0.579267	48.670632	5.188858	45.246601	5.188858	3.729387E+15	0.001987	480.10486	18.996	0.997119	0	0
49.981769	2.786903	0.57068	48.560169	5.227196	45.087884	5.227196	3.600738E+15	0.002011	475.713794	19.019169	0.99187	0	0
50.538289	2.30731	0.571142	48.458772	5.260647	44.943059	5.260647	3.486085E+15	0.002032	471.844957	19.015644	0.986899	0	0
51.059857	1.81982	0.585392	48.35521	5.293474	44.795764	5.293474	3.372289E+15	0.002054	467.861051	18.992522	0.981835	0	0
51.541142	1.338706	0.589034	48.24924	5.325234	44.646002	5.325234	3.259211E+15	0.002076	464.087333	18.995383	0.976573	0	0
51.975705	0.884984	0.574653	48.14772	5.354241	44.503244	5.354241	3.153988E+15	0.002096	460.603886	19.027694	0.971152	0	0
42.680667	5.630498	0.735785	48.042361	5.383086	44.355704	5.383086	3.047914E+15	0.002117	457.02653	19.054021	0.965797	0	0
52.689199	0	0	47.939902	5.408656	44.213701	5.408656	2.947734E+15	0.002132	454.579554	19.039938	0.960535	0	0
0	0	0	47.836177	5.434572	44.069712	5.434572	2.849223E+15	0.002152	451.296569	19.017595	0.955299	0	0
0	0	0	47.733923	5.45813	43.928941	5.45813	2.754897E+15	0.002167	448.86415	19.001886	0.950037	0	0
0	0	0	47.631545	5.481497	43.787963	5.481497	2.663157E+15	0.002185	445.861943	19.016438	0.944656	0	0
0	0	0	47.524472	5.504927	43.641027	5.504927	2.570023E+15	0.002204	442.760703	19.03747	0.939592	0	0
0	0	0	47.42675	5.524504	43.508031	5.524504	2.487467E+15	0.002217	440.820119	19.035369	0.934713	0	0
0	0	0	47.321024	5.545675	43.363977	5.545675	2.400709E+15	0.002234	438.001646	19.011528	0.929755	0	0
0	0	0	47.221015	5.564142	43.228669	5.564142	2.321026E+15	0.002247	436.105697	18.994917	0.924638	0	0
0	0	0	47.122476	5.581562	43.095765	5.581562	2.244723E+15	0.002259	434.367403	19.016987	0.91931	0	0
0	0	0	47.015934	5.600546	42.951804	5.600546	2.164626E+15	0.002276	431.620742	19.039295	0.914114	0	0
0	0	0	46.919069	5.6162	42.821952	5.6162	2.093916E+15	0.002286	430.152923	19.03379	0.909076	0	0
0	0	0	46.817672	5.631828	42.68645	5.631828	2.021997E+15	0.002296	428.828049	19.007206	0.904171	0	0
0	0	0	46.71264	5.648092	42.545904	5.648092	1.949706E+15	0.002309	426.704913	18.990219	0.899107	0	0
0	0	0	46.618308	5.662185	42.41994	5.662185	1.886645E+15	0.002322	424.788319	18.997175	0.894136	0	0
0	0	0	46.51446	5.676136	42.282313	5.676136	1.819212E+15	0.002329	423.928222	19.02879	0.8889	0	0
0	0	0	46.412206	5.689892	42.14667	5.689892	1.7548E+15	0.002339	422.450186	19.031163	0.883929	0	0
0	0	0	46.319221	5.701027	42.024263	5.701027	1.697895E+15	0.002341	422.364074	19.000938	0.879024	0	0
0	0	0	46.217538	5.713445	41.890127	5.713445	1.637441E+15	0.002348	421.420835	18.982094	0.874039	0	0
0	0	0	46.117733	5.725485	41.758485	5.725485	1.579862E+15	0.002357	420.118478	18.990744	0.868975	0	0
0	0	0	46.024462	5.735428	41.636376	5.735428	1.527588E+15	0.002358	420.273619	19.0135	0.864123	0	0
0	0	0	45.920941	5.746149	41.501004	5.746149	1.471263E+15	0.002358	420.411678	19.004828	0.859482	0	0
0	0	0	45.821178	5.757142	41.36995	5.757142	1.418628E+15	0.002368	418.975541	18.973363	0.854854	0	0
0	0	0	45.728479	5.765701	41.249385	5.765701	1.371132E+15	0.002365	419.792375	18.9523	0.850042	0	0
0	0	0	45.62557	5.775075	41.115567	5.775075	1.31996E+15	0.002362	420.452289	18.963148	0.84515	0	0
0	0	0	45.526011	5.784938	40.985407	5.784938	1.271971E+15	0.00237	419.199474	18.99453	0.84039	0	0
0	0	0	45.43372	5.791837	40.86645	5.791837	1.228787E+15	0.002358	421.583242	18.991057	0.835709	0	0
0	0	0	45.330281	5.800908	40.732002	5.800908	1.181837E+15	0.00236	421.365084	18.953321	0.831293	0	0
0	0	0	45.231701	5.808639	40.604529	5.808639	1.138487E+15	0.002355	422.399121	18.939128	0.82656	0	0
0	0	0	45.136021	5.816865	40.480169	5.816865	1.097679E+15	0.002361	421.487539	18.947489	0.821866	0	0
0	0	0	45.030745	5.824116	40.344712	5.824116	1.054186E+15	0.00235	423.652689	18.962628	0.817226	0	0
0	0	0	44.933349	5.832071	40.218334	5.832071	1.015231E+15	0.002357	422.499799	18.9439	0.81281	0	0
0	0	0	44.840324	5.837274	40.099514	5.837274	9.791443E+14	0.002337	426.307801	18.912045	0.808394	0	0
0	0	0	44.736844	5.845137	39.9656	5.845137	9.402584E+14	0.002343	425.328864	18.889979	0.804057	0	0
0	0	0	44.640347	5.850553	39.842238	5.850553	9.051595E+14	0.002326	428.535219	18.913898	0.799376	0	0
0	0	0	44.545198	5.856419	39.720124	5.856419	8.716226E+14	0.002319	430.045304	18.930804	0.795079	0	0
0	0	0	44.442698	5.863285	39.588074	5.863285	8.366564E+14	0.002321	429.72436	18.914974	0.790637	0	0
0	0	0	44.34518	5.868226	39.463714	5.868226	8.044805E+14	0.002302	433.238229	18.874264	0.786327	0	0
0	0	0	44.250643	5.874304	39.342043	5.874304	7.742784E+14	0.002306	432.610421	18.848876	0.782082	0	0
0	0	0	44.147286	5.879591	39.210108	5.879591	7.423458E+14	0.002292	435.335069	18.876747	0.777323	0	0
0	0	0	44.050258	5.883732	39.086907	5.883732	7.133768E+14	0.002268	440.07102	18.889298	0.77292	0	0
0	0	0	43.958662	5.888583	38.969774	5.888583	6.869027E+14	0.002262	441.24851	18.8616	0.768782	0	0
0	0	0	43.855794	5.89378	38.8384	5.89378	6.581571E+14	0.002254	442.868415	18.829163	0.764524	0	0
0	0	0	43.757991	5.897346	38.71463	5.897346	6.317693E+14	0.002225	448.763777	18.812664	0.760373	0	0
0	0	0	43.66325	5.901694	38.593941	5.901694	6.070619E+14	0.002214	451.005728	18.838247	0.755811	0	0
0	0	0	43.558341	5.907363	38.459525	5.907363	5.806576E+14	0.002221	449.649275	18.843706	0.751712	0	0
0	0	0	43.460578	5.910795	38.335825	5.910795	5.569317E+14	0.002195	455.018666	18.809856	0.747759	0	0
0	0	0	43.363918	5.913403	38.214179	5.913403	5.342854E+14	0.002156	463.393785	18.773159	0.743674	0	0
0	0	0	43.259458	5.917609	38.081482	5.917609	5.106952E+14	0.002142	466.351556	18.77983	0.73931	0	0
0	0	0	43.163002	5.922016	37.958459	5.922016	4.897056E+14	0.002143	466.159629	18.803967	0.735053	0	0
0	0	0	43.061318	5.925473	37.829784	5.925473	4.683801E+14	0.002122	470.845727	18.79421	0.730981	0	0
0	0	0	42.95984	5.927953	37.702199	5.927953	4.478948E+14	0.002082	479.981561	18.739107	0.727107	0	0
0	0	0	42.858646	5.931023	37.574423	5.931023	4.282379E+14	0.002057	485.943778	18.71012	0.722916	0	0
0	0	0	42.755983	5.934575	37.444372	5.934575	4.090591E+14	0.002043	489.245845	18.719132	0.718777	0	0
0	0	0	42.654994	5.937918	37.31655	5.937918	3.909216E+14	0.002028	492.756664	18.730867	0.714612	0	0
0	0	0	42.552495	5.940765	37.187283	5.940765	3.732296E+14	0.002003	499.005876	18.707139	0.710765	0	0
0	0	0	42.449586	5.943069	37.057979	5.943069	3.561716E+14	0.001966	508.394009	18.660553	0.706878	0	0
0	0	0	42.343901	5.945444	36.925158	5.945444	3.393653E+14	0.00193	517.869902	18.638688	0.702991	0	0
0	0	0	42.229355	5.9485	36.780736	5.9485	3.21938E+14	0.001906	524.588631	18.66172	0.698839	0	0
0	0	0	42.130122	5.951257	36.6555	5.951257	3.074814E+14	0.001889	529.125461	18.669287	0.695044	0	0
0	0	0	42.020721	5.954471	36.517243	5.954471	2.9221E+14	0.001879	532.072251	18.634094	0.691435	0	0
0	0	0	41.920017	5.956864	36.39048	5.956864	2.787503E+14	0.001857	538.486319	18.597505	0.687654	0	0
0	0	0	41.815272	5.959169	36.258778	5.959169	2.653374E+14	0.00183	546.194238	18.579699	0.683991	0	0
0	0	0	41.701174	5.961159	36.115785	5.961159	2.513847E+14	0.001789	558.73832	18.610268	0.680117	0	0
0	0	0	41.597082	5.963052	35.985242	5.963052	2.392322E+14	0.001756	569.349899	18.602039	0.676561	0	0
0	0	0	41.488375	5.965155	35.848775	5.965155	2.271069E+14	0.001727	578.944536	18.547572	0.673321	0	0
0	0	0	41.383547	5.967671	35.716698	5.967671	2.15942E+14	0.001716	582.699123	18.514255	0.669606	0	0
0	0	0	41.275779	5.969795	35.581335	5.969795	2.049839E+14	0.001693	590.563666	18.534335	0.665957	0	0
0	0	0	41.169196	5.972412	35.446948	5.972412	1.946454E+14	0.00169	591.71486	18.553027	0.662294	0	0
0	0	0	41.056936	5.974224	35.306289	5.974224	1.842721E+14	0.001658	602.934367	18.514062	0.659068	0	0
0	0	0	40.951986	5.975594	35.175087	5.975594	1.750341E+14	0.00162	617.171704	18.47164	0.655604	0	0
0	0	0	40.836745	5.976767	35.031329	5.976767	1.653813E+14	0.001569	637.259082	18.461792	0.652048	0	0
0	0	0	40.731999	5.977871	34.900617	5.977871	1.570353E+14	0.001526	655.330257	18.479194	0.648399	0	0
0	0	0	40.614513	5.979427	34.753683	5.979427	1.481382E+14	0.00149	671.080303	18.460838	0.644974	0	0
0	0	0	40.500088	5.981091	34.61042	5.981091	1.399244E+14	0.001462	683.752065	18.41536	0.641682	0	0
0	0	0	40.385787	5.982604	34.467442	5.982604	1.321441E+14	0.001432	698.280372	18.375937	0.638125	0	0
0	0	0	40.271853	5.984447	34.324576	5.984447	1.247921E+14	0.001416	706.208917	18.376647	0.634582	0	0
0	0	0	40.159961	5.98621	34.184304	5.98621	1.17946E+14	0.001401	713.617763	18.403945	0.630959	0	0
0	0	0	40.043617	5.987886	34.038591	5.987886	1.112026E+14	0.001383	723.017033	18.374297	0.627905	0	0
0	0	0	39.92809	5.989326	33.894111	5.989326	1.048671E+14	0.001359	735.823043	18.318093	0.624679	0	0
0	0	0	39.810971	5.990735	33.747677	5.990735	9.87933E+13	0.001335	749.001602	18.30091	0.621017	0	0
0	0	0	39.694056	5.992017	33.601613	5.992017	9.306348E+13	0.001309	764.161634	18.330321	0.617513	0	0
0	0	0	39.575997	5.992844	33.454586	5.992844	8.759879E+13	0.001265	790.613093	18.318667	0.61434	0	0
0	0	0	39.457408	5.993682	33.306881	5.993682	8.2418E+13	0.001223	817.435505	18.258888	0.611299	0	0
0	0	0	39.338043	5.994359	33.158374	5.994359	7.749948E+13	0.001177	849.679627	18.209066	0.608033	0	0
0	0	0	39.217248	5.99525	33.00787	5.99525	7.280871E+13	0.00114	876.917547	18.22647	0.604397	0	0
0	0	0	39.096412	5.996	32.857452	5.996	6.838953E+13	0.0011	908.923186	18.227339	0.601144	0	0
0	0	0	38.977088	5.996888	32.708756	5.996888	6.427932E+13	0.001068	936.012524	18.186021	0.598289	0	0
0	0	0	38.85078	5.997811	32.551364	5.997811	6.018818E+13	0.001036	965.139351	18.133251	0.595195	0	0
0	0	0	38.7268	5.998739	32.396843	5.998739	5.641758E+13	0.001007	992.698694	18.13304	0.591704	0	0
0	0	0	38.604372	6.000095	32.243779	6.000095	5.291895E+13	0.000999	1000.716686	18.137343	0.588359	0	0
0	0	0	38.473042	6.000749	32.080423	6.000749	4.939984E+13	0.000959	1042.224556	18.113217	0.585239	0	0
0	0	0	38.347143	6.002213	31.922921	6.002213	4.624023E+13	0.000959	1042.263232	18.057423	0.58233	0	0
0	0	0	38.216751	6.002593	31.761007	6.002593	4.317535E+13	0.000912	1096.497954	18.014043	0.579183	0	0
0	0	0	38.085339	6.00389	31.596833	6.00389	4.028709E+13	0.000907	1102.74071	18.018001	0.575746	0	0
0	0	0	37.948986	6.004993	31.426734	6.004993	3.748975E+13	0.000894	1118.884881	18.024326	0.572639	0	0
0	0	0	37.817533	6.005574	31.263264	6.005574	3.497314E+13	0.000861	1162.021046	17.978908	0.569743	0	0
0	0	0	37.680526	6.006558	31.092467	6.006558	3.252632E+13	0.000846	1181.471276	17.912323	0.566728	0	0
0	0	0	37.542335	6.007178	30.920591	6.007178	3.022858E+13	0.000816	1225.117044	17.903141	0.563529	0	0
0	0	0	37.405043	6.007856	30.74976	6.007856	2.81038E+13	0.000791	1263.57587	17.916278	0.560395	0	0
0	0	0	37.262972	6.00847	30.573071	6.00847	2.60597E+13	0.000764	1309.690403	17.876903	0.557685	0	0
0	0	0	37.12082	6.008972	30.396401	6.008972	2.416103E+13	0.000732	1365.936818	17.804229	0.554908	0	0
0	0	0	36.975687	6.009336	30.216186	6.009336	2.236324E+13	0.000695	1439.133899	17.795269	0.551841	0	0
0	0	0	36.83235	6.009712	30.03818	6.009712	2.071737E+13	0.000661	1512.678099	17.816462	0.548813	0	0
0	0	0	36.683256	6.010079	29.853046	6.010079	1.913227E+13	0.000627	1594.898142	17.801988	0.545931	0	0
0	0	0	36.534243	6.010449	29.668005	6.010449	1.76679E+13	0.000595	1679.982569	17.73185	0.54326	0	0
0	0	0	36.380943	6.010889	29.477568	6.010889	1.627709E+13	0.000567	1762.804209	17.682039	0.54047	0	0
0	0	0	36.226703	6.011288	29.286008	6.011288	1.49872E+13	0.000539	1854.674729	17.704985	0.537403	0	0
0	0	0	36.071605	6.011407	29.093705	6.011407	1.379232E+13	0.000501	1995.832629	17.698613	0.534653	0	0
0	0	0	35.911363	6.011694	28.894832	6.011694	1.265697E+13	0.000471	2124.027674	17.65145	0.532114	0	0
0	0	0	35.748547	6.012036	28.692701	6.012036	1.159838E+13	0.000444	2251.596204	17.600477	0.529324	0	0
0	0	0	35.581444	6.012541	28.48506	6.012541	1.06033E+13	0.000425	2355.711119	17.603366	0.526469	0	0
0	0	0	35.418833	6.012985	28.283052	6.012985	9.716493E+12	0.000405	2468.102954	17.620138	0.523666	0	0
0	0	0	35.249565	6.013128	28.07315	6.013128	8.871638E+12	0.000375	2666.928708	17.575137	0.521074	0	0
0	0	0	35.080011	6.013683	27.862396	6.013683	8.098625E+12	0.000361	2767.378711	17.503819	0.518694	0	0
0	0	0	34.905517	6.013822	27.646014	6.013822	7.373025E+12	0.000334	2997.204657	17.498105	0.515865	0	0
0	0	0	34.729715	6.014234	27.427681	6.014234	6.70744E+12	0.000317	3156.778746	17.517169	0.513049	0	0
0	0	0	34.552648	6.014412	27.208058	6.014412	6.097549E+12	0.000294	3406.795824	17.47524	0.510695	0	0
0	0	0	34.373457	6.015146	26.985118	6.015146	5.536584E+12	0.00029	3453.816499	17.406763	0.508249	0	0
0	0	0	34.188753	6.015235	26.756134	6.015235	5.01215E+12	0.000265	3775.399933	17.390692	0.505539	0	0
0	0	0	34.002538	6.015677	26.524837	6.015677	4.533555E+12	0.000253	3954.778382	17.388645	0.502881	0	0
0	0	0	33.810933	6.016159	26.286804	6.016159	4.08864E+12	0.000243	4120.095159	17.359171	0.500356	0	0
0	0	0	33.61945	6.016424	26.049189	6.016424	3.68753E+12	0.000227	4406.809034	17.287586	0.498148	0	0
0	0	0	33.422291	6.016744	25.804466	6.016744	3.315519E+12	0.000213	4684.390464	17.255432	0.495583	0	0
0	0	0	33.221579	6.017282	25.555057	6.017282	2.975258E+12	0.000208	4813.659331	17.264079	0.492806	0	0
0	0	0	33.021725	6.017225	25.307465	6.017225	2.671094E+12	0.000185	5409.063298	17.239987	0.49044	0	0
0	0	0	32.804107	6.017618	25.03728	6.017618	2.375095E+12	0.000175	5711.749799	17.192691	0.488152	0	0
0	0	0	32.594737	6.018181	24.77709	6.018181	2.121278E+12	0.000172	5798.102877	17.138783	0.485667	0	0
0	0	0	32.381816	6.018644	24.512619	6.018644	1.890922E+12	0.000168	5954.893436	17.149294	0.48293	0	0
0	0	0	32.163095	6.018745	24.241429	6.018745	1.680285E+12	0.000152	6565.47355	17.147756	0.480616	0	0
0	0	0	31.945436	6.018921	23.971454	6.018921	1.493946E+12	0.00014	7119.528327	17.080768	0.4785	0	0
0	0	0	31.724796	6.019295	23.697518	6.019295	1.326116E+12	0.000135	7386.951544	17.021301	0.476054	0	0
0	0	0	31.502767	6.019667	23.421857	6.019667	1.176244E+12	0.000131	7617.519081	17.027428	0.473476	0	0
0	0	0	31.276206	6.019892	23.140771	6.019892	1.040747E+12	0.000123	8123.818411	17.028062	0.471043	0	0
0	0	0	31.040619	6.020036	22.848606	6.020036	9.163701E+11	0.000113	8872.658572	16.966934	0.4691	0	0
0	0	0	30.808382	6.020031	22.560791	6.020031	8.083108E+11	9.929372E-5	10071.12989	16.905465	0.466694	0	0
0	0	0	30.571039	6.020583	22.265883	6.020583	7.110242E+11	0.000103	9704.793661	16.922578	0.464115	0	0
0	0	0	30.330471	6.020602	21.967706	6.020602	6.243529E+11	9.105828E-5	10981.978284	16.907583	0.461907	0	0
0	0	0	30.087003	6.020733	21.665779	6.020733	5.473844E+11	8.340834E-5	11989.208885	16.824173	0.46003	0	0
0	0	0	29.841902	6.020996	21.36164	6.020996	4.794781E+11	8.027477E-5	12457.214885	16.766156	0.457518	0	0
0	0	0	29.59043	6.02125	21.049611	6.02125	4.185502E+11	7.750856E-5	12901.80077	16.765623	0.454992	0	0
0	0	0	29.33753	6.021458	20.735873	6.021458	3.650805E+11	7.399846E-5	13513.795384	16.754142	0.452851	0	0
0	0	0	29.07789	6.021486	20.414038	6.021486	3.172827E+11	6.513296E-5	15353.20869	16.685745	0.450854	0	0
0	0	0	28.8167	6.021446	20.090377	6.021446	2.755104E+11	5.554343E-5	18003.930039	16.617658	0.448739	0	0
0	0	0	28.549097	6.021797	19.7582	6.021797	2.384093E+11	5.716761E-5	17492.421797	16.625888	0.446213	0	0
0	0	0	28.281454	6.021989	19.4262	6.021989	2.062992E+11	5.515338E-5	18131.253818	16.627593	0.443913	0	0
0	0	0	28.010463	6.022007	19.090303	6.022007	1.781904E+11	4.816125E-5	20763.581018	16.559638	0.442062	0	0
0	0	0	27.735633	6.022276	18.749272	6.022276	1.535922E+11	4.964907E-5	20141.364916	16.503517	0.439827	0	0
0	0	0	27.458434	6.022254	18.405739	6.022254	1.3222E+11	4.204161E-5	23785.957578	16.522104	0.437236	0	0
0	0	0	27.177764	6.02219	18.057965	6.02219	1.136081E+11	3.45637E-5	28932.083717	16.505903	0.43516	0	0
0	0	0	26.89301	6.022465	17.704616	6.022465	9.740067E+10	3.649733E-5	27399.265662	16.425783	0.433388	0	0
0	0	0	26.605031	6.022554	17.347548	6.022554	8.335981E+10	3.376259E-5	29618.576662	16.371352	0.431167	0	0
0	0	0	26.311007	6.022377	16.983398	6.022377	7.111023E+10	2.480611E-5	40312.64204	16.373428	0.428853	0	0
0	0	0	26.012778	6.022545	16.613502	6.022545	6.052286E+10	2.431495E-5	41126.95556	16.352658	0.426923	0	0
0	0	0	25.713446	6.02274	16.242193	6.02274	5.148107E+10	2.508041E-5	39871.76349	16.278071	0.425019	0	0
0	0	0	25.409417	6.022854	15.865186	6.022854	4.367902E+10	2.43246E-5	41110.647156	16.220597	0.422956	0	0
0	0	0	25.103715	6.022782	15.486398	6.022782	3.702582E+10	1.891994E-5	52854.300419	16.231842	0.420603	0	0
0	0	0	24.79401	6.022697	15.102673	6.022697	3.13182E+10	1.457685E-5	68601.933128	16.19798	0.418673	0	0
0	0	0	24.476546	6.022857	14.708935	6.022857	2.637953E+10	1.475098E-5	67792.107082	16.117355	0.416861	0	0
0	0	0	24.156837	6.022858	14.31267	6.022858	2.219268E+10	1.242245E-5	80499.393585	16.080752	0.414468	0	0
0	0	0	23.827775	6.022859	13.904814	6.022859	1.85762E+10	1.040807E-5	96079.255127	16.085216	0.412287	0	0
0	0	0	23.492629	6.023065	13.489076	6.023065	1.549799E+10	1.173421E-5	85220.894607	16.048367	0.410396	0	0
0	0	0	23.143068	6.022959	13.055986	6.022959	1.282949E+10	8.233943E-6	121448.501087	15.969881	0.408505	0	0
0	0	0	22.793425	6.023106	12.622373	6.023106	1.061999E+10	8.642493E-6	115707.352185	15.950626	0.406218	0	0
0	0	0	22.446028	6.023073	12.191845	6.023073	8.801691E+9	6.757396E-6	147985.997132	15.951486	0.40397	0	0
0	0	0	22.094385	6.02308	11.755986	6.02308	7.277981E+9	5.655656E-6	176814.158303	15.880828	0.402291	0	0
0	0	0	21.731061	6.022968	11.305857	6.022968	5.980172E+9	3.883696E-6	257486.678165	15.78454	0.400374	0	0
0	0	0	21.361858	6.023134	10.847956	6.023134	4.898193E+9	4.199889E-6	238101.546319	15.790903	0.398073	0	0
0	0	0	20.987264	6.023081	10.383755	6.023081	4.000299E+9	3.112704E-6	321264.094006	15.796336	0.395971	0	0
0	0	0	20.605687	6.023254	9.9105	6.023254	3.25469E+9	3.629031E-6	275555.672856	15.696067	0.394384	0	0
0	0	0	20.216596	6.023387	9.427997	6.023387	2.637319E+9	4.40935E-6	226790.789489	15.621479	0.392467	0	0
0	0	0	19.816316	6.023327	8.93197	6.023327	2.124168E+9	2.901454E-6	344654.739544	15.649999	0.390021	0	0
0	0	0	19.40991	6.023115	8.42863	6.023115	1.705206E+9	1.410091E-6	709174.150822	15.626601	0.388104	0	0
0	0	0	18.990151	6.02336	7.907904	6.02336	1.359032E+9	2.068357E-6	483475.439316	15.515797	0.386544	0	0
0	0	0	18.564307	6.023321	7.380158	6.023321	1.079579E+9	1.446363E-6	691389.257657	15.468493	0.384561	0	0
0	0	0	18.131275	6.023407	6.843268	6.023407	8.542625E+8	1.546691E-6	646541.546448	15.479454	0.382353	0	0
0	0	0	17.686769	6.023241	6.292629	6.023241	6.717913E+8	7.261127E-7	1377196.636273	15.438827	0.38066	0	0
0	0	0	17.23185	6.023341	5.728583	6.023341	5.253306E+8	7.490822E-7	1334967.051964	15.348811	0.378968	0	0
0	0	0	16.763536	6.023274	5.148251	6.023274	4.078368E+8	4.795736E-7	2085185.829015	15.32669	0.376879	0	0
0	0	0	16.289096	6.023434	4.559889	6.023434	3.155746E+8	6.410427E-7	1559958.540668	15.346043	0.37483	0	0
0	0	0	15.804978	6.023467	3.959774	6.023467	2.4291E+8	5.816321E-7	1719299.890791	15.275797	0.373203	0	0
0	0	0	15.312816	6.023374	3.349936	6.023374	1.861659E+8	2.971671E-7	3365109.534447	15.205524	0.371471	0	0
0	0	0	14.80828	6.023387	2.724553	6.023387	1.417261E+8	2.375578E-7	4209502.111556	15.21118	0.369316	0	0
0	0	0	14.293739	6.023454	2.08666	6.023454	1.073126E+8	2.39872E-7	4168890.362703	15.19363	0.367584	0	0
0	0	0	13.764456	6.023547	1.430438	6.023547	8.061035E+7	3.380174E-7	2958427.393886	15.11566	0.366117	0	0
0	0	0	13.22725	6.023573	0.76453	6.023573	6.029355E+7	3.372396E-7	2965250.588003	15.062601	0.364094	0	0
0	0	0	12.69372	6.023513	0.103357	6.023513	4.518702E+7	1.443447E-7	6927859.819001	15.061667	0.362044	0	0
0	0	0	12.148307	6.023434	-0.572501	6.023434	3.364858E+7	6.838104E-8	1.462394E+7	15.003566	0.360444	0	0
0	0	0	11.602567	6.023487	-1.249044	6.023487	2.505203E+7	6.721567E-8	1.487748E+7	14.912932	0.358924	0	0
0	0	0	11.054907	6.023573	-1.928039	6.023573	1.863239E+7	1.042362E-7	9593591.997448	14.898707	0.356941	0	0
0	0	0	10.507615	6.023401	-2.60602	6.023401	1.386055E+7	2.446027E-8	4.088262E+7	14.893855	0.355143	0	0
0	0	0	9.955341	6.02362	-3.291028	6.02362	1.028307E+7	1.383858E-7	7226176.518309	14.79839	0.353688	0	0
0	0	0	9.402087	6.023533	-3.976583	6.023533	7624917.5	2.842369E-8	3.518192E+7	14.737089	0.351969	0	0
0	0	0	8.871293	6.0235	-4.634415	6.0235	5722955.25	1.669204E-8	5.990881E+7	14.752096	0.350092	0	0
0	0	0	8.378967	6.023653	-5.244986	6.023653	4385677.75	-1.484819E-5	-67348.263847	14.710183	0.348505	0	0
0	0	0	7.902772	6.02352	-5.834918	6.02352	3390315	1.137327E-8	8.792545E+7	14.607231	0.346972	0	0
0	0	0	7.435315	6.02358	-6.414456	6.02358	2633267.875	1.607431E-8	6.221107E+7	14.582335	0.344988	0	0
0	0	0	6.983418	6.023493	-6.974373	6.023493	2062541.875	5.764958E-9	1.734618E+8	14.59842	0.343164	0	0
0	0	0	6.54324	6.0236	-7.520209	6.0236	1625780.875	1.365525E-8	7.323191E+7	14.502584	0.341921	0	0
0	0	0	6.1205	6.023527	-8.044015	6.023527	1293644.75	4.568375E-9	2.188962E+8	14.418129	0.340281	0	0
0	0	0	5.706457	6.023739	-8.557713	6.023739	1034213.25	-5.32408E-9	-1.878259E+8	14.421758	0.338232	0	0
0	0	0	5.308627	6.023693	-9.050706	6.023693	834087	-9.286697E-9	-1.076809E+8	14.376809	0.336817	0	0
0	0	0	4.912063	6.023772	-9.542431	6.023772	673146.75	-2.5038E-9	-3.993929E+8	14.29127	0.33531	0	0
0	0	0	4.529669	6.023653	-10.016114	6.023653	547438	-1.836366E-6	-544553.671616	14.275689	0.333578	0	0
0	0	0	4.168061	6.023693	-10.464417	6.023693	450235.875	-5.012898E-9	-1.994854E+8	14.27662	0.331727	0	0
0	0	0	3.816622	6.023732	-10.900117	6.023732	372333.625	-2.076215E-9	-4.816456E+8	14.161386	0.330603	0	0
0	0	0	3.482334	6.023653	-11.314266	6.023653	310778.75	-1.042016E-6	-959678.570682	14.097712	0.328898	0	0
0	0	0	3.158989	6.023474	-11.714602	6.023474	260939.375	6.482488E-10	1.542618E+9	14.125755	0.32706	0	0
0	0	0	2.843935	6.023507	-12.105186	6.023507	220076.75	6.71105E-10	1.49008E+9	14.052802	0.325777	0	0
0	0	0	2.54301	6.02358	-12.478357	6.02358	187036.25	1.14174E-9	8.758558E+8	13.952931	0.324257	0	0
0	0	0	2.254051	6.023613	-12.836599	6.023613	159987.75	1.793203E-9	5.576614E+8	13.946079	0.322459	0	0
0	0	0	1.979343	6.023527	-13.176876	6.023527	137909.25	4.870138E-10	2.05333E+9	13.925278	0.320965	0	0
0	0	0	1.718234	6.023746	-13.501068	6.023746	119754.75	-5.725177E-10	-1.746671E+9	13.834754	0.319629	0	0
0	0	0	1.478482	6.023639	-13.797967	6.023639	105197.625	3.561102E-9	2.808119E+8	13.80112	0.317924	0	0
0	0	0	1.258822	6.02358	-14.070079	6.02358	93419.25	5.702668E-10	1.753565E+9	13.805845	0.316364	0	0
0	0	0	1.068197	6.023646	-14.306524	6.023646	84272	5.763693E-9	1.734999E+8	13.706355	0.315174	0	0
0	0	0	0.89799	6.023414	-14.516897	6.023414	76864.125	1.43188E-10	6.983825E+9	13.645252	0.313455	0	0
0	0	0	0.755838	6.023633	-14.693652	6.023633	71178.75	1.600951E-9	6.246286E+8	13.683856	0.311577	0	0
0	0	0	0.628959	6.023766	-14.851258	6.023766	66460.375	-2.617263E-10	-3.820785E+9	13.614357	0.310572	0	0
0	0	0	0.526255	6.023653	-14.978268	6.023653	62871.125	-2.107051E-7	-4745969.543329	13.507632	0.309131	0	0
0	0	0	0.437966	6.023633	-15.087648	6.023633	59940.875	1.348189E-9	7.417356E+8	13.498057	0.307439	0	0
0	0	0	0.362173	6.023639	-15.181609	6.023639	57534.625	1.947638E-9	5.134425E+8	13.462098	0.306104	0	0
0	0	0	0.296916	6.023633	-15.262476	6.023633	55540.375	1.249213E-9	8.005037E+8	13.360534	0.304795	0	0
0	0	0	0.244686	6.023573	-15.32706	6.023573	53994.25	3.020889E-10	3.310283E+9	13.331347	0.303049	0	0
0	0	0	0.207076	6.023593	-15.373729	6.023593	52907.5	3.948981E-10	2.532299E+9	13.314309	0.301542	0	0
0	0	0	0.171344	6.023673	-15.418224	6.023673	51895.25	-1.151768E-9	-8.682308E+8	13.199466	0.300683	0	0
0	0	0	0.140185	6.023693	-15.456896	6.023693	51028.5	-5.681467E-10	-1.760109E+9	13.157309	0.298964	0	0
0	0	0	0.128465	6.02356	-15.471079	6.02356	50706.25	2.431076E-10	4.113406E+9	13.180829	0.297324	0	0
0	0	0	0.102575	6.023693	-15.503513	6.023693	50001.5	-5.567121E-10	-1.79626E+9	13.08881	0.29624	0	0
0	0	0	0.075459	6.023646	-15.537002	6.023646	49274	3.370046E-9	2.967318E+8	12.998839	0.294773	0	0
0	0	0	0.064311	6.023626	-15.550769	6.023626	48977.875	8.248235E-10	1.212381E+9	13.003247	0.293173	0	0
0	0	0	0.059982	6.023666	-15.556237	6.023666	48863.375	-1.621348E-9	-6.167707E+8	12.925899	0.292049	0	0
0	0	0	0.054347	6.023706	-15.563325	6.023706	48714.75	-4.071273E-10	-2.456234E+9	12.847085	0.290687	0	0
0	0	0	0.043199	6.023805	-15.577402	6.023805	48422.125	-1.409882E-10	-7.092794E+9	12.884826	0.289074	0	0
0	0	0	0.031928	6.0236	-15.590838	6.0236	48128	4.042398E-10	2.473779E+9	12.826224	0.287911	0	0
0	0	0	0.01788	6.023726	-15.608577	6.023726	47763.875	-2.905107E-10	-3.442214E+9	12.698399	0.286787	0	0
0	0	0	0.007957	6.023726	-15.620877	6.023726	47508.375	-2.889567E-10	-3.460726E+9	12.698924	0.284975	0	0
0	0	0	0.001831	6.023586	-15.628108	6.023586	47351.25	3.180131E-10	3.144524E+9	12.653555	0.283799	0	0
0	0	0	-0.002988	6.023646	-15.634236	6.023646	47228.125	3.230121E-9	3.095859E+8	12.537979	0.282794	0	0
0	0	0	-0.006663	6.023639	-15.638774	6.023639	47134.375	1.595573E-9	6.267341E+8	12.55168	0.281062	0	0
0	0	0	-0.007235	6.02358	-15.639327	6.02358	47119.75	2.87637E-10	3.476604E+9	12.498483	0.279859	0	0
0	0	0	-0.008419	6.023626	-15.640916	6.023626	47089.625	7.930239E-10	1.260996E+9	12.365824	0.27888	0	0
0	0	0	-0.010052	6.023832	-15.643474	6.023832	47048	-1.167078E-10	-8.568406E+9	12.364363	0.277201	0	0
0	0	0	-0.010624	6.023699	-15.643839	6.023699	47033.5	-4.490703E-10	-2.226823E+9	12.356073	0.275826	0	0
0	0	0	-0.011768	6.023606	-15.645015	6.023606	47004.5	4.513653E-10	2.2155E+9	12.220325	0.274821	0	0
0	0	0	-0.01238	6.023712	-15.646049	6.023712	46988.875	-3.491666E-10	-2.863963E+9	12.221258	0.273274	0	0
0	0	0	-0.013523	6.023739	-15.647536	6.023739	46959.875	-2.417464E-10	-4.136566E+9	12.190809	0.272031	0	0
0	0	0	-0.014749	6.023726	-15.64902	6.023726	46928.75	-2.854313E-10	-3.503471E+9	12.058251	0.270974	0	0
0	0	0	-0.01626	6.023752	-15.650961	6.023752	46890.5	-2.092469E-10	-4.779043E+9	12.047856	0.269572	0	0
0	0	0	-0.019445	6.023799	-15.65503	6.023799	46809.75	-1.42483E-10	-7.01838E+9	12.040763	0.268356	0	0
0	0	0	-0.020547	6.023686	-15.656104	6.023686	46781.875	-6.246231E-10	-1.600965E+9	11.936913	0.267443	0	0
0	0	0	-0.025039	6.023719	-15.661758	6.023719	46668.375	-3.121757E-10	-3.203324E+9	11.920452	0.265883	0	0
0	0	0	-0.028796	6.023454	-15.665725	6.023454	46573.75	1.041247E-10	9.60387E+9	11.894116	0.26476	0	0
0	0	0	-0.033166	6.023646	-15.671641	6.023646	46463.875	3.177851E-9	3.146781E+8	11.748975	0.263768	0	0
0	0	0	-0.035371	6.02358	-15.674202	6.02358	46408.5	2.832953E-10	3.529886E+9	11.738518	0.262128	0	0
0	0	0	-0.040026	6.023699	-15.680282	6.023699	46291.875	-4.419893E-10	-2.262498E+9	11.693832	0.261163	0	0
0	0	0	-0.045254	6.023739	-15.686864	6.023739	46161.25	-2.376352E-10	-4.208131E+9	11.579573	0.260211	0	0
0	0	0	-0.049051	6.023493	-15.690934	6.023493	46066.625	1.287601E-10	7.76638E+9	11.60208	0.258678	0	0
0	0	0	-0.052114	6.023633	-15.695092	6.023633	45990.375	1.034415E-9	9.6673E+8	11.537145	0.257607	0	0
0	0	0	-0.054523	6.023507	-15.697751	6.023507	45930.5	1.400611E-10	7.13974E+9	11.430223	0.256694	0	0
0	0	0	-0.055871	6.023633	-15.699749	6.023633	45897.125	1.032318E-9	9.686941E+8	11.433773	0.255108	0	0
0	0	0	-0.059138	6.023633	-15.703798	6.023633	45816.125	1.030496E-9	9.704067E+8	11.348672	0.254314	0	0
0	0	0	-0.062405	6.023593	-15.707744	6.023593	45735.25	3.413649E-10	2.929417E+9	11.261036	0.253204	0	0
0	0	0	-0.065141	6.023626	-15.711222	6.023626	45667.625	7.690764E-10	1.300261E+9	11.293042	0.251644	0	0
0	0	0	-0.069674	6.02362	-15.716823	6.02362	45555.875	6.131394E-10	1.630951E+9	11.192375	0.250943	0	0
0	0	0	-0.071307	6.023633	-15.718882	6.023633	45515.625	1.023737E-9	9.768134E+8	11.132774	0.249608	0	0
0	0	0	-0.072532	6.023513	-15.72009	6.023513	45485.5	1.453154E-10	6.881583E+9	11.139879	0.248232	0	0
0	0	0	-0.073594	6.023739	-15.721992	6.023739	45459.5	-2.340226E-10	-4.273091E+9	10.997658	0.247545	0	0
0	0	0	-0.074329	6.02358	-15.722489	6.02358	45441.375	2.773916E-10	3.605012E+9	10.944941	0.24621	0	0
0	0	0	-0.07388	6.023653	-15.722122	6.023653	45452.375	-1.523248E-7	-6564918.435105	10.952149	0.244967	0	0
0	0	0	-0.073104	6.023706	-15.721299	6.023706	45471.5	-3.800223E-10	-2.631425E+9	10.83622	0.244226	0	0
0	0	0	-0.073227	6.023593	-15.721157	6.023593	45468.5	3.393739E-10	2.946603E+9	10.831961	0.242772	0	0
0	0	0	-0.07241	6.023533	-15.71999	6.023533	45488.5	1.695728E-10	5.897174E+9	10.755701	0.24182	0	0
0	0	0	-0.071144	6.023693	-15.718835	6.023693	45519.75	-5.068127E-10	-1.973115E+9	10.635769	0.240881	0	0
0	0	0	-0.069674	6.02352	-15.716564	6.02352	45555.875	1.528245E-10	6.543452E+9	10.640689	0.239387	0	0
0	0	0	-0.068898	6.02356	-15.715706	6.02356	45575	2.185061E-10	4.57653E+9	10.525236	0.238739	0	0
0	0	0	-0.067918	6.02362	-15.714646	6.02362	45599.125	6.137215E-10	1.629404E+9	10.467046	0.237391	0	0
0	0	0	-0.067714	6.023772	-15.71479	6.023772	45604.25	-1.696269E-10	-5.895292E+9	10.479589	0.236267	0	0
0	0	0	-0.066979	6.023626	-15.713499	6.023626	45622.25	7.683123E-10	1.301554E+9	10.369315	0.2355	0	0
0	0	0	-0.065753	6.023659	-15.712067	6.023659	45652.5	-2.999912E-9	-3.333431E+8	10.334834	0.234151	0	0
0	0	0	-0.06559	6.023626	-15.711778	6.023626	45656.5	7.688891E-10	1.300578E+9	10.292062	0.233173	0	0
0	0	0	-0.064243	6.02358	-15.709987	6.02358	45689.875	2.789085E-10	3.585405E+9	10.173025	0.232261	0	0
0	0	0	-0.064978	6.023852	-15.711605	6.023852	45671.625	-1.019718E-10	-9.806637E+9	10.177622	0.230846	0	0
0	0	0	-0.063344	6.023712	-15.709219	6.023712	45712	-3.396783E-10	-2.943962E+9	10.078935	0.230304	0	0
0	0	0	-0.061711	6.023792	-15.707401	6.023792	45752.375	-1.458898E-10	-6.854487E+9	10.0271	0.228942	0	0
0	0	0	-0.060608	6.023712	-15.705827	6.023712	45779.75	-3.401818E-10	-2.939605E+9	10.01196	0.227937	0	0
0	0	0	-0.059996	6.023726	-15.705102	6.023726	45794.875	-2.785348E-10	-3.590216E+9	9.886454	0.227197	0	0
0	0	0	-0.056974	6.023732	-15.701374	6.023732	45869.75	-2.557797E-10	-3.909615E+9	9.907515	0.225742	0	0
0	0	0	-0.055136	6.023706	-15.699027	6.023706	45915.25	-3.837309E-10	-2.605993E+9	9.815135	0.225108	0	0
0	0	0	-0.055177	6.023679	-15.699009	6.023679	45914.25	-7.655359E-10	-1.306274E+9	9.733539	0.223971	0	0
0	0	0	-0.055626	6.023852	-15.700014	6.023852	45903.125	-1.024886E-10	-9.757179E+9	9.738703	0.22282	0	0
0	0	0	-0.057709	6.0236	-15.70194	6.0236	45851.5	3.851189E-10	2.596601E+9	9.593607	0.222186	0	0
0	0	0	-0.056974	6.023653	-15.701167	6.023653	45869.75	-1.537237E-7	-6505178.238698	9.590248	0.220784	0	0
0	0	0	-0.060077	6.023653	-15.705014	6.023653	45792.875	-1.53466E-7	-6516100.0395	9.51755	0.220189	0	0
0	0	0	-0.06314	6.023739	-15.709034	6.023739	45717.125	-2.353488E-10	-4.249012E+9	9.444796	0.219145	0	0
0	0	0	-0.065223	6.023566	-15.711168	6.023566	45665.625	2.358082E-10	4.240735E+9	9.453007	0.217889	0	0
0	0	0	-0.068408	6.023493	-15.714926	6.023493	45587	1.274195E-10	7.848091E+9	9.335482	0.21732	0	0
0	0	0	-0.067469	6.023732	-15.714382	6.023732	45610.25	-2.543327E-10	-3.931858E+9	9.326944	0.215932	0	0
0	0	0	-0.068612	6.023626	-15.715524	6.023626	45582	7.676344E-10	1.302703E+9	9.242422	0.215324	0	0
0	0	0	-0.071838	6.0236	-15.719454	6.0236	45502.625	3.821886E-10	2.616509E+9	9.147395	0.214464	0	0
0	0	0	-0.072369	6.023819	-15.720681	6.023819	45489.625	-1.218623E-10	-8.205987E+9	9.16216	0.213288	0	0
0	0	0	-0.075228	6.023613	-15.723689	6.023613	45419.25	5.090763E-10	1.964342E+9	9.024519	0.212494	0	0
0	0	0	-0.075554	6.023746	-15.724439	6.023746	45411.25	-2.170999E-10	-4.606175E+9	9.032412	0.211252	0	0
0	0	0	-0.077065	6.023839	-15.726553	6.023839	45374.25	-1.085389E-10	-9.213286E+9	8.913475	0.210723	0	0
0	0	0	-0.078985	6.023732	-15.728656	6.023732	45327.125	-2.527539E-10	-3.956418E+9	8.890745	0.209506	0	0
0	0	0	-0.078331	6.023606	-15.727519	6.023606	45343.125	4.354118E-10	2.296677E+9	8.839117	0.208726	0	0
0	0	0	-0.078699	6.023367	-15.727354	6.023367	45334.125	7.069732E-11	1.414481E+10	8.725325	0.208065	0	0
0	0	0	-0.080373	6.023772	-15.730481	6.023772	45293.125	-1.684696E-10	-5.935788E+9	8.752505	0.206796	0	0
0	0	0	-0.081353	6.023593	-15.73123	6.023593	45269.125	3.378858E-10	2.95958E+9	8.614353	0.20632	0	0
0	0	0	-0.081884	6.023527	-15.731715	6.023527	45256.125	1.598179E-10	6.257123E+9	8.620221	0.204905	0	0
0	0	0	-0.08217	6.023593	-15.732242	6.023593	45249.25	3.377374E-10	2.96088E+9	8.519736	0.204403	0	0
0	0	0	-0.08266	6.023626	-15.732936	6.023626	45237.125	7.618265E-10	1.312635E+9	8.472954	0.203279	0	0
0	0	0	-0.082701	6.023653	-15.733055	6.023653	45236.125	-1.516001E-7	-6596300.872616	8.416758	0.202499	0	0
0	0	0	-0.08315	6.023679	-15.733681	6.023679	45225.25	-7.540481E-10	-1.326175E+9	8.306818	0.201679	0	0
0	0	0	-0.082619	6.023633	-15.732902	6.023633	45238.25	1.017498E-9	9.828027E+8	8.304288	0.200754	0	0
0	0	0	-0.083313	6.023693	-15.733918	6.023693	45221.25	-5.034893E-10	-1.98614E+9	8.159363	0.200079	0	0
0	0	0	-0.082742	6.023726	-15.733296	6.023726	45235.25	-2.75131E-10	-3.634632E+9	8.174697	0.198916	0	0
0	0	0	-0.082742	6.023646	-15.733089	6.023646	45235.25	3.09382E-9	3.23225E+8	8.048299	0.198387	0	0
0	0	0	-0.081516	6.023586	-15.731415	6.023586	45265.125	3.040026E-10	3.289445E+9	8.049967	0.197223	0	0
0	0	0	-0.081598	6.023593	-15.731534	6.023593	45263.125	3.37841E-10	2.959972E+9	7.957559	0.196747	0	0
0	0	0	-0.080986	6.0236	-15.730792	6.0236	45278.125	3.803029E-10	2.629483E+9	7.934971	0.19561	0	0
0	0	0	-0.08021	6.023653	-15.729968	6.023653	45297.125	-1.518045E-7	-6587418.553291	7.877309	0.194883	0	0
0	0	0	-0.079638	6.023666	-15.729294	6.023666	45311.125	-1.50348E-9	-6.651236E+8	7.810076	0.193958	0	0
0	0	0	-0.078985	6.023507	-15.72807	6.023507	45327.125	1.382212E-10	7.234781E+9	7.767014	0.193191	0	0
0	0	0	-0.07976	6.023566	-15.729187	6.023566	45308.125	2.339621E-10	4.274196E+9	7.676555	0.192331	0	0
0	0	0	-0.078004	6.023726	-15.727424	6.023726	45351.125	-2.758358E-10	-3.625345E+9	7.668961	0.191498	0	0
0	0	0	-0.077841	6.023659	-15.727049	6.023659	45355.125	-2.980371E-9	-3.355287E+8	7.549296	0.190798	0	0
0	0	0	-0.078372	6.023746	-15.727932	6.023746	45342.125	-2.167694E-10	-4.613197E+9	7.537894	0.189832	0	0
0	0	0	-0.076616	6.023487	-15.725083	6.023487	45385.25	1.217773E-10	8.211709E+9	7.424026	0.189211	0	0
0	0	0	-0.077637	6.023593	-15.726624	6.023593	45360.125	3.38565E-10	2.953643E+9	7.428477	0.188061	0	0
0	0	0	-0.076371	6.023626	-15.725141	6.023626	45391.25	7.644221E-10	1.308178E+9	7.288181	0.187638	0	0
0	0	0	-0.076616	6.023679	-15.725583	6.023679	45385.25	-7.567158E-10	-1.3215E+9	7.295727	0.186435	0	0
0	0	0	-0.07486	6.023533	-15.723027	6.023533	45428.375	1.693486E-10	5.904979E+9	7.17736	0.186011	0	0
0	0	0	-0.072532	6.023732	-15.720659	6.023732	45485.5	-2.53637E-10	-3.942642E+9	7.161161	0.184821	0	0
0	0	0	-0.072328	6.023586	-15.720027	6.023586	45490.5	3.055162E-10	3.273148E+9	7.032417	0.184306	0	0
0	0	0	-0.071062	6.023646	-15.718613	6.023646	45521.75	3.113415E-9	3.211907E+8	7.00716	0.183208	0	0
0	0	0	-0.06849	6.023759	-15.715717	6.023759	45585.125	-1.907238E-10	-5.243185E+9	6.913025	0.182693	0	0
0	0	0	-0.070858	6.023719	-15.718549	6.023719	45526.75	-3.045391E-10	-3.283651E+9	6.889331	0.181701	0	0
0	0	0	-0.070981	6.02362	-15.718442	6.02362	45523.75	6.12707E-10	1.632102E+9	6.758905	0.181278	0	0
0	0	0	-0.072532	6.023706	-15.72059	6.023706	45485.5	-3.801393E-10	-2.630615E+9	6.72959	0.180181	0	0
0	0	0	-0.073717	6.023606	-15.721799	6.023606	45456.375	4.364993E-10	2.290955E+9	6.625859	0.179652	0	0
0	0	0	-0.074697	6.023739	-15.723359	6.023739	45432.375	-2.33883E-10	-4.275643E+9	6.596122	0.178515	0	0
0	0	0	-0.075064	6.023686	-15.723676	6.023686	45423.375	-6.064847E-10	-1.648846E+9	6.468719	0.178078	0	0
0	0	0	-0.076044	6.023706	-15.724943	6.023706	45399.25	-3.794185E-10	-2.635612E+9	6.46523	0.177074	0	0
0	0	0	-0.078454	6.023686	-15.727878	6.023686	45340.125	-6.053731E-10	-1.651874E+9	6.347549	0.176545	0	0
0	0	0	-0.079148	6.023646	-15.728635	6.023646	45323.125	3.09983E-9	3.225983E+8	6.336518	0.175487	0	0
0	0	0	-0.0807	6.023593	-15.73042	6.023593	45285.125	3.380052E-10	2.958534E+9	6.225031	0.175051	0	0
0	0	0	-0.081598	6.023759	-15.731965	6.023759	45263.125	-1.893765E-10	-5.280485E+9	6.217376	0.174072	0	0
0	0	0	-0.081476	6.023819	-15.731968	6.023819	45266.125	-1.212635E-10	-8.246503E+9	6.114665	0.173398	0	0
0	0	0	-0.081271	6.023686	-15.73137	6.023686	45271.125	-6.044518E-10	-1.654391E+9	6.074364	0.172684	0	0
0	0	0	-0.082129	6.023527	-15.732019	6.023527	45250.25	1.597971E-10	6.257936E+9	5.995945	0.171864	0	0
0	0	0	-0.081639	6.023639	-15.731705	6.023639	45262.125	1.532194E-9	6.526587E+8	5.92231	0.171309	0	0
0	0	0	-0.082742	6.023659	-15.733123	6.023659	45235.25	-2.972494E-9	-3.364179E+8	5.863446	0.17037	0	0
0	0	0	-0.082496	6.023726	-15.732992	6.023726	45241.125	-2.751667E-10	-3.63416E+9	5.745964	0.169894	0	0
0	0	0	-0.083599	6.023626	-15.7341	6.023626	45214.25	7.614412E-10	1.313299E+9	5.70425	0.168995	0	0
0	0	0	-0.083762	6.023732	-15.734578	6.023732	45210.25	-2.521022E-10	-3.966646E+9	5.589242	0.168506	0	0
0	0	0	-0.084007	6.02358	-15.734485	6.02358	45204.25	2.759441E-10	3.623923E+9	5.577959	0.167488	0	0
0	0	0	-0.08462	6.023566	-15.73521	6.023566	45189.25	2.333483E-10	4.28544E+9	5.458314	0.166787	0	0
0	0	0	-0.084743	6.023746	-15.735828	6.023746	45186.25	-2.160242E-10	-4.629111E+9	5.388949	0.166139	0	0
0	0	0	-0.084947	6.023613	-15.735736	6.023613	45181.25	5.064087E-10	1.974689E+9	5.326915	0.165293	0	0
0	0	0	-0.084457	6.023659	-15.735249	6.023659	45193.25	-2.969734E-9	-3.367305E+8	5.243677	0.164844	0	0
0	0	0	-0.084865	6.023513	-15.735376	6.023513	45183.25	1.443498E-10	6.927617E+9	5.22799	0.163997	0	0
0	0	0	-0.084579	6.023712	-15.735539	6.023712	45190.25	-3.358013E-10	-2.977952E+9	5.135391	0.163402	0	0
0	0	0	-0.084538	6.02352	-15.734988	6.02352	45191.25	1.516013E-10	6.596248E+9	5.108979	0.162569	0	0
0	0	0	-0.084048	6.023547	-15.73445	6.023547	45203.25	1.895994E-10	5.274277E+9	5.058477	0.161869	0	0
0	0	0	-0.084089	6.02358	-15.734587	6.02358	45202.25	2.759319E-10	3.624083E+9	4.961305	0.16138	0	0
0	0	0	-0.083272	6.023706	-15.733902	6.023706	45222.25	-3.779392E-10	-2.645928E+9	4.889128	0.16056	0	0
0	0	0	-0.083191	6.02358	-15.733473	6.02358	45224.25	2.760662E-10	3.62232E+9	4.791404	0.160018	0	0
0	0	0	-0.082782	6.023613	-15.733053	6.023613	45234.25	5.070028E-10	1.972376E+9	4.72512	0.159264	0	0
0	0	0	-0.08266	6.023766	-15.733298	6.023766	45237.125	-1.781474E-10	-5.613328E+9	4.664849	0.158471	0	0
0	0	0	-0.082864	6.023593	-15.733103	6.023593	45232.25	3.376105E-10	2.961993E+9	4.566611	0.158061	0	0
0	0	0	-0.08266	6.023673	-15.733057	6.023673	45237.125	-1.003996E-9	-9.960194E+8	4.50581	0.157254	0	0
0	0	0	-0.081149	6.02358	-15.730942	6.02358	45274.125	2.763706E-10	3.61833E+9	4.455931	0.156421	0	0
0	0	0	-0.080087	6.023666	-15.72985	6.023666	45300.125	-1.503115E-9	-6.652851E+8	4.341767	0.156038	0	0
0	0	0	-0.080495	6.023566	-15.730098	6.023566	45290.125	2.338692E-10	4.275895E+9	4.271393	0.155311	0	0
0	0	0	-0.080659	6.023706	-15.730663	6.023706	45286.125	-3.78473E-10	-2.642196E+9	4.169508	0.154517	0	0
0	0	0	-0.080577	6.023759	-15.730699	6.023759	45288.125	-1.894811E-10	-5.27757E+9	4.079222	0.154055	0	0
0	0	0	-0.080659	6.023659	-15.730542	6.023659	45286.125	-2.975837E-9	-3.360399E+8	4.025696	0.153314	0	0
0	0	0	-0.080169	6.023639	-15.729883	6.023639	45298.125	1.533413E-9	6.5214E+8	3.947045	0.152627	0	0
0	0	0	-0.077719	6.023752	-15.727139	6.023752	45358.25	-2.024093E-10	-4.940484E+9	3.868531	0.151953	0	0
0	0	0	-0.076371	6.023673	-15.725262	6.023673	45391.25	-1.007417E-9	-9.926375E+8	3.785656	0.151344	0	0
0	0	0	-0.076739	6.023653	-15.725665	6.023653	45382.25	-1.520898E-7	-6575061.418532	3.720604	0.150723	0	0
0	0	0	-0.076044	6.023752	-15.725064	6.023752	45399.25	-2.025923E-10	-4.936022E+9	3.654462	0.150088	0	0
0	0	0	-0.075391	6.02358	-15.723805	6.02358	45415.25	2.772321E-10	3.607086E+9	3.57457	0.149533	0	0
0	0	0	-0.077229	6.023633	-15.726221	6.023633	45370.25	1.020467E-9	9.799433E+8	3.504489	0.148832	0	0
0	0	0	-0.076984	6.023706	-15.726107	6.023706	45376.25	-3.792262E-10	-2.636948E+9	3.467981	0.148303	0	0
0	0	0	-0.077269	6.023706	-15.726461	6.023706	45369.25	-3.791677E-10	-2.637355E+9	3.415947	0.14755	0	0
0	0	0	-0.077841	6.023726	-15.727222	6.023726	45355.125	-2.758601E-10	-3.625026E+9	3.367038	0.146955	0	0
0	0	0	-0.078985	6.023679	-15.728518	6.023679	45327.125	-7.557467E-10	-1.323195E+9	3.337442	0.146558	0	0
0	0	0	-0.079842	6.023553	-15.729254	6.023553	45306.125	2.027166E-10	4.932996E+9	3.353122	0.145712	0	0
0	0	0	-0.081476	6.023845	-15.732037	6.023845	45266.125	-1.04549E-10	-9.564889E+9	3.325599	0.144971	0	0
0	0	0	-0.081802	6.023633	-15.73189	6.023633	45258.125	1.017945E-9	9.823711E+8	3.26575	0.144641	0	0
0	0	0	-0.082251	6.023646	-15.732481	6.023646	45247.125	3.094632E-9	3.231402E+8	3.260991	0.143993	0	0
0	0	0	-0.083027	6.023779	-15.733788	6.023779	45228.25	-1.593835E-10	-6.274174E+9	3.226866	0.143266	0	0
0	0	0	-0.083027	6.023785	-15.733805	6.023785	45228.25	-1.514223E-10	-6.604047E+9	3.197047	0.142803	0	0
0	0	0	-0.083313	6.023586	-15.733642	6.023586	45221.25	3.03708E-10	3.292637E+9	3.187657	0.142287	0	0
0	0	0	-0.083109	6.023586	-15.733389	6.023586	45226.25	3.037415E-10	3.292273E+9	3.16712	0.141388	0	0
0	0	0	-0.083395	6.023732	-15.734123	6.023732	45219.25	-2.521524E-10	-3.965856E+9	3.150208	0.140793	0	0
0	0	0	-0.083926	6.023487	-15.734143	6.023487	45206.25	1.21297E-10	8.244225E+9	3.115026	0.140463	0	0
0	0	0	-0.084661	6.023566	-15.735261	6.023566	45188.25	2.333431E-10	4.285535E+9	3.061055	0.139921	0	0
0	0	0	-0.084702	6.023606	-15.735415	6.023606	45187.25	4.33915E-10	2.304599E+9	3.063343	0.139154	0	0
0	0	0	-0.08413	6.023487	-15.734396	6.023487	45201.25	1.212836E-10	8.245136E+9	3.016904	0.138652	0	0
0	0	0	-0.084906	6.023553	-15.73553	6.023553	45182.25	2.021623E-10	4.946521E+9	3.018286	0.138083	0	0
0	0	0	-0.085233	6.023693	-15.736297	6.023693	45174.375	-5.029674E-10	-1.988201E+9	2.997311	0.137382	0	0
0	0	0	-0.085845	6.023706	-15.737091	6.023706	45159.375	-3.774137E-10	-2.649612E+9	2.977489	0.136774	0	0
0	0	0	-0.085559	6.023766	-15.736892	6.023766	45166.375	-1.778688E-10	-5.622121E+9	2.934759	0.13647	0	0
0	0	0	-0.085233	6.023653	-15.736194	6.023653	45174.375	-1.513932E-7	-6605317.548206	2.88972	0.135743	0	0
0	0	0	-0.085927	6.023719	-15.737227	6.023719	45157.375	-3.020683E-10	-3.31051E+9	2.834836	0.135187	0	0
0	0	0	-0.085886	6.023593	-15.736848	6.023593	45158.375	3.370591E-10	2.966838E+9	2.831509	0.134725	0	0
0	0	0	-0.08511	6.023626	-15.735973	6.023626	45177.25	7.608181E-10	1.314375E+9	2.816858	0.134183	0	0
0	0	0	-0.085682	6.023699	-15.736871	6.023699	45163.375	-4.312146E-10	-2.319031E+9	2.788798	0.133363	0	0
0	0	0	-0.084252	6.023626	-15.73491	6.023626	45198.25	7.611718E-10	1.313764E+9	2.749554	0.132979	0	0
0	0	0	-0.084293	6.023759	-15.735305	6.023759	45197.25	-1.891009E-10	-5.288182E+9	2.717846	0.132596	0	0
0	0	0	-0.084007	6.023666	-15.73471	6.023666	45204.25	-1.499934E-9	-6.666962E+8	2.677823	0.131948	0	0
0	0	0	-0.084048	6.023726	-15.734915	6.023726	45203.25	-2.749364E-10	-3.637205E+9	2.663023	0.131274	0	0
0	0	0	-0.083599	6.023566	-15.733945	6.023566	45214.25	2.334774E-10	4.28307E+9	2.632716	0.130679	0	0
0	0	0	-0.083722	6.023666	-15.734355	6.023666	45211.25	-1.500166E-9	-6.665929E+8	2.61369	0.130176	0	0
0	0	0	-0.083109	6.023593	-15.733406	6.023593	45226.25	3.375658E-10	2.962386E+9	2.603442	0.129436	0	0
0	0	0	-0.083027	6.023805	-15.733857	6.023805	45228.25	-1.316887E-10	-7.593664E+9	2.590117	0.129039	0	0
0	0	0	-0.082537	6.023766	-15.733146	6.023766	45240.25	-1.781597E-10	-5.61294E+9	2.558009	0.128484	0	0
0	0	0	-0.082619	6.02354	-15.732661	6.02354	45238.25	1.785715E-10	5.599996E+9	2.514629	0.127823	0	0
0	0	0	-0.081802	6.023679	-15.732011	6.023679	45258.125	-7.545963E-10	-1.325212E+9	2.470901	0.127347	0	0
0	0	0	-0.082496	6.023593	-15.732647	6.023593	45241.125	3.376768E-10	2.961412E+9	2.440488	0.126884	0	0
0	0	0	-0.081312	6.023699	-15.731455	6.023699	45270.125	-4.322338E-10	-2.313563E+9	2.411669	0.126329	0	0
0	0	0	-0.081761	6.023693	-15.731995	6.023693	45259.25	-5.039124E-10	-1.984472E+9	2.402505	0.125985	0	0
0	0	0	-0.0807	6.02362	-15.730489	6.02362	45285.125	6.094953E-10	1.640702E+9	2.389684	0.125192	0	0
0	0	0	-0.079515	6.023639	-15.729073	6.023639	45314.125	1.533955E-9	6.519097E+8	2.346758	0.124822	0	0
0	0	0	-0.07923	6.023639	-15.728719	6.023639	45321.125	1.534192E-9	6.51809E+8	2.320099	0.124319	0	0
0	0	0	-0.079107	6.023613	-15.728498	6.023613	45324.125	5.080101E-10	1.968465E+9	2.286576	0.123843	0	0
0	0	0	-0.078944	6.023839	-15.728882	6.023839	45328.125	-1.084286E-10	-9.222661E+9	0	0	0	0
0	0	0	-0.079679	6.023586	-15.729137	6.023586	45310.125	3.043048E-10	3.286178E+9	0	0	0	0
0	0	0	-0.07923	6.023586	-15.728581	6.023586	45321.125	3.043787E-10	3.285381E+9	0	0	0	0
0	0	0	-0.079556	6.023686	-15.729244	6.023686	45313.125	-6.050126E-10	-1.652858E+9	0	0	0	0
0	0	0	-0.079556	6.023566	-15.728934	6.023566	45313.125	2.339879E-10	4.273725E+9	0	0	0	0
0	0	0	-0.080822	6.023666	-15.730762	6.023666	45282.125	-1.502518E-9	-6.655496E+8	0	0	0	0
0	0	0	-0.081966	6.023513	-15.731782	6.023513	45254.25	1.445766E-10	6.916748E+9	0	0	0	0
0	0	0	-0.082006	6.02356	-15.731954	6.02356	45253.125	2.169629E-10	4.609082E+9	0	0	0	0
0	0	0	-0.082946	6.023785	-15.733704	6.023785	45230.25	-1.51429E-10	-6.603755E+9	0	0	0	0
0	0	0	-0.083191	6.02362	-15.733577	6.02362	45224.25	6.08676E-10	1.64291E+9	0	0	0	0
0	0	0	-0.083395	6.023613	-15.733812	6.023613	45219.25	5.068347E-10	1.97303E+9	0	0	0	0
0	0	0	-0.083762	6.023659	-15.734389	6.023659	45210.25	-2.970851E-9	-3.366039E+8	0	0	0	0
0	0	0	-0.083762	6.023566	-15.734147	6.023566	45210.25	2.334567E-10	4.283449E+9	0	0	0	0
0	0	0	-0.084375	6.023819	-15.735562	6.023819	45195.25	-1.210736E-10	-8.259436E+9	0	0	0	0
0	0	0	-0.084865	6.023719	-15.735911	6.023719	45183.25	-3.022414E-10	-3.308614E+9	0	0	0	0
0	0	0	-0.084661	6.023659	-15.735502	6.023659	45188.25	-2.969405E-9	-3.367678E+8	0	0	0	0
0	0	0	-0.084579	6.023467	-15.734901	6.023467	45190.25	1.082533E-10	9.237593E+9	0	0	0	0
0	0	0	-0.084783	6.023719	-15.735809	6.023719	45185.25	-3.022547E-10	-3.308468E+9	0	0	0	0
0	0	0	-0.084743	6.02356	-15.735345	6.02356	45186.25	2.166423E-10	4.615904E+9	0	0	0	0
0	0	0	-0.084988	6.023706	-15.736028	6.023706	45180.375	-3.775892E-10	-2.648381E+9	0	0	0	0
0	0	0	-0.085845	0	-0.085845	0	45159.375	0	0	0	0	0	0
0	0	0	-0.08609	0	-0.08609	0	45153.375	0	0	0	0	0	0
