Vload_(V)	ILoad_(A)	RsLoad (ohm)	SunsVoc_Voltage_(V)	SunsVoc_Current_(A)	Model_Voltage_(V)	Model_Current_(A)	Carrier_Density_(cm-3)	Lifetime_(s)	Inverse_Lifetime_(s-1)	Efficiency_(%)	Intensity_(suns)	Dark_IV_Voltage_(V)	Dark_IV_Current_(A)
3.00266	6.024763	0	50.420057	-0.052078	50.453003	-0.052078	6.389757E+15	0.000468	2070.114837	19.032855	1.201478	0	0
2.992122	6.024076	3.10424	51.98124	-0.785813	52.446859	-0.785813	1.011734E+16	0.000661	1343.327908	18.999675	1.201419	0	0
3.066331	6.025053	-0.532869	52.445184	-0.950296	52.996945	-0.950296	1.156638E+16	0.000738	1133.556636	18.92052	1.201002	0	0
3.701197	6.023625	3.436812	52.542539	-0.760545	52.982225	-0.760545	1.189432E+16	0.00078	1047.547869	18.872495	1.200586	0	0
5.72073	6.020487	4.146407	52.503662	-0.463439	52.772049	-0.463439	1.176232E+16	0.000806	1010.339835	18.896591	1.198643	0	0
8.210958	6.014819	4.366956	52.423582	-0.10872	52.486767	-0.10872	1.149478E+16	0.000834	980.158877	18.908356	1.19668	0	0
10.738114	5.991251	4.723215	52.315528	0.268086	52.158979	0.268086	1.114288E+16	0.000861	955.246212	18.847143	1.193924	0	0
12.713917	5.978422	4.577228	52.199838	0.618045	51.837095	0.618045	1.077738E+16	0.000887	934.936611	18.759948	1.192358	0	0
14.781208	5.974088	4.281553	52.082596	0.950635	51.521788	0.950635	1.041851E+16	0.000913	914.64777	18.738762	1.190137	0	0
16.87613	5.973129	3.941663	51.958085	1.264092	51.208318	1.264092	1.004969E+16	0.000939	897.242902	18.768649	1.188531	0	0
19.096907	5.9716	3.585224	51.840108	1.556073	50.912445	1.556073	9.711553E+15	0.000967	877.826417	18.773497	1.186608	0	0
21.297748	5.975735	3.172962	51.713923	1.836882	50.612902	1.836882	9.361692E+15	0.000994	860.130904	18.719082	1.185319	0	0
23.468495	5.974695	2.821634	51.583941	2.094141	50.32173	2.094141	9.013634E+15	0.00102	845.41948	18.697722	1.183177	0	0
25.651287	5.970709	2.496926	51.460124	2.329387	50.048716	2.329387	8.693339E+15	0.001046	830.120163	18.741404	1.180362	0	0
27.761858	5.971283	2.137504	51.342106	2.544423	49.792695	2.544423	8.397927E+15	0.001073	814.55404	18.794337	1.176793	0	0
29.939215	5.966818	1.815146	51.222863	2.750501	49.53954	2.750501	8.108935E+15	0.001102	798.545406	18.76422	1.173521	0	0
32.134541	5.964049	1.471427	51.097658	2.945467	49.285546	2.945467	7.815428E+15	0.001129	784.31403	18.695967	1.170468	0	0
32.842837	5.963117	1.360783	50.97764	3.120346	49.048321	3.120346	7.543325E+15	0.001155	771.085106	18.6793	1.167474	0	0
33.556029	5.96411	1.232549	50.858193	3.2843	48.817427	3.2843	7.281217E+15	0.001182	758.074175	18.719257	1.164143	0	0
34.246354	5.960543	1.146531	50.743197	3.43697	48.597418	3.43697	7.036819E+15	0.00121	744.49675	18.74362	1.160475	0	0
34.953196	5.957872	1.049375	50.625628	3.581524	48.378789	3.581524	6.794761E+15	0.001237	731.680589	18.69876	1.157699	0	0
35.653357	5.953358	0.96673	50.506916	3.716598	48.164011	3.716598	6.55811E+15	0.001264	719.794406	18.650379	1.154923	0	0
36.369528	5.950042	0.870039	50.393186	3.839487	47.961601	3.839487	6.338481E+15	0.00129	708.327721	18.667377	1.152326	0	0
37.071969	5.93725	0.83401	50.273372	3.957725	47.754728	3.957725	6.114374E+15	0.001316	697.895926	18.735358	1.148558	0	0
37.774745	5.91561	0.832284	50.160214	4.067432	47.559936	4.067432	5.909362E+15	0.001343	686.619269	18.749467	1.14489	0	0
38.475761	5.893548	0.81052	50.043299	4.172833	47.363111	4.172833	5.704115E+15	0.00137	675.829571	18.715924	1.140826	0	0
39.171113	5.869385	0.780519	49.922749	4.270616	47.166537	4.270616	5.499267E+15	0.001395	666.854765	18.690149	1.136741	0	0
39.873012	5.828227	0.781877	49.809509	4.361154	46.982184	4.361154	5.312916E+15	0.001421	657.041878	18.71715	1.132597	0	0
40.581834	5.784839	0.763443	49.694268	4.446755	46.798289	4.446755	5.129132E+15	0.001446	647.932352	18.749995	1.128433	0	0
41.276328	5.72737	0.754342	49.581151	4.527966	46.619131	4.527966	4.954312E+15	0.001472	638.414384	18.724913	1.124567	0	0
41.983699	5.656267	0.741823	49.467911	4.60144	46.444448	4.60144	4.784671E+15	0.001495	630.716003	18.672086	1.121137	0	0
42.677975	5.565796	0.732713	49.355978	4.672461	46.27242	4.672461	4.622111E+15	0.00152	622.232113	18.664703	1.117627	0	0
43.37512	5.461642	0.713977	49.242616	4.737648	46.102247	4.737648	4.462514E+15	0.001542	615.322767	18.720009	1.113543	0	0
44.056172	5.331238	0.700179	49.134399	4.798675	45.940243	4.798675	4.314755E+15	0.001565	607.884529	18.751565	1.109498	0	0
44.719078	5.17425	0.688302	49.017933	4.85782	45.769881	4.85782	4.160598E+15	0.001586	601.765695	18.72187	1.105354	0	0
45.398141	4.995661	0.665999	48.913718	4.912094	45.616232	4.912094	4.026811E+15	0.00161	594.233135	18.672025	1.101686	0	0
46.056574	4.778271	0.649646	48.798518	4.965644	45.450396	4.965644	3.883354E+15	0.001631	588.064264	18.688088	1.097938	0	0
46.705601	4.512154	0.639071	48.689892	5.015169	45.294389	5.015169	3.752226E+15	0.001653	581.481402	18.7458	1.093973	0	0
47.348032	4.213166	0.623751	48.579389	5.060624	45.138751	5.060624	3.622838E+15	0.001672	576.46278	18.75441	1.090205	0	0
47.971485	3.861537	0.616652	48.471294	5.107142	44.984854	5.107142	3.500069E+15	0.001697	569.021596	18.72084	1.086339	0	0
48.594226	3.480223	0.601543	48.359034	5.148671	44.829403	5.148671	3.376433E+15	0.001714	564.364238	18.689114	1.083107	0	0
49.195833	3.049426	0.595568	48.253145	5.18826	44.682267	5.18826	3.263319E+15	0.001735	558.557917	18.733514	1.079122	0	0
49.750374	2.604272	0.591801	48.137373	5.226886	44.524372	5.226886	3.143432E+15	0.001753	554.186756	18.790256	1.074621	0	0
50.299275	2.125062	0.59915	48.034669	5.261273	44.384024	5.261273	3.040292E+15	0.001771	549.177229	18.782462	1.070695	0	0
50.817485	1.638338	0.551165	47.92	5.295211	44.230215	5.295211	2.928608E+15	0.001786	545.761724	18.731911	1.067106	0	0
51.297557	1.164143	0.50117	47.813825	5.326448	44.087752	5.326448	2.82837E+15	0.001802	541.738886	18.714841	1.06326	0	0
51.717304	0.730312	0.385895	47.703811	5.356569	43.941536	5.356569	2.727637E+15	0.001816	538.340889	18.761691	1.059116	0	0
42.352444	5.612908	0.733968	47.596084	5.386432	43.797934	5.386432	2.631998E+15	0.001834	533.696335	18.793622	1.055269	0	0
52.168628	0	0	47.482354	5.414809	43.648382	5.414809	2.53416E+15	0.001848	530.411719	18.773271	1.051185	0	0
0	0	0	47.375853	5.440311	43.508945	5.440311	2.445374E+15	0.001861	527.347315	18.724344	1.047735	0	0
0	0	0	47.263634	5.465705	43.362927	5.465705	2.354703E+15	0.001874	524.514845	18.723125	1.044542	0	0
0	0	0	47.161297	5.488089	43.230195	5.488089	2.274526E+15	0.001885	521.822399	18.779257	1.040755	0	0
0	0	0	47.049201	5.511625	43.085375	5.511625	2.189371E+15	0.001898	518.917213	18.810286	1.036968	0	0
0	0	0	46.941596	5.532117	42.947748	5.532117	2.110184E+15	0.001905	517.424295	18.778913	1.033855	0	0
0	0	0	46.835911	5.552302	42.812423	5.552302	2.034778E+15	0.001916	515.091915	18.740572	1.030742	0	0
0	0	0	46.727041	5.5715	42.674066	5.5715	1.959487E+15	0.001923	513.622671	18.763617	1.027451	0	0
0	0	0	46.61862	5.590724	42.536095	5.590724	1.88685E+15	0.001934	511.200407	18.825698	1.023902	0	0
0	0	0	46.512404	5.608006	42.401965	5.608006	1.817897E+15	0.00194	509.868665	18.84969	1.020234	0	0
0	0	0	46.403738	5.625671	42.264653	5.625671	1.749553E+15	0.00195	507.706742	18.812928	1.017081	0	0
0	0	0	46.296827	5.64072	42.131186	5.64072	1.684424E+15	0.001951	507.821011	18.784121	1.01375	0	0
0	0	0	46.194491	5.655055	42.003403	5.655055	1.623992E+15	0.001954	507.382919	18.811139	1.01024	0	0
0	0	0	46.082476	5.670344	41.863748	5.670344	1.55993E+15	0.001958	506.70529	18.856649	1.006334	0	0
0	0	0	45.982222	5.683165	41.739325	5.683165	1.504393E+15	0.001959	506.684528	18.857423	1.002527	0	0
0	0	0	45.870738	5.696869	41.601302	5.696869	1.444577E+15	0.00196	506.787527	18.80898	0.998899	0	0
0	0	0	45.764114	5.70946	41.46961	5.70946	1.389232E+15	0.00196	507.002241	18.778833	0.995489	0	0
0	0	0	45.658797	5.721492	41.33977	5.721492	1.336306E+15	0.00196	507.208272	18.816646	0.99192	0	0
0	0	0	45.549314	5.733424	41.205162	5.733424	1.283071E+15	0.001959	507.701892	18.859119	0.988152	0	0
0	0	0	45.442649	5.744167	41.074624	5.744167	1.23291E+15	0.001955	509.090044	18.846451	0.984425	0	0
0	0	0	45.336759	5.753955	40.945647	5.753955	1.184733E+15	0.001946	511.515756	18.794627	0.981094	0	0
0	0	0	45.227521	5.765077	40.81175	5.765077	1.136678E+15	0.001947	511.428577	18.777804	0.977783	0	0
0	0	0	45.118406	5.774832	40.678983	5.774832	1.0903E+15	0.001941	513.333781	18.821035	0.974114	0	0
0	0	0	45.011904	5.784077	40.549557	5.784077	1.046556E+15	0.001934	515.170753	18.866534	0.970089	0	0
0	0	0	44.897848	5.793921	40.410937	5.793921	1.001331E+15	0.00193	516.573945	18.835917	0.966659	0	0
0	0	0	44.795593	5.801887	40.287279	5.801887	9.621748E+14	0.00192	519.180564	18.788511	0.963408	0	0
0	0	0	44.682598	5.810409	40.150803	5.810409	9.203912E+14	0.00191	522.134937	18.776743	0.960156	0	0
0	0	0	44.576545	5.818495	40.022599	5.818495	8.825556E+14	0.001903	524.096284	18.829607	0.956547	0	0
0	0	0	44.466654	5.825626	39.890688	5.825626	8.447224E+14	0.001887	528.758629	18.865311	0.952859	0	0
0	0	0	44.359948	5.833387	39.761904	5.833387	8.09286E+14	0.001881	530.504757	18.842765	0.94929	0	0
0	0	0	44.246504	5.8408	39.625602	5.8408	7.729779E+14	0.001869	534.009	18.785856	0.946276	0	0
0	0	0	44.141186	5.847633	39.499065	5.847633	7.404962E+14	0.00186	536.817738	18.784044	0.942906	0	0
0	0	0	44.026068	5.854638	39.36108	5.854638	7.063036E+14	0.001847	540.636022	18.838084	0.939198	0	0
0	0	0	43.924222	5.859628	39.239934	5.859628	6.771638E+14	0.001824	547.438007	18.87199	0.935312	0	0
0	0	0	43.810696	5.866494	39.103818	5.866494	6.458767E+14	0.001815	550.163993	18.834697	0.931842	0	0
0	0	0	43.702683	5.871835	38.975234	5.871835	6.17245E+14	0.001795	556.326309	18.781681	0.92863	0	0
0	0	0	43.590913	5.877855	38.841748	5.877855	5.887499E+14	0.001783	560.351351	18.786052	0.925556	0	0
0	0	0	43.480042	5.883972	38.709184	5.883972	5.615889E+14	0.001774	563.048499	18.834372	0.921869	0	0
0	0	0	43.367047	5.888219	38.57566	5.888219	5.350062E+14	0.001743	573.251402	18.859586	0.918161	0	0
0	0	0	43.259116	5.893424	38.447161	5.893424	5.106196E+14	0.001729	577.781195	18.818938	0.914869	0	0
0	0	0	43.142773	5.898893	38.30873	5.898893	4.853983E+14	0.001715	582.537615	18.775421	0.912014	0	0
0	0	0	43.035617	5.903042	38.181933	5.903042	4.631174E+14	0.001693	590.481134	18.790214	0.908525	0	0
0	0	0	42.918702	5.907609	38.043527	5.907609	4.398123E+14	0.00167	598.480207	18.83486	0.905015	0	0
0	0	0	42.807954	5.912434	37.911983	5.912434	4.186731E+14	0.001658	602.836831	18.860793	0.901387	0	0
0	0	0	42.694142	5.916228	37.77774	5.916228	3.978681E+14	0.001631	612.965833	18.819581	0.898174	0	0
0	0	0	42.582944	5.918979	37.647355	5.918979	3.784112E+14	0.001591	628.178747	18.770666	0.895081	0	0
0	0	0	42.468928	5.922865	37.512759	5.922865	3.593248E+14	0.001569	637.271537	18.784869	0.891968	0	0
0	0	0	42.35822	5.927489	37.381332	5.927489	3.416009E+14	0.001562	639.940839	18.837738	0.88838	0	0
0	0	0	42.232321	5.931832	37.23261	5.931832	3.223792E+14	0.001543	647.843576	18.855459	0.884811	0	0
0	0	0	42.116223	5.934608	37.09648	5.934608	3.05503E+14	0.001507	663.231065	18.811045	0.881638	0	0
0	0	0	42.004289	5.937468	36.965062	5.937468	2.899753E+14	0.001478	676.601675	18.771034	0.878406	0	0
0	0	0	41.888559	5.940814	36.828837	5.940814	2.746599E+14	0.001455	686.962807	18.784247	0.875214	0	0
0	0	0	41.779239	5.944518	36.699676	5.944518	2.608582E+14	0.001446	691.40937	18.828781	0.871843	0	0
0	0	0	41.654075	5.948275	36.552184	5.948275	2.458191E+14	0.00143	699.36751	18.85345	0.868136	0	0
0	0	0	41.543285	5.95037	36.42267	5.95037	2.331607E+14	0.001394	717.153653	18.807478	0.864864	0	0
0	0	0	41.428289	5.952658	36.288128	5.952658	2.206452E+14	0.001361	734.538708	18.760088	0.862048	0	0
0	0	0	41.314151	5.955013	36.154504	5.955013	2.088264E+14	0.001332	750.776812	18.766007	0.858995	0	0
0	0	0	41.203239	5.957715	36.024284	5.957715	1.978948E+14	0.001313	761.569277	18.817614	0.855505	0	0
0	0	0	41.082567	5.960872	35.882397	5.960872	1.86595E+14	0.001299	769.66591	18.82687	0.852234	0	0
0	0	0	40.973656	5.963394	35.754608	5.963394	1.76906E+14	0.001282	779.772209	18.783703	0.849101	0	0
0	0	0	40.854576	5.965488	35.615456	5.965488	1.668421E+14	0.001252	798.608949	18.7417	0.846285	0	0
0	0	0	40.740111	5.967147	35.481995	5.967147	1.576675E+14	0.001217	821.428166	18.760702	0.843212	0	0
0	0	0	40.625687	5.969358	35.348084	5.969358	1.489639E+14	0.001196	836.067111	18.812078	0.839762	0	0
0	0	0	40.503422	5.971342	35.205318	5.971342	1.401576E+14	0.001167	856.776638	18.819932	0.836471	0	0
0	0	0	40.389366	5.973332	35.072002	5.973332	1.323814E+14	0.001145	873.330703	18.775178	0.833437	0	0
0	0	0	40.268939	5.975794	34.930904	5.975794	1.246091E+14	0.001132	883.383899	18.730703	0.830522	0	0
0	0	0	40.154106	5.977942	34.796526	5.977942	1.175977E+14	0.001117	894.992282	18.730694	0.827727	0	0
0	0	0	40.036701	5.979768	34.659458	5.979768	1.108134E+14	0.001096	912.758141	18.786084	0.824178	0	0
0	0	0	39.914191	5.981195	34.516849	5.981195	1.041282E+14	0.001063	940.549594	18.799389	0.821005	0	0
0	0	0	39.802176	5.982477	34.386471	5.982477	9.835092E+13	0.001035	966.49931	18.75368	0.818091	0	0
0	0	0	39.67934	5.983774	34.243587	5.983774	9.236504E+13	0.001002	997.579474	18.707329	0.815453	0	0
0	0	0	39.561077	5.985036	34.106003	5.985036	8.693031E+13	0.000973	1027.321405	18.714444	0.812539	0	0
0	0	0	39.441344	5.986222	33.966784	5.986222	8.173914E+13	0.000943	1059.937089	18.764511	0.809188	0	0
0	0	0	39.316344	5.988012	33.820927	5.988012	7.663605E+13	0.000928	1078.020555	18.774821	0.806115	0	0
0	0	0	39.199714	5.989307	33.685172	5.989307	7.215088E+13	0.000905	1104.679968	18.735801	0.80322	0	0
0	0	0	39.076102	5.99074	33.541226	5.99074	6.76725E+13	0.000885	1130.195558	18.697116	0.800503	0	0
0	0	0	38.951428	5.992424	33.395812	5.992424	6.342706E+13	0.000872	1146.156838	18.700233	0.797727	0	0
0	0	0	38.830796	5.993791	33.255347	5.993791	5.956437E+13	0.000856	1168.884393	18.745148	0.794634	0	0
0	0	0	38.703836	5.995092	33.107632	5.995092	5.574468E+13	0.000836	1196.522151	18.772179	0.791502	0	0
0	0	0	38.580223	5.995973	32.964166	5.995973	5.225411E+13	0.000807	1238.566509	18.725888	0.788765	0	0
0	0	0	38.451139	5.997083	32.814164	5.997083	4.883547E+13	0.000785	1274.145557	18.679142	0.786029	0	0
0	0	0	38.327935	5.997941	32.671179	5.997941	4.577579E+13	0.000759	1317.198229	18.675958	0.783214	0	0
0	0	0	38.196931	5.998788	32.519196	5.998788	4.272714E+13	0.000732	1366.589011	18.71389	0.780458	0	0
0	0	0	38.064457	5.999592	32.365554	5.999592	3.984583E+13	0.000704	1420.086246	18.746562	0.777206	0	0
0	0	0	37.934474	6.000469	32.21471	6.000469	3.720345E+13	0.000681	1467.939482	18.707614	0.77441	0	0
0	0	0	37.804614	6.001168	32.064172	6.001168	3.473492E+13	0.000655	1526.999474	18.654297	0.771912	0	0
0	0	0	37.674263	6.001985	31.912952	6.001985	3.241858E+13	0.000633	1579.470168	18.648138	0.769176	0	0
0	0	0	37.53693	6.0028	31.753668	6.0028	3.014202E+13	0.00061	1638.028331	18.68238	0.766261	0	0
0	0	0	37.403599	6.00396	31.598664	6.00396	2.808225E+13	0.0006	1665.300637	18.717965	0.763049	0	0
0	0	0	37.264672	6.004885	31.437422	6.004885	2.608327E+13	0.000584	1713.159035	18.687523	0.760451	0	0
0	0	0	37.130198	6.005767	31.281353	6.005767	2.428197E+13	0.000569	1758.629244	18.632442	0.757735	0	0
0	0	0	36.987923	6.006793	31.116135	6.006793	2.250957E+13	0.000557	1794.6707	18.612515	0.755058	0	0
0	0	0	36.85157	6.007507	30.95805	6.007507	2.093091E+13	0.00054	1853.287575	18.648096	0.752223	0	0
0	0	0	36.708927	6.0083	30.792623	6.0083	1.939639E+13	0.000524	1908.010611	18.677245	0.749269	0	0
0	0	0	36.567184	6.009037	30.628283	6.009037	1.798175E+13	0.000509	1965.987606	18.660846	0.746413	0	0
0	0	0	36.41911	6.009727	30.456678	6.009727	1.661288E+13	0.000492	2034.579384	18.595229	0.743757	0	0
0	0	0	36.27267	6.010381	30.286989	6.010381	1.536065E+13	0.000475	2104.771998	18.566339	0.741278	0	0
0	0	0	36.121166	6.01078	30.111704	6.01078	1.41635E+13	0.000451	2219.392987	18.591484	0.738562	0	0
0	0	0	35.971623	6.011461	29.938396	6.011461	1.307262E+13	0.000437	2287.3754	18.637979	0.735409	0	0
0	0	0	35.815831	6.011904	29.75811	6.011904	1.202475E+13	0.000416	2403.97119	18.62416	0.732574	0	0
0	0	0	35.661346	6.012265	29.579413	6.012265	1.106806E+13	0.000394	2538.510039	18.569037	0.729996	0	0
0	0	0	35.501716	6.0127	29.394696	6.0127	1.015888E+13	0.000375	2669.358461	18.529418	0.727458	0	0
0	0	0	35.342576	6.013058	29.210621	6.013058	9.326409E+12	0.000354	2821.235994	18.548384	0.724762	0	0
0	0	0	35.178127	6.013547	29.020281	6.013547	8.537381E+12	0.000339	2953.373674	18.58442	0.721669	0	0
0	0	0	35.013474	6.013866	28.829874	6.013866	7.81392E+12	0.000319	3134.87396	18.576147	0.718912	0	0
0	0	0	34.846656	6.013989	28.637171	6.013989	7.143164E+12	0.000295	3390.801172	18.525572	0.716295	0	0
0	0	0	34.674979	6.014281	28.43868	6.014281	6.512689E+12	0.000276	3618.190841	18.479412	0.713896	0	0
0	0	0	34.505303	6.014717	28.242345	6.014717	5.944054E+12	0.000263	3799.171974	18.487396	0.711318	0	0
0	0	0	34.32942	6.015077	28.038922	6.015077	5.406787E+12	0.000248	4027.149016	18.52562	0.708344	0	0
0	0	0	34.150556	6.015476	27.832012	6.015476	4.910038E+12	0.000235	4251.726294	18.54432	0.705568	0	0
0	0	0	33.968915	6.015615	27.622168	6.015615	4.452128E+12	0.000217	4618.886939	18.494308	0.702951	0	0
0	0	0	33.783394	6.016119	27.407457	6.016119	4.028379E+12	0.000207	4823.745699	18.444422	0.700512	0	0
0	0	0	33.597098	6.016433	27.192047	6.016433	3.643343E+12	0.000195	5139.619673	18.435391	0.698093	0	0
0	0	0	33.401082	6.016657	26.96551	6.016657	3.277802E+12	0.00018	5559.316548	18.473897	0.695199	0	0
0	0	0	33.206332	6.017137	26.740156	6.017137	2.950883E+12	0.000172	5809.264844	18.495283	0.692343	0	0
0	0	0	33.010031	6.01723	26.513425	6.01723	2.65429E+12	0.000157	6380.046652	18.458486	0.689726	0	0
0	0	0	32.794945	6.017813	26.264474	6.017813	2.363378E+12	0.000151	6611.079029	18.40268	0.687386	0	0
0	0	0	32.584963	6.018189	26.021635	6.018189	2.110114E+12	0.000143	7003.120291	18.380359	0.685106	0	0
0	0	0	32.374899	6.018364	25.778918	6.018364	1.883875E+12	0.000131	7635.579517	18.41033	0.682469	0	0
0	0	0	32.152258	6.018618	25.521591	6.018618	1.670481E+12	0.000121	8269.400293	18.446702	0.679693	0	0
0	0	0	31.934599	6.019144	25.269712	6.019144	1.485228E+12	0.000118	8504.778904	18.434465	0.677036	0	0
0	0	0	31.712081	6.019358	25.012564	6.019358	1.31704E+12	0.000108	9226.050997	18.368892	0.674717	0	0
0	0	0	31.485356	6.019749	24.750358	6.019749	1.165233E+12	0.000103	9672.656031	18.337686	0.672476	0	0
0	0	0	31.252097	6.019788	24.481	6.019788	1.02728E+12	9.186027E-5	10886.099339	18.351178	0.670077	0	0
0	0	0	31.008548	6.020112	24.199438	6.020112	9.006288E+11	8.613783E-5	11609.301501	18.389319	0.667361	0	0
0	0	0	30.767939	6.020552	23.921135	6.020552	7.908396E+11	8.354076E-5	11970.20464	18.389309	0.664704	0	0
0	0	0	30.518876	6.020566	23.633552	6.020566	6.912634E+11	7.327468E-5	13647.279726	18.33554	0.662324	0	0
0	0	0	30.265894	6.020925	23.341048	6.020925	6.029415E+11	6.987482E-5	14311.306878	18.278317	0.660163	0	0
0	0	0	30.007725	6.021089	23.042776	6.021089	5.244288E+11	6.349766E-5	15748.610741	18.281847	0.657863	0	0
0	0	0	29.742736	6.021445	22.736404	6.021445	4.544587E+11	6.092473E-5	16413.697307	18.31814	0.655285	0	0
0	0	0	29.472602	6.021448	22.424499	6.021448	3.927282E+11	5.269934E-5	18975.569884	18.341159	0.652569	0	0
0	0	0	29.195485	6.021855	22.104056	6.021855	3.381024E+11	5.172471E-5	19333.118053	18.30534	0.65021	0	0
0	0	0	28.912896	6.022063	21.777525	6.022063	2.902138E+11	4.780883E-5	20916.638562	18.24341	0.648088	0	0
0	0	0	28.618709	6.022323	21.437538	6.022323	2.475503E+11	4.512547E-5	22160.432699	18.227621	0.645907	0	0
0	0	0	28.323297	6.022177	21.096619	6.022177	2.11018E+11	3.629433E-5	27552.516286	18.256056	0.643508	0	0
0	0	0	28.02274	6.02272	20.748929	6.02272	1.793768E+11	3.905866E-5	25602.514575	18.281709	0.640851	0	0
0	0	0	27.716016	6.0225	20.395039	6.0225	1.519723E+11	2.986786E-5	33480.808591	18.25816	0.638333	0	0
0	0	0	27.406189	6.022862	20.036855	6.022862	1.285383E+11	3.008415E-5	33240.095066	18.200309	0.63631	0	0
0	0	0	27.087705	6.022787	19.669209	6.022787	1.0821E+11	2.435669E-5	41056.484013	18.16608	0.634189	0	0
0	0	0	26.765136	6.022903	19.296611	6.022903	9.089556E+10	2.173867E-5	46000.965832	18.183363	0.63179	0	0
0	0	0	26.435136	6.023132	18.91529	6.023132	7.60453E+10	2.073753E-5	48221.758663	18.224676	0.629133	0	0
0	0	0	26.096111	6.023115	18.523852	6.023115	6.331152E+10	1.708528E-5	58529.915996	18.217887	0.626773	0	0
0	0	0	25.753206	6.02329	18.127693	6.02329	5.259952E+10	1.587901E-5	62976.214962	18.167327	0.624553	0	0
0	0	0	25.405686	6.023557	17.726084	6.023557	4.359101E+10	1.607716E-5	62200.035012	18.117454	0.622709	0	0
0	0	0	25.054818	6.023559	17.320945	6.023559	3.605999E+10	1.331799E-5	75086.422903	18.116925	0.620508	0	0
0	0	0	24.69758	6.023733	16.908228	6.023733	2.972749E+10	1.283225E-5	77928.679704	18.143609	0.618128	0	0
0	0	0	24.333644	6.023787	16.487929	6.023787	2.441847E+10	1.112677E-5	89873.360928	18.164748	0.615472	0	0
0	0	0	23.962848	6.023602	16.060022	6.023602	1.998332E+10	7.656713E-6	130604.343982	18.123107	0.61337	0	0
0	0	0	23.588131	6.023683	15.627241	6.023683	1.63191E+10	6.718988E-6	148831.935979	18.056877	0.611367	0	0
0	0	0	23.193405	6.023829	15.171266	6.023829	1.318338E+10	6.281488E-6	159197.946198	18.028166	0.609325	0	0
0	0	0	22.802231	6.024042	14.719301	6.024042	1.067067E+10	6.587108E-6	151811.685561	18.052233	0.607065	0	0
0	0	0	22.411874	6.024116	14.268463	6.024116	8.640677E+9	5.939978E-6	168350.797046	18.087313	0.604408	0	0
0	0	0	22.022988	6.024063	13.819493	6.024063	7.002434E+9	4.451437E-6	224646.544213	18.058728	0.602246	0	0
0	0	0	21.622585	6.023825	13.357482	6.023825	5.639579E+9	2.673615E-6	374025.399943	17.999493	0.600224	0	0
0	0	0	21.223285	6.02417	12.895942	6.02417	4.544677E+9	3.409538E-6	293294.879926	17.95432	0.598301	0	0
0	0	0	20.821943	6.024157	12.432536	6.024157	3.658306E+9	2.685488E-6	372371.83559	17.956351	0.596179	0	0
0	0	0	20.415864	6.024257	11.963502	6.024257	2.937276E+9	2.580997E-6	387447.186351	17.993047	0.593681	0	0
0	0	0	20.006354	6.024244	11.490665	6.024244	2.353988E+9	2.016222E-6	495977.08186	17.999595	0.59152	0	0
0	0	0	19.595171	6.02435	11.015725	6.02435	1.884823E+9	2.029886E-6	492638.617055	17.950777	0.589378	0	0
0	0	0	19.174513	6.024231	10.530167	6.024231	1.501456E+9	1.254523E-6	797115.982997	17.889025	0.587415	0	0
0	0	0	18.756346	6.024383	10.047094	6.024383	1.197676E+9	1.403226E-6	712643.447119	17.87551	0.585492	0	0
0	0	0	18.335076	6.024324	9.560744	6.024324	9.537569E+8	9.656994E-7	1035518.934428	17.900588	0.583371	0	0
0	0	0	17.912948	6.024503	9.073054	6.024503	7.591622E+8	1.298363E-6	770200.463708	17.934139	0.581011	0	0
0	0	0	17.486859	6.024695	8.580767	6.024695	6.02978E+8	3.967857E-6	252025.206459	17.914912	0.578949	0	0
0	0	0	17.059178	6.024357	8.087427	6.024357	4.785138E+8	5.242608E-7	1907447.728764	17.85053	0.577006	0	0
0	0	0	16.626146	6.024357	7.58741	6.024357	3.786444E+8	4.148729E-7	2410376.746248	17.806929	0.574983	0	0
0	0	0	16.191686	6.024556	7.085442	6.024556	2.99387E+8	6.437551E-7	1553385.771484	17.812536	0.573199	0	0
0	0	0	15.758083	6.024477	6.584883	6.024477	2.368295E+8	3.677203E-7	2719458.423941	17.849012	0.570939	0	0
0	0	0	15.322153	6.02449	6.081497	6.02449	1.871079E+8	3.046472E-7	3282484.934307	17.854335	0.568797	0	0
0	0	0	14.883894	6.024623	5.575237	6.024623	1.476393E+8	4.675399E-7	2138855.023656	17.806812	0.567013	0	0
0	0	0	14.440981	6.02441	5.064137	6.02441	1.162034E+8	1.465075E-7	6825587.027487	17.750314	0.565129	0	0
0	0	0	13.995658	6.024443	4.549874	6.024443	9.134194E+7	1.271204E-7	7866554.969355	17.725988	0.563186	0	0
0	0	0	13.541555	6.02449	4.025451	6.02449	7.145955E+7	1.163643E-7	8593701.65581	17.74099	0.561302	0	0
0	0	0	13.094067	6.02455	3.508645	6.02455	5.610524E+7	1.169289E-7	8552203.611984	17.770548	0.559121	0	0
0	0	0	12.64854	6.024921	2.993601	6.024921	4.409677E+7	-1.239955E-7	-8064811.161011	17.761454	0.557158	0	0
0	0	0	12.197827	6.024636	2.47362	6.024636	3.45615E+7	1.209011E-7	8271221.96138	17.717737	0.555156	0	0
0	0	0	11.747032	6.024643	1.953077	6.024643	2.708689E+7	9.9973E-8	1.00027E+7	17.651391	0.55357	0	0
0	0	0	11.29738	6.024556	1.434007	6.024556	2.124194E+7	4.569327E-8	2.188506E+7	17.637952	0.551924	0	0
0	0	0	10.846381	6.024702	0.912999	6.024702	1.664611E+7	1.218012E-7	8210101.106414	17.668864	0.549743	0	0
0	0	0	10.393626	6.024603	0.390368	6.024603	1.303224E+7	3.615607E-8	2.765788E+7	17.68072	0.547601	0	0
0	0	0	9.944056	6.024755	-0.129005	6.024755	1.022053E+7	5.903741E-7	1693841.348313	17.6522	0.545638	0	0
0	0	0	9.508697	6.024769	-0.631736	6.024769	8077257.625	-6.447934E-7	-1550884.454081	17.595712	0.544092	0	0
0	0	0	9.106211	6.024576	-1.096161	6.024576	6497887.875	1.546694E-8	6.465402E+7	17.565553	0.542228	0	0
0	0	0	8.704216	6.024815	-1.560751	6.024815	5228721.75	-4.470535E-8	-2.236868E+7	17.565456	0.540444	0	0
0	0	0	8.308019	6.02457	-2.017819	6.02457	4220658.75	9.701953E-9	1.03072E+8	17.60034	0.538322	0	0
0	0	0	7.921052	6.024749	-2.464958	6.024749	3423983.5	1.06248E-7	9411940.431934	17.593029	0.536319	0	0
0	0	0	7.540128	6.024789	-2.90488	6.024789	2786775.625	-4.864647E-8	-2.055647E+7	17.544156	0.534535	0	0
0	0	0	7.163533	6.024596	-3.339399	6.024596	2273466.5	6.056829E-9	1.651029E+8	17.490943	0.532969	0	0
0	0	0	6.791226	6.024682	-3.769452	6.024682	1859010.375	1.024742E-8	9.75855E+7	17.469859	0.531184	0	0
0	0	0	6.423737	6.024742	-4.193896	6.024742	1524075	3.232813E-8	3.093281E+7	17.483933	0.52934	0	0
0	0	0	6.060782	6.024629	-4.612801	6.024629	1252549.875	4.164591E-9	2.401196E+8	17.516765	0.527219	0	0
0	0	0	5.701992	6.024735	-5.027285	6.024735	1031719.5	1.662392E-8	6.015429E+7	17.501194	0.525156	0	0
0	0	0	5.350634	6.024868	-5.433236	6.024868	853243.75	-3.610668E-9	-2.76957E+8	17.438194	0.523471	0	0
0	0	0	5.005646	6.024915	-5.831678	6.024915	708076.625	-2.078038E-9	-4.812232E+8	17.382941	0.521944	0	0
0	0	0	4.653145	6.024636	-6.238209	6.024636	585225.5	2.047369E-9	4.884317E+8	17.367314	0.520319	0	0
0	0	0	4.327963	6.024716	-6.61384	6.024716	490885.5	4.595525E-9	2.17603E+8	17.393795	0.518356	0	0
0	0	0	4.006742	6.024623	-6.984584	6.024623	412635.875	1.307133E-9	7.650328E+8	17.403295	0.516313	0	0
0	0	0	3.701775	6.024696	-7.336863	6.024696	349920.625	2.308576E-9	4.331674E+8	17.378587	0.51441	0	0
0	0	0	3.404239	6.024722	-7.680476	6.024722	297931.875	3.241937E-9	3.084576E+8	17.314769	0.512824	0	0
0	0	0	3.115647	6.024888	-8.01402	6.024888	254896.625	-9.06885E-10	-1.102676E+9	17.266342	0.511436	0	0
0	0	0	2.833834	6.024735	-8.339148	6.024735	218878.25	3.526773E-9	2.835453E+8	17.283691	0.509433	0	0
0	0	0	2.560596	6.024941	-8.655039	6.024941	188822.75	-4.715641E-10	-2.120602E+9	17.302124	0.507629	0	0
0	0	0	2.301284	6.024842	-8.954282	6.024842	164125.25	-9.291647E-10	-1.076235E+9	17.302232	0.505706	0	0
0	0	0	2.048832	6.024822	-9.245752	6.024822	143188.25	-1.085736E-9	-9.210345E+8	17.252992	0.504	0	0
0	0	0	1.814512	6.024862	-9.516397	6.024862	126152.5	-5.698111E-10	-1.754968E+9	17.187866	0.502513	0	0
0	0	0	1.595587	6.024749	-9.768978	6.024749	112072.375	3.47787E-9	2.875323E+8	17.150206	0.501006	0	0
0	0	0	1.399939	6.024735	-9.994867	6.024735	100824.5	1.624581E-9	6.155432E+8	17.165902	0.499242	0	0
0	0	0	1.226342	6.024762	-10.19537	6.024762	91793.25	3.845532E-8	2.600421E+7	17.189874	0.497219	0	0
0	0	0	1.070224	6.024868	-10.375841	6.024868	84364.375	-3.570038E-10	-2.801091E+9	17.174728	0.495554	0	0
0	0	0	0.936321	6.024954	-10.530624	6.024954	78473.375	-1.823879E-10	-5.482821E+9	17.127597	0.493769	0	0
0	0	0	0.812831	6.024623	-10.672586	6.024623	73405.875	2.325327E-10	4.300471E+9	17.057556	0.492381	0	0
0	0	0	0.70931	6.024828	-10.792514	6.024828	69410.75	-4.728251E-10	-2.114947E+9	17.03447	0.490894	0	0
0	0	0	0.616284	6.024908	-10.900083	6.024908	66006.625	-2.025834E-10	-4.93624E+9	17.053289	0.489149	0	0
0	0	0	0.531875	6.024769	-10.997284	6.024769	63062.375	-5.032225E-9	-1.987192E+8	17.080702	0.487186	0	0
0	0	0	0.460452	6.024789	-11.079795	6.024789	60674	-1.059108E-9	-9.441907E+8	17.054271	0.485501	0	0
0	0	0	0.401116	6.024935	-11.148589	6.024935	58758.75	-1.524224E-10	-6.560714E+9	16.99155	0.483895	0	0
0	0	0	0.357666	6.024782	-11.198469	6.024782	57394.625	-1.354633E-9	-7.382071E+8	16.932588	0.482567	0	0
0	0	0	0.312256	6.024848	-11.251032	6.024848	56002.875	-2.923574E-10	-3.42047E+9	16.916688	0.48102	0	0
0	0	0	0.281547	6.024915	-11.286619	6.024915	55080.875	-1.616492E-10	-6.186235E+9	16.948878	0.479117	0	0
0	0	0	0.241037	6.024789	-11.333154	6.024789	53887.75	-9.406492E-10	-1.063096E+9	16.964618	0.477332	0	0
0	0	0	0.220374	6.024643	-11.356733	6.024643	53289.25	1.966947E-10	5.084022E+9	16.926612	0.475746	0	0
0	0	0	0.183376	6.024802	-11.399761	6.024802	52234	-5.995278E-10	-1.667979E+9	16.875097	0.47412	0	0
0	0	0	0.16112	6.024755	-11.42537	6.024755	51609.25	2.982211E-9	3.353217E+8	16.82308	0.472772	0	0
0	0	0	0.148338	6.024848	-11.440308	6.024848	51253.875	-2.675658E-10	-3.737399E+9	16.809377	0.471126	0	0
0	0	0	0.121876	6.024815	-11.4708	6.024815	50526	-4.319841E-10	-2.3149E+9	16.835533	0.469599	0	0
0	0	0	0.094965	6.024935	-11.502105	6.024935	49796.25	-1.291734E-10	-7.741534E+9	16.852724	0.467775	0	0
0	0	0	0.085613	6.024742	-11.512533	6.024742	49545.125	1.050952E-9	9.515187E+8	16.819671	0.46609	0	0
0	0	0	0.076384	6.024868	-11.523432	6.024868	49298.625	-2.086164E-10	-4.793487E+9	16.762725	0.464623	0	0
0	0	0	0.056987	6.024928	-11.545945	6.024928	48784.375	-1.316431E-10	-7.596298E+9	16.716768	0.463195	0	0
0	0	0	0.034281	6.024762	-11.571844	6.024762	48189.25	2.018826E-8	4.953373E+7	16.694686	0.461847	0	0
0	0	0	0.020519	6.024901	-11.588003	6.024901	47832.125	-1.538476E-10	-6.499938E+9	16.704708	0.460102	0	0
0	0	0	0.013822	6.024735	-11.595417	6.024735	47659.25	7.679319E-10	1.302199E+9	16.722566	0.458317	0	0
0	0	0	0.009779	6.024835	-11.600277	6.024835	47555.125	-2.940606E-10	-3.400659E+9	16.698878	0.456652	0	0
0	0	0	0.004675	6.024782	-11.606069	6.024782	47424.125	-1.119309E-9	-8.934086E+8	16.636588	0.455284	0	0
0	0	0	-0.003942	6.024954	-11.616351	6.024954	47203.75	-1.09711E-10	-9.114858E+9	16.571526	0.453935	0	0
0	0	0	-0.013947	6.024716	-11.627443	6.024716	46949.125	4.395247E-10	2.275185E+9	16.563431	0.452548	0	0
0	0	0	-0.026198	6.024848	-11.641845	6.024848	46639.25	-2.434756E-10	-4.107188E+9	16.582983	0.450783	0	0
0	0	0	-0.036325	6.024921	-11.65368	6.024921	46384.625	-1.304177E-10	-7.667669E+9	16.592823	0.448979	0	0
0	0	0	-0.045309	6.024755	-11.663734	6.024755	46159.875	2.667322E-9	3.749078E+8	16.542437	0.447432	0	0
0	0	0	-0.051026	6.024888	-11.670592	6.024888	46017.375	-1.63723E-10	-6.107876E+9	16.481462	0.446104	0	0
0	0	0	-0.055273	6.024981	-11.675675	6.024981	45911.875	-9.371104E-11	-1.06711E+10	16.439047	0.444795	0	0
0	0	0	-0.05854	6.024915	-11.679319	6.024915	45830.875	-1.345027E-10	-7.434797E+9	16.420333	0.443348	0	0
0	0	0	-0.060623	6.024636	-11.681186	6.024636	45779.375	1.60156E-10	6.243912E+9	16.447267	0.441722	0	0
0	0	0	-0.062011	6.024875	-11.68325	6.024875	45745	-1.820834E-10	-5.491988E+9	16.452863	0.439957	0	0
0	0	0	-0.0634	6.024749	-11.684611	6.024749	45710.625	1.41851E-9	7.049653E+8	16.408402	0.43851	0	0
0	0	0	-0.065809	6.024855	-11.687597	6.024855	45651.125	-2.210977E-10	-4.522887E+9	16.355091	0.436904	0	0
0	0	0	-0.070791	6.024682	-11.693017	6.024682	45528.375	2.509675E-10	3.98458E+9	16.293154	0.435793	0	0
0	0	0	-0.073813	6.024808	-11.69675	6.024808	45454	-4.454355E-10	-2.244994E+9	16.277162	0.434346	0	0
0	0	0	-0.079163	6.024868	-11.703042	6.024868	45322.75	-1.917918E-10	-5.213988E+9	16.29487	0.432958	0	0
0	0	0	-0.083818	6.024895	-11.708469	6.024895	45208.875	-1.527393E-10	-6.547102E+9	16.311999	0.431292	0	0
0	0	0	-0.090679	6.024789	-11.716186	6.024789	45041.5	-7.862316E-10	-1.27189E+9	16.27332	0.429785	0	0
0	0	0	-0.095334	6.024875	-11.721728	6.024875	44928.375	-1.788329E-10	-5.591811E+9	16.216253	0.428259	0	0
0	0	0	-0.101704	6.024702	-11.728751	6.024702	44773.875	3.276409E-10	3.052122E+9	16.139942	0.427327	0	0
0	0	0	-0.10734	6.024669	-11.735195	6.024669	44637.625	2.113035E-10	4.732529E+9	16.126866	0.42578	0	0
0	0	0	-0.111015	6.024603	-11.73931	6.024603	44549	1.235976E-10	8.090775E+9	16.120602	0.424452	0	0
0	0	0	-0.115875	6.024669	-11.74505	6.024669	44432.125	2.103307E-10	4.754417E+9	16.145829	0.422647	0	0
0	0	0	-0.120775	6.024921	-11.751195	6.024921	44314.625	-1.245976E-10	-8.025837E+9	16.119955	0.4212	0	0
0	0	0	-0.123184	6.024722	-11.753593	6.024722	44257	4.815819E-10	2.07649E+9	16.068601	0.419911	0	0
0	0	0	-0.124859	6.024842	-11.755757	6.024842	44216.875	-2.503256E-10	-3.994798E+9	16.003492	0.418583	0	0
0	0	0	-0.127146	6.024855	-11.758423	6.024855	44162.375	-2.138874E-10	-4.675357E+9	15.977912	0.417433	0	0
0	0	0	-0.129147	6.024802	-11.760631	6.024802	44114.5	-5.063343E-10	-1.97498E+9	15.979892	0.415946	0	0
0	0	0	-0.131066	6.024842	-11.762924	6.024842	44068.75	-2.49487E-10	-4.008225E+9	16.000407	0.414459	0	0
0	0	0	-0.131393	6.024855	-11.763327	6.024855	44061	-2.133964E-10	-4.686114E+9	15.987412	0.412912	0	0
0	0	0	-0.131924	6.024862	-11.763953	6.024862	44048.375	-1.989596E-10	-5.026147E+9	15.940654	0.411663	0	0
0	0	0	-0.132577	6.024815	-11.764618	6.024815	44032.875	-3.764695E-10	-2.656257E+9	15.877076	0.410354	0	0
0	0	0	-0.133149	6.024795	-11.765239	6.024795	44019.25	-6.096297E-10	-1.64034E+9	15.84625	0.409046	0	0
0	0	0	-0.134333	6.024782	-11.766581	6.024782	43991	-1.03828E-9	-9.631316E+8	15.837265	0.407777	0	0
0	0	0	-0.133802	6.024742	-11.765891	6.024742	44003.625	9.334052E-10	1.071346E+9	15.859386	0.40623	0	0
0	0	0	-0.134088	6.025014	-11.766747	6.025014	43996.875	-7.793626E-11	-1.2831E+10	15.864495	0.404703	0	0
0	0	0	-0.134374	6.024722	-11.766513	6.024722	43990.125	4.786779E-10	2.089088E+9	15.811737	0.403236	0	0
0	0	0	-0.134455	6.024815	-11.766787	6.024815	43988.125	-3.760869E-10	-2.65896E+9	15.756468	0.402126	0	0
0	0	0	-0.134374	6.024862	-11.766782	6.024862	43990.125	-1.986965E-10	-5.032802E+9	15.707332	0.400916	0	0
0	0	0	-0.134578	6.024868	-11.767031	6.024868	43985.25	-1.861319E-10	-5.372535E+9	15.689054	0.399687	0	0
0	0	0	-0.134578	6.024775	-11.766851	6.024775	43985.25	-1.602353E-9	-6.240824E+8	15.710673	0.398101	0	0
0	0	0	-0.134741	6.024802	-11.767091	6.024802	43981.375	-5.048064E-10	-1.980958E+9	15.700581	0.396812	0	0
0	0	0	-0.134333	6.024974	-11.766953	6.024974	43991	-9.261037E-11	-1.079793E+10	15.664517	0.395325	0	0
0	0	0	-0.133965	6.024875	-11.766336	6.024875	43999.75	-1.751366E-10	-5.709828E+9	15.603019	0.394056	0	0
0	0	0	-0.134251	6.024729	-11.766384	6.024729	43993	5.714822E-10	1.749836E+9	15.550115	0.392727	0	0
0	0	0	-0.13466	6.024795	-11.766984	6.024795	43983.25	-6.091312E-10	-1.641683E+9	15.51916	0.391597	0	0
0	0	0	-0.134251	6.024782	-11.766487	6.024782	43993	-1.038327E-9	-9.630879E+8	15.527592	0.39019	0	0
0	0	0	-0.134823	6.024775	-11.767134	6.024775	43979.375	-1.602139E-9	-6.241657E+8	15.533973	0.388802	0	0
0	0	0	-0.134333	6.024789	-11.766594	6.024789	43991	-7.678943E-10	-1.302262E+9	15.503516	0.387374	0	0
0	0	0	-0.1347	6.024842	-11.767121	6.024842	43982.375	-2.48998E-10	-4.016097E+9	15.470072	0.386085	0	0
0	0	0	-0.134537	6.024822	-11.766894	6.024822	43986.25	-3.335289E-10	-2.998241E+9	15.400381	0.385054	0	0
0	0	0	-0.134455	6.024895	-11.76694	6.024895	43988.125	-1.48615E-10	-6.728796E+9	15.361969	0.383646	0	0
0	0	0	-0.134619	6.024954	-11.767244	6.024954	43984.25	-1.022282E-10	-9.782035E+9	15.351677	0.382477	0	0
0	0	0	-0.134455	6.024875	-11.766902	6.024875	43988.125	-1.750904E-10	-5.711337E+9	15.357269	0.381009	0	0
0	0	0	-0.134823	6.024888	-11.767352	6.024888	43979.375	-1.564721E-10	-6.390914E+9	15.354944	0.379582	0	0
0	0	0	-0.1347	6.024795	-11.767031	6.024795	43982.375	-6.09119E-10	-1.641715E+9	15.325307	0.378392	0	0
0	0	0	-0.135599	6.024742	-11.767966	6.024742	43961	9.325011E-10	1.072385E+9	15.270304	0.377083	0	0
0	0	0	-0.13515	6.024855	-11.767665	6.024855	43971.625	-2.129636E-10	-4.695639E+9	15.206645	0.375953	0	0
0	0	0	-0.135476	6.024643	-11.767632	6.024643	43963.875	1.62274E-10	6.162416E+9	15.175748	0.374783	0	0
0	0	0	-0.136416	6.024662	-11.768755	6.024662	43941.625	1.942879E-10	5.147001E+9	15.176674	0.373614	0	0
0	0	0	-0.13662	6.024842	-11.769337	6.024842	43936.75	-2.487397E-10	-4.020267E+9	15.184243	0.372127	0	0
0	0	0	-0.137314	6.024868	-11.77019	6.024868	43920.25	-1.858568E-10	-5.380486E+9	15.170859	0.370858	0	0
0	0	0	-0.137355	6.024742	-11.769994	6.024742	43919.25	9.316155E-10	1.073404E+9	15.137305	0.369489	0	0
0	0	0	-0.137559	6.024862	-11.77046	6.024862	43914.375	-1.983543E-10	-5.041483E+9	15.062575	0.368498	0	0
0	0	0	-0.137681	6.024782	-11.770448	6.024782	43911.5	-1.036403E-9	-9.648753E+8	15.023387	0.367328	0	0
0	0	0	-0.137763	6.024696	-11.770376	6.024696	43909.625	2.896909E-10	3.451955E+9	14.998497	0.366198	0	0
0	0	0	-0.137886	6.024908	-11.770927	6.024908	43906.625	-1.347554E-10	-7.420851E+9	15.01185	0.364909	0	0
0	0	0	-0.138008	6.024702	-11.770671	6.024702	43903.75	3.212736E-10	3.112612E+9	15.010684	0.363462	0	0
0	0	0	-0.138702	6.024729	-11.771524	6.024729	43887.25	5.701085E-10	1.754052E+9	14.97597	0.362312	0	0
0	0	0	-0.139152	6.024795	-11.772171	6.024795	43876.625	-6.076545E-10	-1.645672E+9	14.932938	0.361023	0	0
0	0	0	-0.139601	6.024755	-11.772613	6.024755	43866	2.534772E-9	3.945128E+8	14.851809	0.36021	0	0
0	0	0	-0.140867	6.024868	-11.774292	6.024868	43836	-1.855003E-10	-5.390827E+9	14.815139	0.358941	0	0
0	0	0	-0.141724	6.024696	-11.774949	6.024696	43815.625	2.890708E-10	3.459361E+9	14.797386	0.357811	0	0
0	0	0	-0.142296	6.024735	-11.775686	6.024735	43802.125	7.057822E-10	1.416868E+9	14.79944	0.356562	0	0
0	0	0	-0.142092	6.024682	-11.775348	6.024682	43806.875	2.41478E-10	4.141164E+9	14.809264	0.355134	0	0
0	0	0	-0.142664	6.024855	-11.776342	6.024855	43793.375	-2.121003E-10	-4.714752E+9	14.761559	0.354024	0	0
0	0	0	-0.143317	6.024795	-11.776981	6.024795	43777.875	-6.062869E-10	-1.649384E+9	14.712923	0.352874	0	0
0	0	0	-0.145808	6.024755	-11.77978	6.024755	43719	2.526278E-9	3.958393E+8	14.647566	0.351902	0	0
0	0	0	-0.143889	6.024828	-11.777705	6.024828	43764.375	-2.981223E-10	-3.354328E+9	14.614413	0.350851	0	0
0	0	0	-0.142909	6.024702	-11.77633	6.024702	43787.625	3.204238E-10	3.120867E+9	14.598431	0.349741	0	0
0	0	0	-0.142459	6.024855	-11.776106	6.024855	43798.25	-2.121239E-10	-4.714227E+9	14.613398	0.348333	0	0
0	0	0	-0.142378	6.024669	-11.775653	6.024669	43800.125	2.07339E-10	4.82302E+9	14.608542	0.347084	0	0
0	0	0	-0.14299	6.024775	-11.776565	6.024775	43785.625	-1.59508E-9	-6.269276E+8	14.569099	0.346033	0	0
0	0	0	-0.141193	6.024888	-11.774708	6.024888	43828.25	-1.559345E-10	-6.412951E+9	14.510787	0.344784	0	0
0	0	0	-0.141398	6.024888	-11.774944	6.024888	43823.375	-1.559171E-10	-6.413664E+9	14.448364	0.343832	0	0
0	0	0	-0.139519	6.024802	-11.772608	6.024802	43867.875	-5.035036E-10	-1.986083E+9	14.423179	0.342841	0	0
0	0	0	-0.139111	6.024755	-11.772047	6.024755	43877.625	2.535444E-9	3.944083E+8	14.415041	0.34179	0	0
0	0	0	-0.139274	6.024928	-11.772569	6.024928	43873.75	-1.183919E-10	-8.446523E+9	14.411958	0.34064	0	0
0	0	0	-0.138212	6.024729	-11.770958	6.024729	43898.875	5.702595E-10	1.753588E+9	14.407881	0.339213	0	0
0	0	0	-0.138539	6.024862	-11.771592	6.024862	43891.125	-1.982493E-10	-5.044154E+9	14.365663	0.338023	0	0
0	0	0	-0.139274	6.024848	-11.772415	6.024848	43873.75	-2.290386E-10	-4.366077E+9	14.297138	0.337071	0	0
0	0	0	-0.138947	6.024868	-11.772076	6.024868	43881.5	-1.856928E-10	-5.385237E+9	14.240862	0.33608	0	0
0	0	0	-0.139315	6.024881	-11.772526	6.024881	43872.75	-1.648424E-10	-6.066401E+9	14.200395	0.335227	0	0
0	0	0	-0.138784	6.024835	-11.771823	6.024835	43885.375	-2.713685E-10	-3.685026E+9	14.188757	0.334057	0	0
0	0	0	-0.137559	6.024795	-11.770332	6.024795	43914.375	-6.081773E-10	-1.644257E+9	14.211718	0.33255	0	0
0	0	0	-0.137028	6.024769	-11.769668	6.024769	43927	-3.505267E-9	-2.85285E+8	14.191885	0.331519	0	0
0	0	0	-0.136783	6.024722	-11.769295	6.024722	43932.875	4.780549E-10	2.09181E+9	14.148566	0.330429	0	0
0	0	0	-0.137232	6.024901	-11.77016	6.024901	43922.125	-1.412715E-10	-7.07857E+9	14.100828	0.329338	0	0
0	0	0	-0.137232	6.024735	-11.769839	6.024735	43922.125	7.077158E-10	1.412997E+9	14.028985	0.328506	0	0
0	0	0	-0.13711	6.024709	-11.769647	6.024709	43925	3.608199E-10	2.771466E+9	13.989958	0.327415	0	0
0	0	0	-0.137355	6.024749	-11.770006	6.024749	43919.25	1.362919E-9	7.337194E+8	13.96955	0.326384	0	0
0	0	0	-0.137518	6.024828	-11.770349	6.024828	43915.375	-2.991509E-10	-3.342794E+9	13.965133	0.325313	0	0
0	0	0	-0.137396	6.024789	-11.770131	6.024789	43918.25	-7.666244E-10	-1.30442E+9	13.957748	0.324084	0	0
0	0	0	-0.137926	6.024742	-11.770654	6.024742	43905.75	9.313291E-10	1.073734E+9	13.93151	0.323053	0	0
0	0	0	-0.137559	6.024828	-11.770396	6.024828	43914.375	-2.991441E-10	-3.34287E+9	13.875062	0.321883	0	0
0	0	0	-0.138784	6.024848	-11.771849	6.024848	43885.375	-2.290992E-10	-4.364921E+9	13.81535	0.320991	0	0
0	0	0	-0.139437	6.024702	-11.772322	6.024702	43869.75	3.210248E-10	3.115024E+9	13.767824	0.320099	0	0
0	0	0	-0.139356	6.024835	-11.772484	6.024835	43871.75	-2.712842E-10	-3.686171E+9	13.757694	0.319167	0	0
0	0	0	-0.139968	6.024935	-11.773383	6.024935	43857.25	-1.137674E-10	-8.789866E+9	13.745703	0.318037	0	0
0	0	0	-0.139601	6.024689	-11.772485	6.024689	43866	2.634709E-10	3.795485E+9	13.746326	0.316728	0	0
0	0	0	-0.139846	6.024735	-11.772857	6.024735	43860.125	7.067168E-10	1.414994E+9	13.711988	0.315657	0	0
0	0	0	-0.140418	6.024769	-11.773581	6.024769	43846.625	-3.498853E-9	-2.858079E+8	13.670338	0.314745	0	0
0	0	0	-0.139805	6.024742	-11.772823	6.024742	43861.125	9.303825E-10	1.074827E+9	13.611587	0.313794	0	0
0	0	0	-0.141561	6.024968	-11.775286	6.024968	43819.5	-9.524055E-11	-1.049973E+10	13.560888	0.312762	0	0
0	0	0	-0.141765	6.024808	-11.775214	6.024808	43814.625	-4.293702E-10	-2.328993E+9	13.515126	0.312069	0	0
0	0	0	-0.140908	6.024662	-11.773942	6.024662	43835	1.938165E-10	5.15952E+9	13.519009	0.310938	0	0
0	0	0	-0.141888	6.024689	-11.775125	6.024689	43811.75	2.631451E-10	3.800185E+9	13.521932	0.309868	0	0
0	0	0	-0.1425	6.024875	-11.776191	6.024875	43797.25	-1.743306E-10	-5.736228E+9	13.504818	0.308718	0	0
0	0	0	-0.144052	6.024921	-11.778073	6.024921	43760.5	-1.230396E-10	-8.127465E+9	13.461868	0.307746	0	0
0	0	0	-0.145073	6.024862	-11.779136	6.024862	43736.375	-1.975503E-10	-5.062001E+9	13.409046	0.306893	0	0
0	0	0	-0.14687	6.024649	-11.780801	6.024649	43693.875	1.706759E-10	5.859059E+9	13.355053	0.306061	0	0
0	0	0	-0.146298	6.024835	-11.7805	6.024835	43707.375	-2.702678E-10	-3.700034E+9	13.299598	0.305228	0	0
0	0	0	-0.146339	6.024795	-11.78047	6.024795	43706.5	-6.052984E-10	-1.652078E+9	13.278722	0.304316	0	0
0	0	0	-0.147196	6.024789	-11.781447	6.024789	43686.25	-7.625747E-10	-1.311347E+9	13.264602	0.303067	0	0
0	0	0	-0.147727	6.024775	-11.782035	6.024775	43673.75	-1.591005E-9	-6.285336E+8	13.265784	0.302056	0	0
0	0	0	-0.147033	6.024576	-11.780849	6.024576	43690.125	1.039967E-10	9.615691E+9	13.244624	0.300925	0	0
0	0	0	-0.145195	6.024954	-11.779457	6.024954	43733.5	-1.016454E-10	-9.838121E+9	13.181116	0.300132	0	0
0	0	0	-0.145073	6.024696	-11.778816	6.024696	43736.375	2.885479E-10	3.465629E+9	13.131436	0.299101	0	0
0	0	0	-0.145114	6.024716	-11.778902	6.024716	43735.375	4.094385E-10	2.442369E+9	13.067026	0.298368	0	0
0	0	0	-0.14446	6.024742	-11.778198	6.024742	43750.875	9.280439E-10	1.077535E+9	13.036392	0.297436	0	0
0	0	0	-0.143644	6.024669	-11.777114	6.024669	43770.125	2.07197E-10	4.826326E+9	13.012364	0.296603	0	0
0	0	0	-0.141806	6.024795	-11.775236	6.024795	43813.75	-6.067837E-10	-1.648034E+9	13.010108	0.295374	0	0
0	0	0	-0.140622	6.024835	-11.773945	6.024835	43841.75	-2.710987E-10	-3.688693E+9	13.000401	0.294442	0	0
0	0	0	-0.141806	6.024895	-11.775428	6.024895	43813.75	-1.480259E-10	-6.755576E+9	12.981233	0.293391	0	0
0	0	0	-0.141724	6.024808	-11.775167	6.024808	43815.625	-4.2938E-10	-2.32894E+9	12.927049	0.292618	0	0
0	0	0	-0.141153	6.024935	-11.774751	6.024935	43829.125	-1.136944E-10	-8.795506E+9	12.870114	0.291666	0	0
0	0	0	-0.140295	6.024835	-11.773568	6.024835	43849.5	-2.711466E-10	-3.688041E+9	12.808802	0.290972	0	0
0	0	0	-0.140295	6.024961	-11.773812	6.024961	43849.5	-9.849965E-11	-1.015232E+10	12.79649	0.289921	0	0
0	0	0	-0.140091	6.024881	-11.773422	6.024881	43854.375	-1.647733E-10	-6.068943E+9	12.759735	0.289168	0	0
0	0	0	-0.140499	6.025014	-11.77415	6.025014	43844.625	-7.766656E-11	-1.287555E+10	12.755186	0.288255	0	0
0	0	0	-0.138784	6.024901	-11.771952	6.024901	43885.375	-1.411533E-10	-7.084497E+9	12.744951	0.287026	0	0
0	0	0	-0.138621	6.024915	-11.771789	6.024915	43889.25	-1.288045E-10	-7.763706E+9	12.721574	0.286233	0	0
0	0	0	-0.138008	6.024888	-11.77103	6.024888	43903.75	-1.562031E-10	-6.401923E+9	12.67278	0.285261	0	0
0	0	0	-0.137681	6.02457	-11.770038	6.02457	43911.5	1.009391E-10	9.90696E+9	12.618205	0.284349	0	0
0	0	0	-0.138621	6.024888	-11.771737	6.024888	43889.25	-1.561515E-10	-6.404038E+9	12.553495	0.283655	0	0
0	0	0	-0.138866	6.024948	-11.772136	6.024948	43883.375	-1.056573E-10	-9.464558E+9	12.509785	0.282763	0	0
0	0	0	-0.13809	6.024881	-11.771112	6.024881	43901.875	-1.649518E-10	-6.062377E+9	12.475506	0.281911	0	0
0	0	0	-0.137804	6.024935	-11.770884	6.024935	43908.625	-1.139006E-10	-8.779581E+9	12.474428	0.281038	0	0
0	0	0	-0.137396	6.024848	-11.770246	6.024848	43918.25	-2.292709E-10	-4.361653E+9	12.472492	0.280106	0	0
0	0	0	-0.138376	6.024735	-11.77116	6.024735	43895	7.072787E-10	1.41387E+9	12.443982	0.279135	0	0
0	0	0	-0.139478	6.024835	-11.772625	6.024835	43868.875	-2.712664E-10	-3.686412E+9	12.385032	0.278243	0	0
0	0	0	-0.139927	6.024749	-11.772977	6.024749	43858.25	1.361026E-9	7.347399E+8	12.327652	0.27743	0	0
0	0	0	-0.14005	6.024968	-11.773542	6.024968	43855.375	-9.531853E-11	-1.049114E+10	12.284847	0.276577	0	0
0	0	0	-0.14054	6.024835	-11.773851	6.024835	43843.75	-2.711111E-10	-3.688525E+9	12.245623	0.275883	0	0
0	0	0	-0.140785	6.024755	-11.77398	6.024755	43837.875	2.533147E-9	3.947659E+8	12.203561	0.275149	0	0
0	0	0	-0.140826	6.024848	-11.774207	6.024848	43836.875	-2.28846E-10	-4.36975E+9	12.196627	0.274237	0	0
0	0	0	-0.140908	6.024782	-11.774173	6.024782	43835	-1.034598E-9	-9.665592E+8	12.181748	0.273286	0	0
0	0	0	-0.141847	6.024848	-11.775386	6.024848	43812.75	-2.287201E-10	-4.372156E+9	12.163051	0.272235	0	0
0	0	0	-0.143317	6.024988	-11.777352	6.024988	43777.875	-8.671479E-11	-1.153206E+10	12.124041	0.271382	0	0
0	0	0	-0.142623	6.024775	-11.776141	6.024775	43794.375	-1.595399E-9	-6.268024E+8	12.07776	0.27049	0	0
0	0	0	-0.143399	6.024842	-11.777165	6.024842	43776	-2.478296E-10	-4.03503E+9	12.013753	0.269895	0	0
0	0	0	-0.144501	6.024795	-11.778348	6.024795	43749.875	-6.058991E-10	-1.65044E+9	11.972481	0.269181	0	0
0	0	0	-0.144174	6.025021	-11.778407	6.025021	43757.625	-7.551677E-11	-1.324209E+10	11.925624	0.268249	0	0
0	0	0	-0.144338	6.024888	-11.778339	6.024888	43753.75	-1.556694E-10	-6.42387E+9	11.907109	0.267476	0	0
0	0	0	-0.144787	6.024915	-11.778909	6.024915	43743.125	-1.283756E-10	-7.789641E+9	11.884579	0.266643	0	0
0	0	0	-0.14736	6.024656	-11.78138	6.024656	43682.375	1.811898E-10	5.519074E+9	11.878888	0.26585	0	0
0	0	0	-0.146135	6.024842	-11.780324	6.024842	43711.25	-2.474631E-10	-4.041007E+9	11.842205	0.264819	0	0
0	0	0	-0.148176	6.024842	-11.782682	6.024842	43663.125	-2.471906E-10	-4.045461E+9	11.82064	0.264026	0	0
0	0	0	-0.148789	6.024662	-11.783043	6.024662	43648.625	1.929924E-10	5.181551E+9	11.77388	0.263154	0	0
0	0	0	-0.146951	6.024908	-11.781395	6.024908	43692	-1.340967E-10	-7.457304E+9	11.705375	0.26242	0	0
0	0	0	-0.149238	6.024835	-11.783895	6.024835	43638	-2.698388E-10	-3.705916E+9	11.659113	0.261607	0	0
0	0	0	-0.149197	6.024862	-11.783899	6.024862	43639	-1.971105E-10	-5.073297E+9	11.600274	0.261171	0	0
0	0	0	-0.146625	6.024755	-11.780723	6.024755	43699.75	2.525165E-9	3.960137E+8	11.567192	0.260338	0	0
0	0	0	-0.147074	6.024676	-11.781088	6.024676	43689.125	2.225288E-10	4.493799E+9	11.543046	0.259466	0	0
0	0	0	-0.144501	6.024782	-11.778323	6.024782	43749.875	-1.032589E-9	-9.684399E+8	11.53984	0.258554	0	0
0	0	0	-0.144542	6.024921	-11.778639	6.024921	43748.875	-1.230069E-10	-8.129625E+9	11.51207	0.257602	0	0
0	0	0	-0.143235	6.024835	-11.776963	6.024835	43779.875	-2.707161E-10	-3.693907E+9	11.464702	0.256928	0	0
0	0	0	-0.143072	6.024828	-11.776762	6.024828	43783.75	-2.982543E-10	-3.352844E+9	11.414834	0.256055	0	0
0	0	0	-0.14201	6.025041	-11.775946	6.025041	43808.875	-7.018419E-11	-1.424822E+10	11.371351	0.255183	0	0
0	0	0	-0.142541	6.024888	-11.776264	6.024888	43796.25	-1.558206E-10	-6.417637E+9	11.321504	0.254667	0	0
0	0	0	-0.142745	6.024789	-11.776308	6.024789	43791.5	-7.644119E-10	-1.308195E+9	11.279245	0.253775	0	0
0	0	0	-0.141724	6.024815	-11.77518	6.024815	43815.625	-3.746121E-10	-2.669428E+9	11.239835	0.253141	0	0
0	0	0	-0.142745	6.024742	-11.776218	6.024742	43791.5	9.289056E-10	1.076536E+9	11.211698	0.252367	0	0
0	0	0	-0.14152	6.024954	-11.775213	6.024954	43820.5	-1.018476E-10	-9.818589E+9	11.199995	0.251475	0	0
0	0	0	-0.140377	6.024888	-11.773765	6.024888	43847.625	-1.560034E-10	-6.410117E+9	11.18696	0.250662	0	0
0	0	0	-0.138947	6.024795	-11.771935	6.024795	43881.5	-6.07722E-10	-1.645489E+9	0	0	0	0
0	0	0	-0.140132	6.024689	-11.773098	6.024689	43853.375	2.633951E-10	3.796578E+9	0	0	0	0
0	0	0	-0.139642	6.024815	-11.772775	6.024815	43865	-3.750342E-10	-2.666423E+9	0	0	0	0
0	0	0	-0.138702	6.024875	-11.771806	6.024875	43887.25	-1.746888E-10	-5.724464E+9	0	0	0	0
0	0	0	-0.139356	6.024954	-11.772714	6.024954	43871.75	-1.019667E-10	-9.807119E+9	0	0	0	0
0	0	0	-0.139356	6.024941	-11.772689	6.024941	43871.75	-1.095649E-10	-9.127014E+9	0	0	0	0
0	0	0	-0.138376	6.024862	-11.771403	6.024862	43895	-1.982668E-10	-5.043709E+9	0	0	0	0
0	0	0	-0.138376	6.024835	-11.771352	6.024835	43895	-2.71428E-10	-3.684218E+9	0	0	0	0
0	0	0	-0.138907	6.024749	-11.771798	6.024749	43882.375	1.361775E-9	7.343359E+8	0	0	0	0
0	0	0	-0.139478	6.024802	-11.772561	6.024802	43868.875	-5.035151E-10	-1.986038E+9	0	0	0	0
0	0	0	-0.139887	6.024928	-11.773276	6.024928	43859.125	-1.183524E-10	-8.44934E+9	0	0	0	0
0	0	0	-0.14054	6.024855	-11.77389	6.024855	43843.75	-2.123442E-10	-4.709335E+9	0	0	0	0
0	0	0	-0.139887	6.024842	-11.773109	6.024842	43859.125	-2.483002E-10	-4.027383E+9	0	0	0	0
0	0	0	-0.140826	6.024782	-11.774079	6.024782	43836.875	-1.034642E-9	-9.665179E+8	0	0	0	0
0	0	0	-0.140826	6.024888	-11.774284	6.024888	43836.875	-1.559651E-10	-6.411689E+9	0	0	0	0
0	0	0	-0.141398	6.024881	-11.774931	6.024881	43823.375	-1.646569E-10	-6.073236E+9	0	0	0	0
0	0	0	-0.142909	6.024649	-11.776227	6.024649	43787.625	1.710421E-10	5.846515E+9	0	0	0	0
0	0	0	-0.141316	6.024669	-11.774427	6.024669	43825.25	2.074579E-10	4.820255E+9	0	0	0	0
0	0	0	-0.141969	6.024702	-11.775245	6.024702	43809.875	3.205866E-10	3.119282E+9	0	0	0	0
0	0	0	-0.142051	6.024742	-11.775416	6.024742	43807.875	9.29253E-10	1.076133E+9	0	0	0	0
0	0	0	-0.142868	6.024895	-11.776654	6.024895	43788.5	-1.479406E-10	-6.759472E+9	0	0	0	0
0	0	0	-0.143603	6.024729	-11.777183	6.024729	43771.125	5.686E-10	1.758706E+9	0	0	0	0
0	0	0	-0.144583	6.024749	-11.778353	6.024749	43748	1.357605E-9	7.365915E+8	0	0	0	0
0	0	0	-0.144746	6.024994	-11.779016	6.024994	43744.125	-8.416091E-11	-1.1882E+10	0	0	0	0
0	0	0	-0.144624	6.024954	-11.778797	6.024954	43747	-1.016768E-10	-9.835085E+9	0	0	0	0
0	0	0	-0.147115	6.024842	-11.781456	6.024842	43688.125	-2.473321E-10	-4.043146E+9	0	0	0	0
0	0	0	-0.147972	6.024862	-11.782484	6.024862	43667.875	-1.972409E-10	-5.069942E+9	0	0	0	0
0	0	0	-0.148176	6.024762	-11.782528	6.024762	43663.125	1.82921E-8	5.466839E+7	0	0	0	0
0	0	0	-0.149851	6.024596	-11.784141	6.024596	43623.625	1.162198E-10	8.604389E+9	0	0	0	0
0	0	0	-0.151362	6.024762	-11.786206	6.024762	43588	1.826063E-8	5.476261E+7	0	0	0	0
0	0	0	-0.151362	6.024755	-11.786193	6.024755	43588	2.518708E-9	3.97029E+8	0	0	0	0
0	0	0	-0.150749	0	-0.150749	0	43602.375	0	0	0	0	0	0
0	0	0	-0.148912	0	-0.148912	0	43645.75	0	0	0	0	0	0
