Vload_(V)	ILoad_(A)	RsLoad (ohm)	SunsVoc_Voltage_(V)	SunsVoc_Current_(A)	Model_Voltage_(V)	Model_Current_(A)	Carrier_Density_(cm-3)	Lifetime_(s)	Inverse_Lifetime_(s-1)	Efficiency_(%)	Intensity_(suns)	Dark_IV_Voltage_(V)	Dark_IV_Current_(A)
3.337188	6.400686	0	65.324247	-1.215178	65.683729	-1.215178	4.128478E+15	0.000228	4366.154704	19.616601	1.184753	0	0
3.356621	6.39827	3.992707	65.25311	-0.952412	65.538497	-0.952412	4.059974E+15	0.000232	4287.05551	19.67428	1.183008	0	0
5.110142	6.388292	6.437153	65.134561	-0.60586	65.319963	-0.60586	3.948042E+15	0.000237	4201.758506	19.63233	1.181923	0	0
8.127548	6.371291	6.614097	64.985548	-0.186372	65.044073	-0.186372	3.811211E+15	0.000243	4093.103577	19.577063	1.179953	0	0
11.292735	6.364575	6.229117	64.816812	0.247524	64.736841	0.247524	3.661317E+15	0.00025	3981.21282	19.585466	1.176106	0	0
13.947675	6.358717	5.891376	64.648361	0.639595	64.435932	0.639595	3.516858E+15	0.000256	3881.807449	19.603242	1.172827	0	0
16.751736	6.355023	5.496745	64.480972	1.008649	64.1369	1.008649	3.37827E+15	0.000263	3783.243227	19.584655	1.170645	0	0
19.587068	6.348684	5.116352	64.311786	1.354362	63.837476	1.354362	3.243055E+15	0.00027	3689.313349	19.553133	1.168424	0	0
22.437367	6.34357	4.715202	64.147173	1.677101	63.545009	1.677101	3.116035E+15	0.000277	3595.023584	19.564139	1.164788	0	0
25.373704	6.337742	4.30198	63.977456	1.976924	63.249619	1.976924	2.989611E+15	0.000284	3510.107496	19.600779	1.160518	0	0
28.962078	6.243819	4.20042	63.813048	2.254428	62.963134	2.254428	2.871392E+15	0.000291	3426.158645	19.586437	1.156247	0	0
31.910442	6.237692	3.748542	63.648722	2.510631	62.68006	2.510631	2.757278E+15	0.000298	3348.238447	19.534762	1.15269	0	0
34.821625	6.22809	3.31196	63.490521	2.747328	62.40719	2.747328	2.651122E+15	0.000305	3271.081762	19.524471	1.148988	0	0
37.226301	6.319879	2.553324	63.330033	2.969666	62.13343	2.969666	2.547028E+15	0.000312	3198.194041	19.573987	1.144916	0	0
40.082735	6.307871	2.166791	63.169709	3.175093	61.862988	3.175093	2.446547E+15	0.000318	3130.797978	19.595209	1.141095	0	0
42.95276	6.299593	1.751609	63.013795	3.369151	61.598993	3.369151	2.352091E+15	0.000326	3061.135867	19.560655	1.137181	0	0
45.82799	6.284113	1.360763	62.854532	3.55104	61.332973	3.55104	2.258825E+15	0.000333	2996.800563	19.538611	1.132435	0	0
46.771753	6.275275	1.244175	62.702252	3.719425	61.07812	3.719425	2.1726E+15	0.00034	2932.076523	19.561984	1.126988	0	0
47.692001	6.26983	1.116934	62.547522	3.875083	60.823214	3.875083	2.087858E+15	0.000347	2874.400914	19.574732	1.121858	0	0
48.628227	6.252711	1.024112	62.399939	4.019604	60.579459	4.019604	2.009646E+15	0.000354	2815.768998	19.538802	1.117627	0	0
49.555273	6.227426	0.948093	62.248721	4.154077	60.333597	4.154077	1.932084E+15	0.000361	2763.783431	19.515753	1.113409	0	0
50.49608	6.197646	0.870076	62.102363	4.279285	60.095874	4.279285	1.859426E+15	0.000368	2712.069691	19.550919	1.108358	0	0
51.428914	6.150572	0.815863	61.953064	4.396898	59.856168	4.396898	1.787686E+15	0.000375	2664.845157	19.588314	1.102898	0	0
52.371426	6.090149	0.764843	61.81034	4.506367	59.626692	4.506367	1.721287E+15	0.000381	2616.733095	19.566206	1.097913	0	0
53.295602	6.014047	0.718523	61.663696	4.608708	59.394154	4.608708	1.655226E+15	0.000388	2574.446767	19.523109	1.092638	0	0
54.224817	5.913249	0.676997	61.521258	4.705218	59.168192	4.705218	1.5931E+15	0.000394	2531.043408	19.536692	1.086913	0	0
55.140003	5.785005	0.640432	61.376411	4.795524	58.940872	4.795524	1.531929E+15	0.000401	2492.166746	19.572311	1.081135	0	0
56.059893	5.620675	0.606005	61.238465	4.879198	58.724278	4.879198	1.475504E+15	0.000407	2452.810173	19.565105	1.075807	0	0
56.954854	5.413652	0.577458	61.09423	4.95865	58.500686	4.95865	1.418366E+15	0.000413	2418.59843	19.533036	1.070373	0	0
57.855323	5.148962	0.554189	60.954691	5.032068	58.285031	5.032068	1.36485E+15	0.000419	2385.666001	19.53478	1.064714	0	0
58.732704	4.831632	0.530731	60.817685	5.10138	58.073711	5.10138	1.313948E+15	0.000425	2352.772371	19.568262	1.058883	0	0
59.59451	4.442564	0.512343	60.683169	5.166315	57.86694	5.166315	1.265513E+15	0.00043	2320.903287	19.562471	1.053356	0	0
60.441078	3.98765	0.493952	60.549674	5.227896	57.66239	5.227896	1.218919E+15	0.000436	2289.564473	19.527827	1.048121	0	0
61.277458	3.448085	0.47621	60.408216	5.286148	57.448595	5.286148	1.171107E+15	0.000441	2264.838433	19.530056	1.042448	0	0
62.055971	2.864237	0.464518	60.278437	5.341277	57.250718	5.341277	1.128619E+15	0.000447	2233.987098	19.561088	1.036803	0	0
62.80814	2.22658	0.451262	60.145106	5.393932	57.048909	5.393932	1.086306E+15	0.000453	2205.774676	19.562161	1.031395	0	0
63.490989	1.571892	0.456809	60.013204	5.444212	56.849574	5.444212	1.045748E+15	0.000459	2177.005126	19.529854	1.026159	0	0
64.088846	0.947925	0.472238	59.879668	5.491105	56.649403	5.491105	1.005974E+15	0.000464	2152.241605	19.527007	1.02062	0	0
53.497143	5.991919	0.71184	59.754871	5.5352	56.461563	5.5352	9.699444E+14	0.00047	2124.072365	19.559961	1.014643	0	0
64.973564	0	0	59.626726	5.575977	56.270776	5.575977	9.340682E+14	0.000475	2101.833149	19.564063	1.009064	0	0
0	0	0	59.500827	5.614141	56.083942	5.614141	8.998999E+14	0.00048	2080.769158	19.530206	1.00404	0	0
0	0	0	59.378072	5.650793	55.901622	5.650793	8.675905E+14	0.000486	2057.765718	19.51371	0.998658	0	0
0	0	0	59.249315	5.685031	55.712483	5.685031	8.347427E+14	0.00049	2041.17564	19.546199	0.992894	0	0
0	0	0	59.126968	5.71774	55.532212	5.71774	8.044955E+14	0.000494	2021.191107	19.561733	0.987473	0	0
0	0	0	59.001886	5.748585	55.349115	5.748585	7.745208E+14	0.000499	2004.662415	19.529187	0.982277	0	0
0	0	0	58.884889	5.778414	55.176851	5.778414	7.473321E+14	0.000504	1982.615972	19.505257	0.976816	0	0
0	0	0	58.760664	5.806505	54.995856	5.806505	7.193403E+14	0.000508	1966.842463	19.529235	0.971197	0	0
0	0	0	58.636643	5.833547	54.815441	5.833547	6.922742E+14	0.000512	1950.785999	19.54555	0.966107	0	0
0	0	0	58.519646	5.858637	54.645192	5.858637	6.675278E+14	0.000517	1933.651124	19.516408	0.961056	0	0
0	0	0	58.396238	5.882933	54.46672	5.882933	6.422336E+14	0.000521	1919.771948	19.500515	0.955662	0	0
0	0	0	58.280099	5.905628	54.298581	5.905628	6.191695E+14	0.000525	1904.04139	19.531442	0.949778	0	0
0	0	0	58.161183	5.927375	54.127143	5.927375	5.962804E+14	0.000529	1890.321161	19.537868	0.944463	0	0
0	0	0	58.042634	5.948069	53.956636	5.948069	5.741765E+14	0.000533	1877.302895	19.507761	0.939492	0	0
0	0	0	57.930701	5.966521	53.796155	5.966521	5.539457E+14	0.000536	1866.570847	19.487312	0.934375	0	0
0	0	0	57.810927	5.985651	53.624617	5.985651	5.329696E+14	0.000539	1854.586495	19.517108	0.928769	0	0
0	0	0	57.702139	6.002856	53.468718	6.002856	5.145055E+14	0.000543	1841.531008	19.532773	0.923652	0	0
0	0	0	57.584039	6.019502	53.300694	6.019502	4.950799E+14	0.000545	1833.740314	19.498046	0.919064	0	0
0	0	0	57.472555	6.035297	53.141831	6.035297	4.773198E+14	0.000548	1823.186578	19.476953	0.914027	0	0
0	0	0	57.361725	6.050067	52.984385	6.050067	4.602065E+14	0.000551	1814.571276	19.503414	0.908645	0	0
0	0	0	57.247097	6.064347	52.822087	6.064347	4.430625E+14	0.000553	1808.046672	19.520543	0.903727	0	0
0	0	0	57.140186	6.078015	52.6703	6.078015	4.275702E+14	0.000556	1797.438104	19.498658	0.899192	0	0
0	0	0	57.028131	6.091027	52.512014	6.091027	4.118353E+14	0.000558	1790.882697	19.471304	0.894287	0	0
0	0	0	56.916361	6.103537	52.354326	6.103537	3.966412E+14	0.00056	1784.380031	19.502739	0.889329	0	0
0	0	0	56.805081	6.115366	52.197652	6.115366	3.819982E+14	0.000562	1779.042698	19.530198	0.884397	0	0
0	0	0	56.696497	6.126749	52.044758	6.126749	3.681645E+14	0.000564	1772.26609	19.497117	0.879862	0	0
0	0	0	56.589342	6.137664	51.89399	6.137664	3.549425E+14	0.000566	1765.05371	19.46851	0.87497	0	0
0	0	0	56.482023	6.147616	51.74362	6.147616	3.421175E+14	0.000567	1761.944967	19.488006	0.86984	0	0
0	0	0	56.373234	6.157908	51.590915	6.157908	3.295327E+14	0.00057	1754.852265	19.498638	0.865027	0	0
0	0	0	56.265998	6.167698	51.440549	6.167698	3.175268E+14	0.000572	1747.776424	19.469657	0.860532	0	0
0	0	0	56.161211	6.176215	51.294337	6.176215	3.061687E+14	0.000573	1746.366069	19.449966	0.855812	0	0
0	0	0	56.049849	6.185223	51.13888	6.185223	2.944923E+14	0.000574	1742.761141	19.475884	0.850708	0	0
0	0	0	55.95078	6.193763	51.000071	6.193763	2.844377E+14	0.000577	1732.862142	19.493473	0.84612	0	0
0	0	0	55.840725	6.200946	50.847618	6.200946	2.736264E+14	0.000575	1738.808216	19.456399	0.841691	0	0
0	0	0	55.737735	6.209194	50.703638	6.209194	2.638419E+14	0.000578	1728.834131	19.436518	0.836971	0	0
0	0	0	55.638421	6.215571	50.565996	6.215571	2.547033E+14	0.000578	1731.228886	19.461776	0.832079	0	0
0	0	0	55.531674	6.223427	50.417155	6.223427	2.451975E+14	0.000581	1722.032002	19.472713	0.827504	0	0
0	0	0	55.432074	6.229049	50.27961	6.229049	2.366162E+14	0.000579	1727.900596	19.440749	0.823128	0	0
0	0	0	55.328716	6.236124	50.135779	6.236124	2.279977E+14	0.000582	1719.300411	19.418944	0.81854	0	0
0	0	0	55.225114	6.241539	49.992934	6.241539	2.196437E+14	0.000579	1725.972187	19.451017	0.813661	0	0
0	0	0	55.124288	6.248255	49.852641	6.248255	2.117803E+14	0.000583	1714.527882	19.45176	0.809364	0	0
0	0	0	55.021829	6.253261	49.711544	6.253261	2.040517E+14	0.000581	1721.02906	19.40777	0.805094	0	0
0	0	0	54.920514	6.258672	49.571574	6.258672	1.966622E+14	0.000581	1720.166239	19.394201	0.800506	0	0
0	0	0	54.817932	6.264601	49.429407	6.264601	1.894293E+14	0.000584	1711.290395	19.425614	0.795733	0	0
0	0	0	54.720292	6.268367	49.295653	6.268367	1.827714E+14	0.00058	1724.546949	19.428963	0.791396	0	0
0	0	0	54.621835	6.27382	49.159298	6.27382	1.762752E+14	0.000583	1714.413547	19.383558	0.78735	0	0
0	0	0	54.520029	6.27879	49.018831	6.27879	1.697813E+14	0.000585	1710.26186	19.372569	0.782815	0	0
0	0	0	54.421286	6.281901	48.884044	6.281901	1.636937E+14	0.000578	1728.602321	19.400005	0.778188	0	0
0	0	0	54.323074	6.28642	48.748686	6.28642	1.578389E+14	0.00058	1724.523076	19.395342	0.774089	0	0
0	0	0	54.222004	6.291052	48.609355	6.291052	1.520162E+14	0.000582	1717.994486	19.352761	0.770017	0	0
0	0	0	54.126895	6.294203	48.479281	6.294203	1.467191E+14	0.000578	1728.853862	19.3503	0.765693	0	0
0	0	0	54.027254	6.297841	48.342669	6.297841	1.413537E+14	0.000577	1733.177929	19.387642	0.76133	0	0
0	0	0	53.926878	6.302717	48.20391	6.302717	1.361336E+14	0.000583	1714.308348	19.36487	0.757483	0	0
0	0	0	53.83279	6.305989	48.074983	6.305989	1.314042E+14	0.000583	1716.703543	19.321111	0.75345	0	0
0	0	0	53.731189	6.307997	47.937123	6.307997	1.264696E+14	0.000573	1745.859456	19.334403	0.749087	0	0
0	0	0	53.633549	6.311176	47.803463	6.311176	1.218912E+14	0.000572	1749.310941	19.365452	0.744829	0	0
0	0	0	53.539012	6.315141	47.673197	6.315141	1.176067E+14	0.000577	1732.743161	19.340577	0.740916	0	0
0	0	0	53.443944	6.318251	47.542977	6.318251	1.134412E+14	0.000578	1731.053715	19.291776	0.736896	0	0
0	0	0	53.346712	6.320375	47.410752	6.320375	1.093246E+14	0.000571	1749.95743	19.308788	0.732692	0	0
0	0	0	53.253115	6.322421	47.283448	6.322421	1.054953E+14	0.000566	1767.287303	19.340821	0.728448	0	0
0	0	0	53.158619	6.325115	47.154304	6.325115	1.01758E+14	0.000565	1769.125697	19.29829	0.724653	0	0
0	0	0	53.061265	6.32823	47.0209	6.32823	9.803877E+13	0.000568	1760.536536	19.251095	0.720806	0	0
0	0	0	52.965135	6.331147	46.889297	6.331147	9.449301E+13	0.00057	1753.074261	19.279639	0.716601	0	0
0	0	0	52.870354	6.333058	46.760439	6.333058	9.111636E+13	0.000566	1768.083008	19.306685	0.712754	0	0
0	0	0	52.775858	6.334615	46.632288	6.334615	8.78643E+13	0.000558	1791.295632	19.257845	0.709171	0	0
0	0	0	52.677278	6.336192	46.498629	6.336192	8.458962E+13	0.000551	1816.242147	19.235145	0.70531	0	0
0	0	0	52.581516	6.338374	46.368138	6.338374	8.152023E+13	0.000549	1820.883277	19.263729	0.701304	0	0
0	0	0	52.486857	6.340909	46.238753	6.340909	7.859091E+13	0.000552	1811.899268	19.276192	0.697403	0	0
0	0	0	52.389462	6.343525	46.105595	6.343525	7.568213E+13	0.000556	1799.213462	19.220455	0.694111	0	0
0	0	0	52.290229	6.345393	45.970689	6.345393	7.282468E+13	0.000553	1808.687683	19.202032	0.69033	0	0
0	0	0	52.19316	6.346933	45.838995	6.346933	7.012987E+13	0.000548	1825.885827	19.243244	0.686377	0	0
0	0	0	52.093478	6.348191	45.704064	6.348191	6.74623E+13	0.000539	1853.661978	19.232184	0.682873	0	0
0	0	0	51.995634	6.349403	45.57163	6.349403	6.493899E+13	0.000532	1881.225806	19.174457	0.679329	0	0
0	0	0	51.897503	6.350919	45.43849	6.350919	6.249974E+13	0.000527	1896.84942	19.177985	0.675469	0	0
0	0	0	51.798556	6.353016	45.303646	6.353016	6.012976E+13	0.00053	1888.55302	19.210694	0.671555	0	0
0	0	0	51.697282	6.355006	45.165767	6.355006	5.779399E+13	0.000531	1882.844449	19.180539	0.668144	0	0
0	0	0	51.587145	6.356997	45.015978	6.356997	5.535343E+13	0.000532	1880.200027	19.138286	0.664653	0	0
0	0	0	51.484196	6.358648	44.87616	6.358648	5.316255E+13	0.000531	1883.683735	19.152949	0.660713	0	0
0	0	0	51.383453	6.35975	44.739857	6.35975	5.110009E+13	0.000524	1908.352636	19.162112	0.657091	0	0
0	0	0	51.280136	6.360685	44.600265	6.360685	4.906566E+13	0.000515	1942.06669	19.122106	0.653719	0	0
0	0	0	51.181842	6.361567	44.467458	6.361567	4.720329E+13	0.000507	1974.184949	19.10043	0.650096	0	0
0	0	0	51.070726	6.362539	44.317342	6.362539	4.518071E+13	0.000497	2011.319249	19.12633	0.646394	0	0
0	0	0	50.966143	6.363388	44.176113	6.363388	4.335427E+13	0.000488	2049.426364	19.133968	0.642745	0	0
0	0	0	50.863194	6.364803	44.036457	6.364803	4.162672E+13	0.000487	2053.463225	19.088993	0.639387	0	0
0	0	0	50.753793	6.366261	43.888083	6.366261	3.986449E+13	0.000486	2057.129635	19.078667	0.635711	0	0
0	0	0	50.653866	6.367379	43.752774	6.367379	3.831866E+13	0.000483	2070.624114	19.111458	0.631903	0	0
0	0	0	50.541035	6.369031	43.599552	6.369031	3.664357E+13	0.000486	2057.887397	19.085512	0.628796	0	0
0	0	0	50.434451	6.370281	43.455137	6.370281	3.512713E+13	0.000485	2061.952546	19.028188	0.625438	0	0
0	0	0	50.321987	6.371561	43.30278	6.371561	3.359365E+13	0.000484	2065.268506	19.032504	0.621749	0	0
0	0	0	50.211524	6.372394	43.153591	6.372394	3.215138E+13	0.000477	2096.237592	19.06431	0.618338	0	0
0	0	0	50.097304	6.373169	42.999413	6.373169	3.072393E+13	0.000469	2133.567753	19.035253	0.615152	0	0
0	0	0	49.983901	6.373782	42.846502	6.373782	2.936828E+13	0.000458	2182.31108	18.984852	0.611939	0	0
0	0	0	49.860411	6.374305	42.680145	6.374305	2.795885E+13	0.000445	2247.719944	19.021182	0.608237	0	0
0	0	0	49.743578	6.374937	42.522594	6.374937	2.66867E+13	0.000435	2298.508535	19.030992	0.605103	0	0
0	0	0	49.623763	6.37569	42.360895	6.37569	2.544126E+13	0.000427	2340.496148	18.968104	0.602234	0	0
0	0	0	49.49962	6.376364	42.193466	6.376364	2.421119E+13	0.000418	2393.081945	18.934864	0.598902	0	0
0	0	0	49.372291	6.376892	42.021919	6.376892	2.301045E+13	0.000406	2463.30088	18.979569	0.595412	0	0
0	0	0	49.243493	6.37794	41.847788	6.37794	2.185561E+13	0.000403	2479.19794	18.971804	0.59241	0	0
0	0	0	49.113183	6.37908	41.671508	6.37908	2.074543E+13	0.000403	2480.981594	18.910543	0.589369	0	0
0	0	0	48.976054	6.379758	41.486597	6.379758	1.963727E+13	0.000394	2538.777487	18.903653	0.586077	0	0
0	0	0	48.838598	6.380931	41.300652	6.380931	1.858519E+13	0.000395	2532.109759	18.940891	0.582838	0	0
0	0	0	48.69469	6.381495	41.106749	6.381495	1.754341E+13	0.000384	2605.847106	18.897425	0.579995	0	0
0	0	0	48.552048	6.382788	40.913667	6.382788	1.656785E+13	0.000389	2573.42243	18.84749	0.577007	0	0
0	0	0	48.401851	6.383255	40.711413	6.383255	1.559862E+13	0.000376	2661.954119	18.880094	0.573583	0	0
0	0	0	48.249204	6.384136	40.505361	6.384136	1.467113E+13	0.000372	2687.307058	18.878286	0.570753	0	0
0	0	0	48.088675	6.384797	40.288977	6.384797	1.375468E+13	0.000363	2751.795118	18.825243	0.56795	0	0
0	0	0	47.926635	6.385265	40.07079	6.385265	1.288718E+13	0.000351	2850.476152	18.806239	0.564804	0	0
0	0	0	47.75847	6.385905	39.844156	6.385905	1.204426E+13	0.000342	2923.413942	18.855093	0.561551	0	0
0	0	0	47.578871	6.386249	39.602523	6.386249	1.120439E+13	0.000326	3069.419551	18.811462	0.558933	0	0
0	0	0	47.392738	6.38652	39.352201	6.38652	1.039531E+13	0.000308	3246.299502	18.758312	0.55621	0	0
0	0	0	47.19562	6.386868	39.087021	6.386868	9.60171E+12	0.000292	3428.249462	18.774193	0.553208	0	0
0	0	0	46.989803	6.387207	38.810164	6.387207	8.837308E+12	0.000275	3633.525822	18.809365	0.550167	0	0
0	0	0	46.7739	6.387429	38.519902	6.387429	8.100427E+12	0.000256	3898.734887	18.75269	0.547589	0	0
0	0	0	46.543745	6.387879	38.210195	6.387879	7.382123E+12	0.000242	4132.621339	18.706816	0.544588	0	0
0	0	0	46.298031	6.388226	37.879717	6.388226	6.685122E+12	0.000225	4440.003712	18.747737	0.541177	0	0
0	0	0	46.044763	6.388444	37.539254	6.388444	6.035235E+12	0.000207	4832.19231	18.741479	0.538334	0	0
0	0	0	45.775037	6.388787	37.176511	6.388787	5.412201E+12	0.000191	5237.268413	18.665902	0.535782	0	0
0	0	0	45.496164	6.389375	36.80114	6.389375	4.835376E+12	0.000179	5572.441699	18.655144	0.532754	0	0
0	0	0	45.207409	6.38944	36.413195	6.38944	4.302634E+12	0.000161	6226.278183	18.684442	0.529634	0	0
0	0	0	44.902482	6.389888	36.002995	6.389888	3.803486E+12	0.000148	6763.070651	18.642787	0.527109	0	0
0	0	0	44.588816	6.39031	35.581077	6.39031	3.350255E+12	0.000136	7377.712095	18.59955	0.524372	0	0
0	0	0	44.259836	6.390455	35.13897	6.390455	2.9327E+12	0.00012	8310.240928	18.624176	0.521357	0	0
0	0	0	43.918402	6.390885	34.679716	6.390885	2.554192E+12	0.000109	9141.202828	18.625799	0.518607	0	0
0	0	0	43.563287	6.391416	34.201921	6.391416	2.21218E+12	0.0001	9982.783844	18.569121	0.516122	0	0
0	0	0	43.190285	6.391692	33.700457	6.391692	1.902082E+12	8.877867E-5	11263.967303	18.563297	0.513398	0	0
0	0	0	42.796621	6.392097	33.171029	6.392097	1.621778E+12	7.926796E-5	12615.437675	18.599064	0.51033	0	0
0	0	0	42.376657	6.392469	32.606308	6.392469	1.368093E+12	6.98921E-5	14307.768352	18.547344	0.508096	0	0
0	0	0	41.926107	6.392819	32.000513	6.392819	1.139848E+12	6.082354E-5	16441.003228	18.496089	0.505571	0	0
0	0	0	41.453342	6.39342	31.364461	6.39342	9.411495E+11	5.437702E-5	18390.120202	18.521323	0.502702	0	0
0	0	0	40.963099	6.393828	30.70521	6.393828	7.715867E+11	4.722662E-5	21174.497972	18.537933	0.500189	0	0
0	0	0	40.447986	6.393872	30.013117	6.393872	6.262174E+11	3.85802E-5	25920.031646	18.467152	0.4981	0	0
0	0	0	39.90637	6.394633	29.284228	6.394633	5.027972E+11	3.487009E-5	28677.874812	18.453128	0.495324	0	0
0	0	0	39.344418	6.394826	28.528931	6.394826	4.003814E+11	2.868302E-5	34863.837436	18.482554	0.492627	0	0
0	0	0	38.756044	6.395165	27.737876	6.395165	3.154263E+11	2.398233E-5	41697.367117	18.451597	0.490326	0	0
0	0	0	38.140433	6.395381	26.91042	6.395381	2.457659E+11	1.944606E-5	51424.295671	18.39349	0.487986	0	0
0	0	0	37.49452	6.395911	26.041676	6.395911	1.891501E+11	1.662994E-5	60132.492454	18.41747	0.48509	0	0
0	0	0	36.824269	6.396193	25.140649	6.396193	1.44146E+11	1.346708E-5	74255.16233	18.425417	0.482658	0	0
0	0	0	36.124208	6.396521	24.199462	6.396521	1.085293E+11	1.093959E-5	91411.105006	18.356445	0.480569	0	0
0	0	0	35.39311	6.396834	23.216581	6.396834	8.069093E+10	8.793124E-6	113725.229822	18.339007	0.477885	0	0
0	0	0	34.639716	6.396898	22.2042	6.396898	5.94531E+10	6.587798E-6	151795.786915	18.369338	0.475253	0	0
0	0	0	33.869865	6.397023	21.16958	6.397023	4.351361E+10	4.986975E-6	200522.365378	18.320549	0.473059	0	0
0	0	0	33.072775	6.397204	20.09824	6.397204	3.149768E+10	3.797331E-6	263342.854905	18.267457	0.470547	0	0
0	0	0	32.247468	6.397765	18.988183	6.397765	2.254046E+10	3.238901E-6	308746.742347	18.299603	0.467915	0	0
0	0	0	31.422569	6.397718	17.879912	6.397718	1.613311E+10	2.281585E-6	438291.735359	18.317827	0.465509	0	0
0	0	0	30.58693	6.397917	16.756681	6.397917	1.149692E+10	1.742938E-6	573744.038034	18.224792	0.463526	0	0
0	0	0	29.745369	6.398207	15.625275	6.398207	8.173393E+9	1.384296E-6	722388.661007	18.211187	0.460882	0	0
0	0	0	28.893151	6.398124	14.480364	6.398124	5.78557E+9	9.478816E-7	1054984.058673	18.245914	0.458277	0	0
0	0	0	28.030764	6.398392	13.320988	6.398392	4.078489E+9	7.46479E-7	1339622.452233	18.203276	0.456294	0	0
0	0	0	27.16417	6.398781	12.155654	6.398781	2.870197E+9	6.324157E-7	1581238.537431	18.149173	0.454046	0	0
0	0	0	26.290186	6.398774	10.981298	6.398774	2.013829E+9	4.421692E-7	2261577.550075	18.180069	0.451455	0	0
0	0	0	25.411178	6.398944	9.799763	6.398944	1.410097E+9	3.397305E-7	2943509.956646	18.168423	0.449273	0	0
0	0	0	24.533763	6.398789	8.621159	6.398789	9.879969E+8	2.185928E-7	4574715.838044	18.100515	0.447263	0	0
0	0	0	23.648753	6.399071	7.431255	6.399071	6.901204E+8	1.793682E-7	5575124.551568	18.115314	0.444698	0	0
0	0	0	22.752471	6.399254	6.226435	6.399254	4.798545E+8	1.406993E-7	7107357.348983	18.129446	0.442384	0	0
0	0	0	21.879303	6.399261	5.053119	6.399261	3.367937E+8	9.924511E-8	1.007606E+7	18.072215	0.440414	0	0
0	0	0	21.016916	6.399184	3.894515	6.399184	2.374197E+8	6.635069E-8	1.507143E+7	18.02738	0.438286	0	0
0	0	0	20.169108	6.399339	2.754875	6.399339	1.68359E+8	5.247133E-8	1.905803E+7	18.070384	0.435721	0	0
0	0	0	19.331713	6.399396	1.629487	6.399396	1.198918E+8	3.900006E-8	2.564099E+7	18.045521	0.433962	0	0
0	0	0	18.509999	6.399459	0.525145	6.399459	8.592192E+7	2.939598E-8	3.401826E+7	17.988772	0.431807	0	0
0	0	0	17.710623	6.399642	-0.549528	6.399642	6.213717E+7	2.499388E-8	4.000979E+7	17.99214	0.429335	0	0
0	0	0	16.926887	6.399628	-1.602629	6.399628	4.522233E+7	1.794765E-8	5.57176E+7	17.989144	0.427312	0	0
0	0	0	16.165162	6.399762	-2.626586	6.399762	3.320702E+7	1.509087E-8	6.626524E+7	17.920834	0.425474	0	0
0	0	0	15.430103	6.399917	-3.614784	6.399917	2.464917E+7	1.346311E-8	7.427702E+7	17.915436	0.4232	0	0
0	0	0	14.719669	6.399805	-4.569097	6.399805	1.848037E+7	8.801601E-9	1.136157E+8	17.94944	0.420833	0	0
0	0	0	14.029408	6.400037	-5.497348	6.400037	1.396918E+7	9.040014E-9	1.106193E+8	17.880441	0.419233	0	0
0	0	0	13.354216	6.400051	-6.404693	6.400051	1.062391E+7	7.027985E-9	1.422883E+8	17.83443	0.417105	0	0
0	0	0	12.711612	6.40008	-7.268292	6.40008	8187211.75	5.66802E-9	1.764285E+8	17.868233	0.414712	0	0
0	0	0	12.089874	6.4002	-8.104141	6.4002	6362999	5.490749E-9	1.821245E+8	17.847911	0.412887	0	0
0	0	0	11.495988	6.400305	-8.902528	6.400305	5001399.625	5.515078E-9	1.813211E+8	17.777495	0.410996	0	0
0	0	0	10.925256	6.400157	-9.668991	6.400157	3968242.625	3.15026E-9	3.174341E+8	17.788913	0.408683	0	0
0	0	0	10.376739	6.400002	-10.405569	6.400002	3176994.625	1.949971E-9	5.12828E+8	17.795853	0.406765	0	0
0	0	0	9.846843	6.400249	-11.118433	6.400249	2562793.25	2.461251E-9	4.062975E+8	17.72195	0.405033	0	0
0	0	0	9.340143	6.400256	-11.799349	6.400256	2086867.25	2.037048E-9	4.909063E+8	17.71886	0.402839	0	0
0	0	0	8.849164	6.400228	-12.459021	6.400228	1710190.125	1.566602E-9	6.383241E+8	17.755393	0.400525	0	0
0	0	0	8.385302	6.400284	-13.082539	6.400284	1416995.25	1.480267E-9	6.755538E+8	17.680745	0.398925	0	0
0	0	0	7.940265	6.400242	-13.680428	6.400242	1183061.125	1.118147E-9	8.943372E+8	17.62223	0.397047	0	0
0	0	0	7.51144	6.400404	-14.257225	6.400404	994261.375	1.480307E-9	6.755354E+8	17.664703	0.39472	0	0
0	0	0	7.097928	6.400362	-14.812751	6.400362	840795.375	1.088468E-9	9.187227E+8	17.661824	0.392896	0	0
0	0	0	6.704509	6.400475	-15.341811	6.400475	716832.75	1.423247E-9	7.026186E+8	17.584225	0.391177	0	0
0	0	0	6.325463	6.400376	-15.850826	6.400376	614718.5	8.319847E-10	1.201945E+9	17.603463	0.38889	0	0
0	0	0	5.96018	6.400256	-16.34127	6.400256	530100.25	5.174459E-10	1.932569E+9	17.58504	0.386973	0	0
0	0	0	5.621032	6.400411	-16.797553	6.400411	461999.5	7.054951E-10	1.417444E+9	17.512472	0.385333	0	0
0	0	0	5.296585	6.400475	-17.233764	6.400475	405054.75	8.042228E-10	1.243436E+9	17.510812	0.383244	0	0
0	0	0	4.989658	6.400411	-17.645986	6.400411	357660	5.461638E-10	1.830953E+9	17.552651	0.381036	0	0
0	0	0	4.682771	6.400468	-18.058577	6.400468	315816.25	6.068025E-10	1.647983E+9	17.479032	0.379555	0	0
0	0	0	4.40157	6.400658	-18.437131	6.400658	281787.125	4.214363E-9	2.372838E+8	17.416635	0.37777	0	0
0	0	0	4.130129	6.400475	-18.801236	6.400475	252421.625	5.011749E-10	1.995312E+9	17.473004	0.37543	0	0
0	0	0	3.860526	6.400453	-19.16345	6.400453	226284.75	4.084125E-10	2.448505E+9	17.432384	0.373857	0	0
0	0	0	3.608687	6.400517	-19.502098	6.400517	204320.5	5.071742E-10	1.971709E+9	17.361788	0.372191	0	0
0	0	0	3.355051	6.400679	-19.84352	6.400679	184353.875	1.119745E-8	8.930602E+7	17.388194	0.370102	0	0
0	0	0	3.105049	6.400686	-20.179498	6.400686	166583.75	-4.958561E-7	-2016714.014574	17.370968	0.368476	0	0
0	0	0	2.856109	6.400587	-20.513664	6.400587	150591.25	6.411902E-10	1.5596E+9	17.299817	0.366929	0	0
0	0	0	2.607251	6.400609	-20.848156	6.400609	136138.625	7.380289E-10	1.354961E+9	17.329902	0.3648	0	0
0	0	0	2.369827	6.400482	-21.166739	6.400482	123644.875	2.53964E-10	3.937566E+9	17.33775	0.363068	0	0
0	0	0	2.139264	6.400602	-21.47701	6.400602	112610.5	5.59521E-10	1.787243E+9	17.232013	0.361719	0	0
0	0	0	1.917031	6.400566	-21.775515	6.400566	102907.875	3.607491E-10	2.772009E+9	17.229832	0.359498	0	0
0	0	0	1.727304	6.400855	-22.031542	6.400855	95288.875	-2.361368E-10	-4.234834E+9	17.263819	0.3577	0	0
0	0	0	1.554851	6.400721	-22.262788	6.400721	88854	-1.053581E-9	-9.491443E+8	17.187778	0.356338	0	0
0	0	0	1.389218	6.400693	-22.485261	6.400693	83083	-4.848493E-9	-2.062497E+8	17.145735	0.354461	0	0
0	0	0	1.233386	6.400573	-22.694221	6.400573	77996.25	2.905302E-10	3.441983E+9	17.20398	0.352464	0	0
0	0	0	1.072898	6.400834	-22.910861	6.400834	73082.875	-2.069557E-10	-4.831953E+9	17.129662	0.351129	0	0
0	0	0	0.940751	6.400686	-23.087886	6.400686	69270.375	-2.061682E-7	-4850408.495374	17.071633	0.349357	0	0
0	0	0	0.83919	6.400714	-23.224469	6.400714	66476	-9.843131E-10	-1.015937E+9	17.112674	0.347374	0	0
0	0	0	0.745838	6.400609	-23.349518	6.400609	64007	3.469921E-10	2.88191E+9	17.077842	0.345748	0	0
0	0	0	0.649953	6.400827	-23.479192	6.400827	61566.5	-1.830521E-10	-5.462924E+9	17.007131	0.344253	0	0
0	0	0	0.552844	6.400573	-23.60873	6.400573	59189.625	2.20477E-10	4.535621E+9	17.038649	0.342191	0	0
0	0	0	0.460267	6.40063	-23.733347	6.40063	57009.25	4.252427E-10	2.351598E+9	17.022312	0.340644	0	0
0	0	0	0.369488	6.400721	-23.855684	6.400721	54949.125	-6.515556E-10	-1.534788E+9	16.927402	0.339282	0	0
0	0	0	0.281934	6.400644	-23.973044	6.400644	53032.75	5.278826E-10	1.894361E+9	16.959431	0.337391	0	0
0	0	0	0.200955	6.400736	-24.082212	6.400736	51319.875	-4.351539E-10	-2.298037E+9	16.969105	0.335699	0	0
0	0	0	0.132309	6.400651	-24.174138	6.400651	49911.25	5.965729E-10	1.676241E+9	16.866225	0.334324	0	0
0	0	0	0.072075	6.400623	-24.254973	6.400623	48707.125	3.228573E-10	3.097344E+9	16.862926	0.33246	0	0
0	0	0	0.029196	6.400559	-24.312351	6.400559	47867.75	1.584702E-10	6.310333E+9	16.873457	0.330754	0	0
0	0	0	-0.009721	6.40058	-24.364729	6.40058	47118.375	1.872289E-10	5.341056E+9	16.777137	0.329538	0	0
0	0	0	-0.032058	6.400573	-24.394719	6.400573	46693.5	1.739298E-10	5.749445E+9	16.799326	0.327449	0	0
0	0	0	-0.065953	6.400552	-24.440185	6.400552	46056.25	1.444398E-10	6.923301E+9	16.814313	0.325981	0	0
0	0	0	-0.080082	6.400482	-24.458904	6.400482	45793.25	9.405838E-11	1.063169E+10	16.724444	0.324646	0	0
0	0	0	-0.085228	6.400743	-24.466812	6.400743	45697.75	-3.39168E-10	-2.948391E+9	16.688472	0.32302	0	0
0	0	0	-0.090373	6.400573	-24.473082	6.400573	45602.5	1.698659E-10	5.886996E+9	16.733691	0.321182	0	0
0	0	0	-0.09903	6.400637	-24.484957	6.400637	45442.75	3.875284E-10	2.580456E+9	16.656403	0.319979	0	0
0	0	0	-0.108178	6.400785	-24.497814	6.400785	45274.5	-1.922207E-10	-5.202354E+9	16.625231	0.318286	0	0
0	0	0	-0.117815	6.40058	-24.509985	6.40058	45098	1.792008E-10	5.580333E+9	16.663923	0.316488	0	0
0	0	0	-0.127208	6.400559	-24.522526	6.400559	44926.625	1.487334E-10	6.723439E+9	16.58303	0.315325	0	0
0	0	0	-0.132516	6.400658	-24.530037	6.400658	44830	6.704711E-10	1.491489E+9	16.542042	0.313698	0	0
0	0	0	-0.138315	6.400475	-24.53713	6.400475	44724.75	8.879954E-11	1.126132E+10	16.597092	0.311821	0	0
0	0	0	-0.141746	6.40075	-24.542788	6.40075	44662.5	-2.947345E-10	-3.392885E+9	16.51287	0.310895	0	0
0	0	0	-0.14489	6.400531	-24.54618	6.400531	44605.625	1.207971E-10	8.278347E+9	16.46544	0.309269	0	0
0	0	0	-0.146728	6.400877	-24.549967	6.400877	44572.375	-9.819171E-11	-1.018416E+10	16.509429	0.307444	0	0
0	0	0	-0.148769	6.400644	-24.551823	6.400644	44535.5	4.433019E-10	2.255799E+9	16.436446	0.306294	0	0
0	0	0	-0.149586	6.400736	-24.553271	6.400736	44520.75	-3.775024E-10	-2.648989E+9	16.364414	0.304946	0	0
0	0	0	-0.15122	6.400609	-24.554982	6.400609	44491.375	2.411948E-10	4.146027E+9	16.419417	0.303068	0	0
0	0	0	-0.152077	6.400496	-24.555704	6.400496	44475.875	9.812439E-11	1.019115E+10	16.37055	0.301971	0	0
0	0	0	-0.15269	6.400693	-24.55728	6.400693	44464.875	-2.594844E-9	-3.853796E+8	16.310697	0.300516	0	0
0	0	0	-0.153343	6.400714	-24.558239	6.400714	44453	-6.582175E-10	-1.519255E+9	16.357764	0.298864	0	0
0	0	0	-0.152935	6.400573	-24.557152	6.400573	44460.375	1.656116E-10	6.038224E+9	16.274541	0.297753	0	0
0	0	0	-0.154037	6.400637	-24.558876	6.400637	44440.5	3.789814E-10	2.638652E+9	16.226488	0.296259	0	0
0	0	0	-0.153588	6.400686	-24.55846	6.400686	44448.625	-1.322887E-7	-7559224.585114	16.274558	0.294421	0	0
0	0	0	-0.153997	6.400714	-24.559117	6.400714	44441.25	-6.580435E-10	-1.519656E+9	16.220616	0.29339	0	0
0	0	0	-0.154037	6.400848	-24.559682	6.400848	44440.5	-1.149127E-10	-8.702258E+9	16.143225	0.292266	0	0
0	0	0	-0.154119	6.400707	-24.559254	6.400707	44439.125	-8.758969E-10	-1.141687E+9	16.204251	0.290243	0	0
0	0	0	-0.154037	6.400594	-24.558714	6.400594	44440.5	2.037974E-10	4.906834E+9	16.122641	0.289304	0	0
0	0	0	-0.15416	6.400637	-24.55904	6.400637	44438.25	3.789622E-10	2.638785E+9	16.054416	0.287956	0	0
0	0	0	-0.154691	6.400623	-24.5597	6.400623	44428.75	2.944979E-10	3.39561E+9	16.095327	0.286369	0	0
0	0	0	-0.155467	6.400714	-24.561092	6.400714	44414.75	-6.576511E-10	-1.520563E+9	16.045954	0.285325	0	0
0	0	0	-0.155548	6.400594	-24.560745	6.400594	44413.375	2.03673E-10	4.909831E+9	15.980466	0.283883	0	0
0	0	0	-0.156038	6.400848	-24.562371	6.400848	44404.5	-1.148196E-10	-8.709314E+9	16.042903	0.282204	0	0
0	0	0	-0.155875	6.400721	-24.561668	6.400721	44407.375	-5.265575E-10	-1.899128E+9	15.9502	0.281173	0	0
0	0	0	-0.1571	6.400594	-24.56283	6.400594	44385.375	2.035446E-10	4.912928E+9	15.878948	0.279824	0	0
0	0	0	-0.15661	6.400616	-24.562252	6.400616	44394.125	2.647826E-10	3.776684E+9	15.930251	0.278264	0	0
0	0	0	-0.156896	6.400778	-24.563255	6.400778	44389	-2.029359E-10	-4.927665E+9	15.84263	0.277352	0	0
0	0	0	-0.157223	6.400764	-24.56364	6.400764	44383.125	-2.397346E-10	-4.17128E+9	15.807664	0.275898	0	0
0	0	0	-0.157304	6.40087	-24.564153	6.40087	44381.75	-1.015293E-10	-9.84937E+9	15.864484	0.274417	0	0
0	0	0	-0.157917	6.400813	-24.564761	6.400813	44370.625	-1.465667E-10	-6.822834E+9	15.769837	0.273438	0	0
0	0	0	-0.157794	6.40058	-24.563709	6.40058	44372.875	1.763194E-10	5.671525E+9	15.745197	0.271971	0	0
0	0	0	-0.157876	6.400538	-24.563657	6.400538	44371.375	1.258902E-10	7.943432E+9	15.78217	0.270662	0	0
0	0	0	-0.157999	6.400644	-24.564225	6.400644	44369.25	4.41647E-10	2.264252E+9	15.678481	0.269736	0	0
0	0	0	-0.158039	6.40063	-24.564227	6.40063	44368.5	3.30953E-10	3.021577E+9	15.691767	0.268123	0	0
0	0	0	-0.157917	6.400707	-24.564358	6.400707	44370.625	-8.745467E-10	-1.143449E+9	15.718397	0.266814	0	0
0	0	0	-0.158039	6.400665	-24.564361	6.400665	44368.5	8.862432E-10	1.128359E+9	15.58647	0.265995	0	0
0	0	0	-0.158734	6.400616	-24.565106	6.400616	44356	2.645552E-10	3.77993E+9	15.585708	0.264501	0	0
0	0	0	-0.159264	6.40046	-24.565227	6.40046	44346.5	8.254206E-11	1.211504E+10	15.574906	0.263245	0	0
0	0	0	-0.159387	6.400489	-24.5655	6.400489	44344.25	9.433742E-11	1.060025E+10	15.483162	0.262213	0	0
0	0	0	-0.159509	6.400587	-24.566041	6.400587	44342	1.888002E-10	5.296604E+9	15.515557	0.260706	0	0
0	0	0	-0.159836	6.400644	-24.566695	6.400644	44336.125	4.413173E-10	2.265943E+9	15.503396	0.259701	0	0
0	0	0	-0.159469	6.40082	-24.566873	6.40082	44342.75	-1.387735E-10	-7.205987E+9	15.413162	0.258683	0	0
0	0	0	-0.15906	6.400665	-24.565733	6.400665	44350.125	8.858761E-10	1.128826E+9	15.444191	0.257057	0	0
0	0	0	-0.159509	6.40087	-24.567116	6.40087	44342	-1.014384E-10	-9.8582E+9	15.389773	0.256158	0	0
0	0	0	-0.159142	6.400764	-24.566219	6.400764	44348.625	-2.395482E-10	-4.174525E+9	15.302919	0.2551	0	0
0	0	0	-0.158774	6.400679	-24.565403	6.400679	44355.25	2.694098E-9	3.711818E+8	15.367974	0.253527	0	0
0	0	0	-0.158774	6.400799	-24.56586	6.400799	44355.25	-1.648075E-10	-6.067686E+9	15.293051	0.25268	0	0
0	0	0	-0.159428	6.400799	-24.566738	6.400799	44343.5	-1.647638E-10	-6.069293E+9	15.236799	0.251464	0	0
0	0	0	-0.159101	6.400736	-24.566057	6.400736	44349.375	-3.760493E-10	-2.659226E+9	15.289856	0.24993	0	0
0	0	0	-0.158448	6.400517	-24.564345	6.400517	44361.125	1.101153E-10	9.081388E+9	15.169568	0.249322	0	0
0	0	0	-0.158693	6.400679	-24.565293	6.400679	44356.75	2.694189E-9	3.711692E+8	15.139126	0.247947	0	0
0	0	0	-0.158203	6.4007	-24.564715	6.4007	44365.5	-1.30734E-9	-7.649122E+8	15.173699	0.246704	0	0
0	0	0	-0.157876	6.400736	-24.56441	6.400736	44371.375	-3.762359E-10	-2.657907E+9	15.067766	0.245911	0	0
0	0	0	-0.158244	6.400679	-24.564689	6.400679	44364.75	2.694675E-9	3.711023E+8	15.104741	0.244417	0	0
0	0	0	-0.157917	6.400743	-24.564492	6.400743	44370.625	-3.293181E-10	-3.036578E+9	15.078609	0.243505	0	0
0	0	0	-0.157549	6.400757	-24.564052	6.400757	44377.25	-2.636253E-10	-3.793263E+9	14.981892	0.242473	0	0
0	0	0	-0.157713	6.40058	-24.563599	6.40058	44374.375	1.763254E-10	5.671333E+9	15.021658	0.241045	0	0
0	0	0	-0.157549	6.400813	-24.564267	6.400813	44377.25	-1.465885E-10	-6.821816E+9	14.94441	0.240265	0	0
0	0	0	-0.158162	6.400757	-24.564875	6.400757	44366.25	-2.635599E-10	-3.794203E+9	14.88054	0.239089	0	0
0	0	0	-0.15759	6.400552	-24.563327	6.400552	44376.625	1.391722E-10	7.185343E+9	14.933298	0.237833	0	0
0	0	0	-0.157304	6.400517	-24.562809	6.400517	44381.75	1.101665E-10	9.077167E+9	14.832089	0.237171	0	0
0	0	0	-0.157345	6.400771	-24.563832	6.400771	44381	-2.197794E-10	-4.550017E+9	14.821932	0.235955	0	0
0	0	0	-0.157304	6.400778	-24.563804	6.400778	44381.75	-2.029027E-10	-4.92847E+9	14.868744	0.234712	0	0
0	0	0	-0.157468	6.400736	-24.563862	6.400736	44378.75	-3.762984E-10	-2.657466E+9	14.742482	0.233998	0	0
0	0	0	-0.157223	6.400862	-24.564016	6.400862	44383.125	-1.055905E-10	-9.470546E+9	14.751218	0.232544	0	0
0	0	0	-0.157508	6.400616	-24.563459	6.400616	44378	2.646864E-10	3.778056E+9	14.718844	0.231737	0	0
0	0	0	-0.157386	6.400771	-24.563886	6.400771	44380.25	-2.197757E-10	-4.550093E+9	14.621524	0.230759	0	0
0	0	0	-0.157753	6.40063	-24.563842	6.40063	44373.625	3.309912E-10	3.021228E+9	14.686117	0.22945	0	0
0	0	0	-0.158284	6.400679	-24.564744	6.400679	44364.125	2.694637E-9	3.711075E+8	14.607894	0.228895	0	0
0	0	0	-0.158774	6.400587	-24.565053	6.400587	44355.25	1.888566E-10	5.295022E+9	14.575747	0.227625	0	0
0	0	0	-0.158774	6.400778	-24.565779	6.400778	44355.25	-2.027816E-10	-4.931415E+9	14.591767	0.226528	0	0
0	0	0	-0.15857	6.40058	-24.564752	6.40058	44358.875	1.762638E-10	5.673315E+9	14.469347	0.225774	0	0
0	0	0	-0.158856	6.400545	-24.565001	6.400545	44353.75	1.321385E-10	7.567819E+9	14.496814	0.224346	0	0
0	0	0	-0.158897	6.400686	-24.565594	6.400686	44353	-1.320041E-7	-7575522.133246	14.48437	0.223474	0	0
0	0	0	-0.158734	6.400587	-24.564998	6.400587	44356	1.888598E-10	5.294932E+9	14.372139	0.222694	0	0
0	0	0	-0.159795	6.400665	-24.566721	6.400665	44336.875	8.856115E-10	1.129163E+9	14.435185	0.221292	0	0
0	0	0	-0.159428	6.400531	-24.565716	6.400531	44343.5	1.200872E-10	8.327283E+9	14.33769	0.220856	0	0
0	0	0	-0.159632	6.400778	-24.566931	6.400778	44339.875	-2.027113E-10	-4.933125E+9	14.304921	0.21956	0	0
0	0	0	-0.159183	6.400517	-24.565333	6.400517	44347.875	1.100824E-10	9.084101E+9	14.345554	0.218476	0	0
0	0	0	-0.160326	6.400609	-24.567219	6.400609	44327.375	2.403057E-10	4.161366E+9	14.221002	0.21796	0	0
0	0	0	-0.160081	6.400743	-24.567401	6.400743	44331.75	-3.290296E-10	-3.039241E+9	14.240532	0.216466	0	0
0	0	0	-0.16004	6.400644	-24.566969	6.400644	44332.5	4.412812E-10	2.266129E+9	14.195244	0.21566	0	0
0	0	0	-0.16053	6.40046	-24.566929	6.40046	44323.625	8.249948E-11	1.212129E+10	14.103608	0.214933	0	0
0	0	0	-0.16102	6.400623	-24.568206	6.400623	44314.875	2.937431E-10	3.404336E+9	14.175975	0.213505	0	0
0	0	0	-0.161429	6.400623	-24.568754	6.400623	44307.5	2.936942E-10	3.404903E+9	14.064529	0.212976	0	0
0	0	0	-0.162736	6.400496	-24.570026	6.400496	44284	9.770107E-11	1.02353E+10	14.065329	0.21168	0	0
0	0	0	-0.16102	6.400693	-24.568475	6.400693	44314.875	-2.586091E-9	-3.86684E+8	14.050414	0.2109	0	0
0	0	0	-0.161265	6.400693	-24.568804	6.400693	44310.5	-2.585835E-9	-3.867222E+8	13.944886	0.210279	0	0
0	0	0	-0.160939	6.400573	-24.567908	6.400573	44316.375	1.650752E-10	6.057845E+9	13.982303	0.208996	0	0
0	0	0	-0.162123	6.400517	-24.569284	6.400517	44295.125	1.099515E-10	9.094919E+9	13.909677	0.208295	0	0
0	0	0	-0.16151	6.400764	-24.569402	6.400764	44306.125	-2.393187E-10	-4.178529E+9	13.834603	0.20737	0	0
0	0	0	-0.161225	6.400728	-24.568883	6.400728	44311.25	-4.38139E-10	-2.282381E+9	13.878372	0.206206	0	0
0	0	0	-0.16098	6.400531	-24.567801	6.400531	44315.625	1.200117E-10	8.332521E+9	13.772442	0.205585	0	0
0	0	0	-0.160081	6.400594	-24.566836	6.400594	44331.75	2.032987E-10	4.918871E+9	13.80644	0.204435	0	0
0	0	0	-0.159918	6.4007	-24.56702	6.4007	44334.75	-1.306433E-9	-7.654427E+8	13.75803	0.203813	0	0
0	0	0	-0.159754	6.400764	-24.567042	6.400764	44337.625	-2.394888E-10	-4.17556E+9	13.685934	0.202808	0	0
0	0	0	-0.159387	6.400616	-24.565984	6.400616	44344.25	2.644851E-10	3.780932E+9	13.746346	0.201618	0	0
0	0	0	-0.15955	6.400862	-24.567144	6.400862	44341.375	-1.054912E-10	-9.479463E+9	13.606361	0.20109	0	0
0	0	0	-0.159509	6.4007	-24.566471	6.4007	44342	-1.306647E-9	-7.653176E+8	13.620099	0.19982	0	0
0	0	0	-0.159469	6.400736	-24.566551	6.400736	44342.75	-3.759931E-10	-2.659623E+9	13.561838	0.199384	0	0
0	0	0	-0.159142	6.400721	-24.566058	6.400721	44348.625	-5.258609E-10	-1.901644E+9	13.489535	0.198392	0	0
0	0	0	-0.15857	6.40063	-24.56494	6.40063	44358.875	3.308812E-10	3.022233E+9	13.550521	0.197255	0	0
0	0	0	-0.158489	6.400566	-24.564588	6.400566	44360.375	1.555077E-10	6.430549E+9	13.431216	0.196779	0	0
0	0	0	-0.159142	6.400757	-24.566192	6.400757	44348.625	-2.634552E-10	-3.795711E+9	13.48311	0.19547	0	0
0	0	0	-0.158284	6.40058	-24.564368	6.40058	44364.125	1.762847E-10	5.672643E+9	13.423557	0.194875	0	0
0	0	0	-0.159183	6.400637	-24.56579	6.400637	44347.875	3.781915E-10	2.644163E+9	13.347602	0.194082	0	0
0	0	0	-0.158611	6.400672	-24.565156	6.400672	44358.25	1.333533E-9	7.49888E+8	13.405271	0.192892	0	0
0	0	0	-0.158407	6.400679	-24.564909	6.400679	44361.875	2.6945E-9	3.711263E+8	13.246438	0.192416	0	0
0	0	0	-0.157753	6.400806	-24.564515	6.400806	44373.625	-1.551886E-10	-6.443773E+9	13.264943	0.191253	0	0
0	0	0	-0.15759	6.40046	-24.562978	6.40046	44376.625	8.259813E-11	1.210681E+10	13.201359	0.190711	0	0
0	0	0	-0.15808	6.400799	-24.564927	6.400799	44367.75	-1.648539E-10	-6.065976E+9	13.151061	0.189719	0	0
0	0	0	-0.157999	6.4007	-24.564441	6.4007	44369.25	-1.30745E-9	-7.648475E+8	13.164179	0.188846	0	0
0	0	0	-0.158162	6.400644	-24.564445	6.400644	44366.25	4.416172E-10	2.264405E+9	13.034649	0.188291	0	0
0	0	0	-0.158529	6.400714	-24.565208	6.400714	44359.625	-6.568349E-10	-1.522453E+9	13.111251	0.187114	0	0
0	0	0	-0.159509	6.400785	-24.566794	6.400785	44342	-1.882616E-10	-5.311759E+9	13.004997	0.186652	0	0
0	0	0	-0.158897	6.400686	-24.565594	6.400686	44353	-1.320041E-7	-7575522.197617	13.005237	0.185581	0	0
0	0	0	-0.159305	6.400707	-24.566224	6.400707	44345.75	-8.740564E-10	-1.144091E+9	13.009327	0.184801	0	0
0	0	0	-0.159428	6.400728	-24.566469	6.400728	44343.5	-4.384579E-10	-2.280721E+9	12.89069	0.184206	0	0
0	0	0	-0.159673	6.400545	-24.566099	6.400545	44339.125	1.320949E-10	7.570315E+9	12.927005	0.183148	0	0
0	0	0	-0.159509	6.400637	-24.566229	6.400637	44342	3.781414E-10	2.644513E+9	12.802791	0.182751	0	0
0	0	0	-0.160367	6.40075	-24.567812	6.40075	44326.625	-2.92518E-10	-3.418593E+9	12.827086	0.181588	0	0
0	0	0	-0.16049	6.400728	-24.567896	6.400728	44324.5	-4.3827E-10	-2.281698E+9	12.757029	0.181085	0	0
0	0	0	-0.161143	6.400728	-24.568774	6.400728	44312.75	-4.381538E-10	-2.282303E+9	12.684194	0.180186	0	0
0	0	0	-0.160653	6.40075	-24.568196	6.40075	44321.5	-2.924841E-10	-3.418989E+9	12.725432	0.179247	0	0
0	0	0	-0.160367	6.400644	-24.567408	6.400644	44326.625	4.412227E-10	2.266429E+9	12.588373	0.178824	0	0
0	0	0	-0.160449	6.400665	-24.567599	6.400665	44325.125	8.853768E-10	1.129463E+9	12.653851	0.177661	0	0
0	0	0	-0.161674	6.400672	-24.569272	6.400672	44303.125	1.331875E-9	7.50821E+8	12.552042	0.177185	0	0
0	0	0	-0.161592	6.40051	-24.568544	6.40051	44304.625	1.055726E-10	9.472159E+9	12.568173	0.176127	0	0
0	0	0	-0.161429	6.400552	-24.568485	6.400552	44307.5	1.389554E-10	7.196553E+9	12.537241	0.175598	0	0
0	0	0	-0.161919	6.400728	-24.569816	6.400728	44298.75	-4.380154E-10	-2.283025E+9	12.44333	0.174911	0	0
0	0	0	-0.163797	6.400637	-24.571991	6.400637	44265	3.774848E-10	2.649113E+9	12.483175	0.173998	0	0
0	0	0	-0.163021	6.400658	-24.571029	6.400658	44278.875	6.622286E-10	1.510053E+9	12.332407	0.173496	0	0
0	0	0	-0.162409	6.400623	-24.570071	6.400623	44290	2.935782E-10	3.406248E+9	12.371522	0.172557	0	0
0	0	0	-0.162654	6.400587	-24.570266	6.400587	44285.5	1.885597E-10	5.303361E+9	12.26673	0.172015	0	0
0	0	0	-0.163103	6.400658	-24.571139	6.400658	44277.5	6.62208E-10	1.5101E+9	12.291731	0.170971	0	0
0	0	0	-0.163103	6.400728	-24.571408	6.400728	44277.5	-4.378053E-10	-2.28412E+9	12.227198	0.170429	0	0
0	0	0	-0.162572	6.400686	-24.570533	6.400686	44287	-1.318077E-7	-7586812.508783	12.158427	0.169728	0	0
0	0	0	-0.162491	6.400545	-24.569885	6.400545	44288.5	1.319441E-10	7.578969E+9	12.180242	0.168961	0	0
0	0	0	-0.162082	6.400743	-24.57009	6.400743	44295.75	-3.287624E-10	-3.041711E+9	12.058546	0.168406	0	0
0	0	0	-0.161429	6.400728	-24.569158	6.400728	44307.5	-4.381019E-10	-2.282574E+9	12.123123	0.167388	0	0
0	0	0	-0.160939	6.40075	-24.56858	6.40075	44316.375	-2.924503E-10	-3.419384E+9	12.004047	0.167176	0	0
0	0	0	-0.160204	6.400728	-24.567512	6.400728	44329.625	-4.383207E-10	-2.281435E+9	12.065851	0.165933	0	0
0	0	0	-0.160612	6.400757	-24.568168	6.400757	44322.25	-2.632986E-10	-3.79797E+9	11.95403	0.165563	0	0
0	0	0	-0.160939	6.400587	-24.567961	6.400587	44316.375	1.886911E-10	5.299666E+9	11.946115	0.16469	0	0
0	0	0	-0.160367	6.400891	-24.56835	6.400891	44326.625	-9.092047E-11	-1.099862E+10	11.919245	0.164082	0	0
0	0	0	-0.160449	6.400855	-24.568325	6.400855	44325.125	-1.098427E-10	-9.103924E+9	11.848941	0.163315	0	0
0	0	0	-0.159877	6.400771	-24.567234	6.400771	44335.375	-2.195535E-10	-4.554699E+9	11.877787	0.162416	0	0
0	0	0	-0.159836	6.400609	-24.56656	6.400609	44336.125	2.403531E-10	4.160545E+9	11.73578	0.16198	0	0
0	0	0	-0.159305	6.400587	-24.565766	6.400587	44345.75	1.888162E-10	5.296156E+9	11.759314	0.161134	0	0
0	0	0	-0.158938	6.400743	-24.565864	6.400743	44352.375	-3.291826E-10	-3.037827E+9	11.627402	0.160658	0	0
0	0	0	-0.159877	6.400672	-24.566857	6.400672	44335.375	1.332845E-9	7.502749E+8	11.703695	0.159679	0	0
0	0	0	-0.159183	6.400637	-24.56579	6.400637	44347.875	3.781915E-10	2.644163E+9	11.576508	0.159415	0	0
0	0	0	-0.158448	6.400827	-24.565528	6.400827	44361.125	-1.318964E-10	-7.581709E+9	11.58024	0.158463	0	0
0	0	0	-0.158325	6.400644	-24.564665	6.400644	44363.375	4.415886E-10	2.264551E+9	11.520309	0.157895	0	0
0	0	0	-0.157917	6.400672	-24.564223	6.400672	44370.625	1.333905E-9	7.496788E+8	11.492346	0.157062	0	0
0	0	0	-0.15759	6.400743	-24.564053	6.400743	44376.625	-3.293626E-10	-3.036167E+9	11.463198	0.156546	0	0
0	0	0	-0.158325	6.400721	-24.56496	6.400721	44363.375	-5.260358E-10	-1.901011E+9	11.38713	0.155872	0	0
0	0	0	-0.159101	6.400728	-24.56603	6.400728	44349.375	-4.38516E-10	-2.280419E+9	11.388928	0.155171	0	0
0	0	0	-0.158529	6.4007	-24.565154	6.4007	44359.625	-1.307166E-9	-7.650135E+8	11.262587	0.154642	0	0
0	0	0	-0.158489	6.400743	-24.56526	6.400743	44360.375	-3.29242E-10	-3.037279E+9	11.316462	0.15365	0	0
0	0	0	-0.15906	6.400799	-24.566244	6.400799	44350.125	-1.647884E-10	-6.068387E+9	11.184934	0.153346	0	0
0	0	0	-0.159836	6.400658	-24.566749	6.400658	44336.125	6.630848E-10	1.508103E+9	11.2579	0.152341	0	0
0	0	0	-0.160163	6.400679	-24.567268	6.400679	44330.25	2.692579E-9	3.713911E+8	11.113453	0.152209	0	0
0	0	0	-0.160612	6.400693	-24.567926	6.400693	44322.25	-2.586521E-9	-3.866197E+8	11.175296	0.150874	0	0
0	0	0	-0.160775	6.400764	-24.568414	6.400764	44319.25	-2.393896E-10	-4.177292E+9	11.06459	0.150874	0	0
0	0	0	-0.160735	6.400721	-24.568198	6.400721	44320	-5.255214E-10	-1.902872E+9	11.078697	0.149856	0	0
0	0	0	-0.160449	6.400764	-24.567975	6.400764	44325.125	-2.394213E-10	-4.176738E+9	10.985949	0.149486	0	0
0	0	0	-0.160694	6.400834	-24.568573	6.400834	44320.75	-1.255072E-10	-7.967667E+9	10.995038	0.148653	0	0
0	0	0	-0.160775	6.400757	-24.568387	6.400757	44319.25	-2.632807E-10	-3.798227E+9	10.919007	0.148269	0	0
0	0	0	-0.160857	6.400665	-24.568148	6.400665	44317.875	8.852319E-10	1.129647E+9	10.909178	0.14733	0	0
0	0	0	-0.16098	6.400552	-24.567882	6.400552	44315.625	1.389809E-10	7.195234E+9	10.849735	0.146973	0	0
0	0	0	-0.161388	6.400813	-24.569426	6.400813	44308.25	-1.463606E-10	-6.832439E+9	10.782222	0.146193	0	0
0	0	0	-0.161878	6.400545	-24.569062	6.400545	44299.5	1.319768E-10	7.577087E+9	10.780028	0.145519	0	0
0	0	0	-0.161837	6.400545	-24.569007	6.400545	44300.25	1.319791E-10	7.576958E+9	10.669245	0.145096	0	0
0	0	0	-0.161837	6.4007	-24.569599	6.4007	44300.25	-1.305417E-9	-7.660388E+8	10.68422	0.144408	0	0
0	0	0	-0.161674	6.400594	-24.568976	6.400594	44303.125	2.031674E-10	4.922049E+9	10.586894	0.143734	0	0
0	0	0	-0.163756	6.400806	-24.572582	6.400806	44265.75	-1.548113E-10	-6.459476E+9	10.60118	0.14306	0	0
0	0	0	-0.163675	6.4007	-24.572068	6.4007	44267.25	-1.304444E-9	-7.666099E+8	10.495248	0.142531	0	0
0	0	0	-0.16441	6.400785	-24.573379	6.400785	44254	-1.878879E-10	-5.322321E+9	10.513646	0.14191	0	0
0	0	0	-0.164696	6.400813	-24.573871	6.400813	44248.875	-1.461645E-10	-6.841607E+9	10.412237	0.141367	0	0
0	0	0	-0.16539	6.400609	-24.574024	6.400609	44236.5	2.398131E-10	4.169915E+9	10.441835	0.140825	0	0
0	0	0	-0.165186	6.400573	-24.573615	6.400573	44240.125	1.647912E-10	6.068286E+9	10.334944	0.140389	0	0
0	0	0	-0.163961	6.400707	-24.572479	6.400707	44262.125	-8.724082E-10	-1.146252E+9	10.352818	0.139516	0	0
0	0	0	-0.163675	6.400665	-24.571934	6.400665	44267.25	8.842207E-10	1.130939E+9	10.250313	0.139054	0	0
0	0	0	-0.162776	6.400785	-24.571184	6.400785	44283.375	-1.880127E-10	-5.318791E+9	10.28377	0.138393	0	0
0	0	0	-0.162286	6.400609	-24.569853	6.400609	44292.125	2.401146E-10	4.164678E+9	10.161343	0.137943	0	0
0	0	0	-0.162123	6.400714	-24.570037	6.400714	44295.125	-6.558798E-10	-1.524669E+9	10.194194	0.13715	0	0
0	0	0	-0.162164	6.400827	-24.570522	6.400827	44294.375	-1.316979E-10	-7.593134E+9	10.083269	0.136727	0	0
0	0	0	-0.161551	6.40058	-24.568758	6.40058	44305.375	1.760512E-10	5.680165E+9	10.099653	0.136105	0	0
0	0	0	-0.160857	6.400644	-24.568067	6.400644	44317.875	4.411356E-10	2.266876E+9	10.02119	0.13555	0	0
0	0	0	-0.160204	6.400827	-24.567888	6.400827	44329.625	-1.318027E-10	-7.587096E+9	10.00472	0.135048	0	0
0	0	0	-0.16	6.400672	-24.567022	6.400672	44333.25	1.332781E-9	7.503108E+8	9.902067	0.134426	0	0
0	0	0	-0.159469	6.400693	-24.566389	6.400693	44342.75	-2.587717E-9	-3.864409E+8	9.858168	0.133977	0	0
0	0	0	-0.159428	6.400707	-24.566388	6.400707	44343.5	-8.740121E-10	-1.144149E+9	9.82135	0.133302	0	0
0	0	0	-0.159754	6.400623	-24.566504	6.400623	44337.625	2.938939E-10	3.402589E+9	9.793916	0.1328	0	0
0	0	0	-0.160245	6.40075	-24.567647	6.40075	44328.75	-2.92532E-10	-3.41843E+9	9.76587	0.132152	0	0
0	0	0	-0.159469	6.400693	-24.566389	6.400693	44342.75	-2.587717E-9	-3.864409E+8	9.715396	0.131861	0	0
0	0	0	-0.159591	6.400637	-24.566339	6.400637	44340.5	3.781286E-10	2.644603E+9	9.691381	0.131002	0	0
0	0	0	-0.158938	6.400658	-24.565541	6.400658	44352.375	6.633278E-10	1.50755E+9	9.624338	0.13079	0	0
0	0	0	-0.158734	6.400721	-24.565509	6.400721	44356	-5.259483E-10	-1.901328E+9	9.609613	0.129891	0	0
0	0	0	-0.158448	6.400658	-24.564883	6.400658	44361.125	6.634587E-10	1.507253E+9	9.517259	0.1296	0	0
0	0	0	-0.159305	6.400714	-24.56625	6.400714	44345.75	-6.566295E-10	-1.522929E+9	9.54945	0.12878	0	0
0	0	0	-0.158203	6.40075	-24.564903	6.40075	44365.5	-2.927745E-10	-3.415598E+9	9.440888	0.128503	0	0
0	0	0	-0.159183	6.400728	-24.56614	6.400728	44347.875	-4.385011E-10	-2.280496E+9	9.455177	0.127776	0	0
0	0	0	-0.158938	6.400686	-24.565649	6.400686	44352.375	-1.320022E-7	-7575628.917589	9.341129	0.127366	0	0
0	0	0	-0.15906	6.400594	-24.565464	6.400594	44350.125	2.03383E-10	4.916833E+9	9.32734	0.126691	0	0
0	0	0	-0.158856	6.400757	-24.565808	6.400757	44353.75	-2.634857E-10	-3.795273E+9	9.21474	0.12644	0	0
0	0	0	-0.159469	6.400799	-24.566793	6.400799	44342.75	-1.64761E-10	-6.069396E+9	9.238655	0.125673	0	0
0	0	0	-0.159673	6.400573	-24.566206	6.400573	44339.125	1.6516E-10	6.054736E+9	9.162461	0.125211	0	0
0	0	0	-0.160204	6.400714	-24.567458	6.400714	44329.625	-6.563907E-10	-1.523483E+9	9.137457	0.12484	0	0
0	0	0	-0.161102	6.400651	-24.568423	6.400651	44313.375	5.296633E-10	1.887992E+9	9.09375	0.124219	0	0
0	0	0	-0.160857	6.4007	-24.568282	6.4007	44317.875	-1.305936E-9	-7.657342E+8	9.030915	0.12373	0	0
0	0	0	-0.160285	6.400778	-24.56781	6.400778	44328.125	-2.026575E-10	-4.934433E+9	9.017626	0.123095	0	0
0	0	0	-0.160408	6.400679	-24.567598	6.400679	44325.875	2.692314E-9	3.714278E+8	8.910741	0.12287	0	0
0	0	0	-0.161592	6.400594	-24.568866	6.400594	44304.625	2.031743E-10	4.921882E+9	0	0	0	0
0	0	0	-0.162123	6.400637	-24.569741	6.400637	44295.125	3.777417E-10	2.647312E+9	0	0	0	0
0	0	0	-0.161878	6.400651	-24.569466	6.400651	44299.5	5.294975E-10	1.888583E+9	0	0	0	0
0	0	0	-0.162082	6.400757	-24.570143	6.400757	44295.75	-2.631411E-10	-3.800242E+9	0	0	0	0
0	0	0	-0.161388	6.400658	-24.568834	6.400658	44308.25	6.626679E-10	1.509052E+9	0	0	0	0
0	0	0	-0.162205	6.400517	-24.569394	6.400517	44293.625	1.099478E-10	9.095227E+9	0	0	0	0
0	0	0	-0.161919	6.400714	-24.569763	6.400714	44298.75	-6.559335E-10	-1.524545E+9	0	0	0	0
0	0	0	-0.162695	6.400764	-24.570993	6.400764	44284.875	-2.392039E-10	-4.180534E+9	0	0	0	0
0	0	0	-0.164083	6.400623	-24.572321	6.400623	44259.875	2.933785E-10	3.408566E+9	0	0	0	0
0	0	0	-0.163756	6.400651	-24.57199	6.400651	44265.75	5.290941E-10	1.890023E+9	0	0	0	0
0	0	0	-0.165267	6.400538	-24.57359	6.400538	44238.625	1.255135E-10	7.967269E+9	0	0	0	0
0	0	0	-0.164451	6.400524	-24.572439	6.400524	44253.25	1.146277E-10	8.723895E+9	0	0	0	0
0	0	0	-0.163961	6.400714	-24.572506	6.400714	44262.125	-6.553912E-10	-1.525806E+9	0	0	0	0
0	0	0	-0.163471	6.400609	-24.571444	6.400609	44270.875	2.399994E-10	4.166677E+9	0	0	0	0
0	0	0	-0.164287	6.400771	-24.573161	6.400771	44256.25	-2.191616E-10	-4.562842E+9	0	0	0	0
0	0	0	-0.163797	6.400898	-24.572986	6.400898	44265	-8.776961E-11	-1.139346E+10	0	0	0	0
0	0	0	-0.163389	6.400672	-24.571577	6.400672	44272.375	1.330951E-9	7.513425E+8	0	0	0	0
0	0	0	-0.163348	6.400714	-24.571683	6.400714	44273.125	-6.555541E-10	-1.525427E+9	0	0	0	0
0	0	0	-0.162327	6.400658	-24.570096	6.400658	44291.375	6.624155E-10	1.509626E+9	0	0	0	0
0	0	0	-0.161715	6.400602	-24.569058	6.400602	44302.375	2.201226E-10	4.542923E+9	0	0	0	0
0	0	0	-0.161225	0	-0.161225	0	44311.25	0	0	0	0	0	0
0	0	0	-0.161184	0	-0.161184	0	44312	0	0	0	0	0	0
