Vload_(V)	ILoad_(A)	RsLoad (ohm)	SunsVoc_Voltage_(V)	SunsVoc_Current_(A)	Model_Voltage_(V)	Model_Current_(A)	Carrier_Density_(cm-3)	Lifetime_(s)	Inverse_Lifetime_(s-1)	Efficiency_(%)	Intensity_(suns)	Dark_IV_Voltage_(V)	Dark_IV_Current_(A)
3.302188	6.04945	0	50.570259	0.185845	50.459365	0.185845	6.683428E+15	0.000507	1898.079951	19.11258	1.19542	0	0
3.339932	6.054239	-0.574457	52.198863	-0.564593	52.493233	-0.564593	1.077435E+16	0.000725	1187.260212	19.101052	1.194204	0	0
3.433947	6.055095	-0.590801	52.710995	-1.20841	53.31242	-1.20841	1.248262E+16	0.000765	1048.404056	19.076285	1.19304	0	0
4.012857	6.054547	-0.685895	52.827216	-1.03709	53.3378	-1.03709	1.290445E+16	0.00081	958.055783	19.052702	1.190501	0	0
5.912659	6.05264	-0.997987	52.792219	-0.659649	53.118048	-0.659649	1.277603E+16	0.000847	909.528091	19.017266	1.186813	0	0
8.357467	6.044219	3.896173	52.696294	-0.247552	52.819669	-0.247552	1.24302E+16	0.000878	882.314279	18.955993	1.183547	0	0
10.876388	6.017757	4.767349	52.576479	0.161113	52.495291	0.161113	1.201069E+16	0.000907	862.622334	18.884032	1.181379	0	0
12.961497	6.005541	4.60281	52.458543	0.540093	52.183433	0.540093	1.161087E+16	0.000938	842.876398	18.860833	1.178999	0	0
14.993175	6.003191	4.291884	52.334849	0.893358	51.874685	0.893358	1.120505E+16	0.000967	826.005918	18.88671	1.175442	0	0
17.177946	6.00161	3.94585	52.208215	1.219103	51.573121	1.219103	1.080346E+16	0.000995	811.34868	18.905399	1.171079	0	0
19.38329	6.00394	3.552373	52.086808	1.515306	51.288898	1.515306	1.04312E+16	0.001023	796.506573	18.911575	1.166557	0	0
21.514933	5.996597	3.277703	51.965033	1.795315	51.009569	1.795315	1.006994E+16	0.001053	781.347345	18.892178	1.162101	0	0
23.608772	5.982155	3.055226	51.841666	2.060988	50.733052	2.060988	9.715947E+15	0.001084	766.106608	18.865861	1.157818	0	0
25.813975	5.980973	2.6953	51.713888	2.312613	50.456258	2.312613	9.361596E+15	0.001114	751.836212	18.844323	1.153679	0	0
27.977017	5.98177	2.328011	51.585988	2.534584	50.192655	2.534584	9.019022E+15	0.001141	741.046037	18.835304	1.149739	0	0
30.098323	5.979583	1.989423	51.465765	2.742616	49.942821	2.742616	8.707698E+15	0.001171	727.823819	18.853512	1.145376	0	0
32.256535	5.97587	1.655145	51.345583	2.932927	49.70066	2.932927	8.406495E+15	0.0012	716.077224	18.885015	1.140233	0	0
32.95143	5.97499	1.545231	51.233813	3.107148	49.475117	3.107148	8.135083E+15	0.00123	703.191665	18.903392	1.134706	0	0
33.672427	5.975719	1.419278	51.104565	3.282046	49.227256	3.282046	7.831359E+15	0.001259	692.570166	18.897211	1.129338	0	0
34.374916	5.973484	1.317403	50.990876	3.435051	49.007988	3.435051	7.572899E+15	0.001289	680.872258	18.876774	1.124354	0	0
35.072691	5.970475	1.220515	50.8749	3.582368	48.787758	3.582368	7.317367E+15	0.001319	669.032338	18.853581	1.119263	0	0
35.777837	5.969968	1.105743	50.757699	3.717674	48.571575	3.717674	7.06722E+15	0.001348	658.793487	18.844345	1.11408	0	0
36.482265	5.958799	1.054265	50.645685	3.844996	48.364772	3.844996	6.835506E+15	0.001379	647.411656	18.851158	1.108845	0	0
37.189779	5.951762	0.973651	50.525053	3.966607	48.149869	3.966607	6.593771E+15	0.001408	637.918703	18.872147	1.102961	0	0
37.892488	5.932008	0.948508	50.416306	4.073209	47.956803	4.073209	6.382575E+15	0.001437	628.418908	18.89793	1.097223	0	0
38.591388	5.909075	0.91871	50.298124	4.178414	47.752259	4.178414	6.160072E+15	0.001465	619.800425	18.900361	1.091524	0	0
39.276389	5.877845	0.900156	50.186355	4.273997	47.560158	4.273997	5.95616E+15	0.001492	611.202358	18.888473	1.086051	0	0
39.978736	5.843235	0.869447	50.073319	4.368096	47.366467	4.368096	5.756191E+15	0.001523	601.620476	18.880571	1.080484	0	0
40.684162	5.802581	0.835815	49.955996	4.458076	47.169195	4.458076	5.555087E+15	0.001553	592.755279	18.874658	1.07468	0	0
41.378192	5.748506	0.812593	49.843246	4.540682	46.98113	4.540682	5.367829E+15	0.001583	584.021952	18.879195	1.068849	0	0
42.081612	5.68401	0.784513	49.727719	4.616664	46.793043	4.616664	5.18188E+15	0.001609	576.989713	18.902231	1.062966	0	0
42.775242	5.601018	0.762925	49.619175	4.687689	46.61582	4.687689	5.012471E+15	0.001637	569.011027	18.910702	1.057637	0	0
43.468017	5.500253	0.740359	49.507161	4.754691	46.436246	4.754691	4.842871E+15	0.001664	562.072198	18.927205	1.052494	0	0
44.150103	5.383152	0.715494	49.397228	4.819623	46.259872	4.819623	4.681436E+15	0.001693	554.169773	18.926776	1.047126	0	0
44.815955	5.238221	0.695394	49.283703	4.879933	46.081466	4.879933	4.519782E+15	0.001719	547.764637	18.91419	1.041639	0	0
45.484042	5.062966	0.673716	49.17765	4.93519	45.914948	4.93519	4.373281E+15	0.001746	541.009547	18.907144	1.036086	0	0
46.152001	4.852348	0.654463	49.063757	4.990566	45.738158	4.990566	4.22066E+15	0.001773	534.404066	18.919275	1.030586	0	0
46.803686	4.59662	0.640471	48.959828	5.04036	45.576821	5.04036	4.085529E+15	0.001801	527.522854	18.940661	1.024715	0	0
47.453423	4.310549	0.620569	48.846833	5.089623	45.404164	5.089623	3.942962E+15	0.001827	521.412683	18.96074	1.018726	0	0
48.074779	3.970118	0.611889	48.739678	5.134859	45.240964	5.134859	3.811833E+15	0.001854	515.247777	18.965094	1.013041	0	0
48.694308	3.582033	0.603568	48.634401	5.176826	45.081886	5.176826	3.686754E+15	0.001879	509.514232	18.944028	1.007382	0	0
49.287429	3.16529	0.595101	48.526062	5.216812	44.919969	5.216812	3.561808E+15	0.001903	504.446183	18.920634	1.00163	0	0
49.84909	2.726351	0.590083	48.419846	5.255585	44.761134	5.255585	3.442925E+15	0.001929	498.658308	18.90209	0.996157	0	0
50.395688	2.249961	0.593907	48.313017	5.290158	44.604101	5.290158	3.326863E+15	0.001949	494.684273	18.911737	0.990842	0	0
50.922162	1.765205	0.59964	48.208026	5.324884	44.448908	5.324884	3.216132E+15	0.001975	489.279183	18.940569	0.985632	0	0
51.393239	1.294638	0.465674	48.099687	5.356849	44.291162	5.356849	3.105239E+15	0.001994	485.388278	18.968565	0.980436	0	0
51.812313	0.85473	0.378637	47.99882	5.385761	44.144616	5.385761	3.004988E+15	0.002014	481.503882	18.970519	0.975584	0	0
42.537767	5.633336	0.768081	47.888357	5.416319	43.984615	5.416319	2.898419E+15	0.002036	477.103042	18.966097	0.970679	0	0
52.434857	0	0	47.788185	5.442604	43.840284	5.442604	2.804612E+15	0.002056	473.347371	18.957876	0.965707	0	0
0	0	0	47.681928	5.469676	43.68751	5.469676	2.707972E+15	0.002078	469.116063	18.960304	0.960564	0	0
0	0	0	47.574977	5.494479	43.535269	5.494479	2.6136E+15	0.002095	465.99499	18.986307	0.955183	0	0
0	0	0	47.473498	5.516654	43.391596	5.516654	2.526673E+15	0.00211	463.430137	19.007386	0.950185	0	0
0	0	0	47.368589	5.539733	43.242732	5.539733	2.439416E+15	0.002129	459.837593	19.01328	0.945081	0	0
0	0	0	47.267233	5.560189	43.100076	5.560189	2.357566E+15	0.002144	457.291226	18.999158	0.939951	0	0
0	0	0	47.165346	5.58044	42.956716	5.58044	2.277653E+15	0.00216	454.287453	18.970492	0.934927	0	0
0	0	0	47.059987	5.600021	42.809304	5.600021	2.197446E+15	0.002175	451.747549	18.9505	0.929771	0	0
0	0	0	46.960346	5.617461	42.670539	5.617461	2.123805E+15	0.002187	449.758791	18.951795	0.924773	0	0
0	0	0	46.856948	5.635484	42.526428	5.635484	2.049603E+15	0.002202	447.058684	18.971891	0.919669	0	0
0	0	0	46.755142	5.651842	42.385442	5.651842	1.978692E+15	0.002214	445.220444	18.9892	0.9145	0	0
0	0	0	46.652193	5.668517	42.242611	5.668517	1.909097E+15	0.002229	442.501682	18.979021	0.9097	0	0
0	0	0	46.549816	5.684408	42.100958	5.684408	1.841939E+15	0.002245	439.879849	18.967521	0.904716	0	0
0	0	0	46.447479	5.698546	41.960586	5.698546	1.7768E+15	0.002252	438.716344	18.952581	0.899678	0	0
0	0	0	46.344571	5.712699	41.819346	5.712699	1.713254E+15	0.002263	436.981825	18.952463	0.894416	0	0
0	0	0	46.247462	5.724509	41.687172	5.724509	1.655042E+15	0.002266	436.807145	18.970262	0.889141	0	0
0	0	0	46.145942	5.737318	41.548511	5.737318	1.595962E+15	0.002275	435.422458	18.981837	0.883918	0	0
0	0	0	46.041849	5.750033	41.406548	5.750033	1.537222E+15	0.002284	433.934247	18.975009	0.878894	0	0
0	0	0	45.944781	5.760733	41.274993	5.760733	1.484078E+15	0.002287	433.671806	18.957713	0.874015	0	0
0	0	0	45.838973	5.772275	41.131583	5.772275	1.427901E+15	0.002292	432.978323	18.939282	0.868925	0	0
0	0	0	45.738148	5.783184	40.994893	5.783184	1.376024E+15	0.002299	431.848416	18.924865	0.863835	0	0
0	0	0	45.638343	5.793199	40.860134	5.793199	1.326224E+15	0.002302	431.429821	18.932956	0.858943	0	0
0	0	0	45.531678	5.803867	40.71604	5.803867	1.274663E+15	0.002309	430.408519	18.954785	0.853879	0	0
0	0	0	45.433711	5.812627	40.584468	5.812627	1.228782E+15	0.002308	430.74447	18.957658	0.849119	0	0
0	0	0	45.33407	5.820969	40.451043	5.820969	1.18353E+15	0.002304	431.646323	18.93852	0.844478	0	0
0	0	0	45.227894	5.829589	40.309012	5.829589	1.136839E+15	0.0023	432.605266	18.9169	0.839798	0	0
0	0	0	45.132949	5.837922	40.181401	5.837922	1.096389E+15	0.002306	431.709025	18.900661	0.835077	0	0
0	0	0	45.027346	5.845541	40.040786	5.845541	1.052806E+15	0.002297	433.55106	18.913825	0.830331	0	0
0	0	0	44.925255	5.853857	39.903962	5.853857	1.012047E+15	0.002302	432.754727	18.929778	0.825558	0	0
0	0	0	44.829289	5.860137	39.776599	5.860137	9.74935E+14	0.002291	434.933387	18.938704	0.821115	0	0
0	0	0	44.725155	5.868016	39.637412	5.868016	9.359478E+14	0.002295	434.31564	18.915438	0.81666	0	0
0	0	0	44.626249	5.874248	39.506233	5.874248	9.001239E+14	0.002285	436.206245	18.887752	0.812336	0	0
0	0	0	44.527955	5.880116	39.376095	5.880116	8.656572E+14	0.002274	438.490381	18.876576	0.807669	0	0
0	0	0	44.422964	5.887233	39.236282	5.887233	8.300605E+14	0.002276	438.172601	18.881293	0.803094	0	0
0	0	0	44.325896	5.892443	39.108171	5.892443	7.982414E+14	0.002262	441.098246	18.899289	0.798454	0	0
0	0	0	44.226377	5.898915	38.975771	5.898915	7.666802E+14	0.002266	440.405489	18.90156	0.794064	0	0
0	0	0	44.12208	5.904482	38.838038	5.904482	7.347275E+14	0.002255	442.64742	18.880384	0.789793	0	0
0	0	0	44.023991	5.908507	38.709543	5.908507	7.05699E+14	0.002227	448.140148	18.858222	0.78551	0	0
0	0	0	43.924921	5.914393	38.578081	5.914393	6.773605E+14	0.002231	447.454658	18.843069	0.781054	0	0
0	0	0	43.822054	5.919332	38.442588	5.919332	6.489512E+14	0.002219	450.029988	18.843645	0.776704	0	0
0	0	0	43.722413	5.922891	38.312418	5.922891	6.223936E+14	0.002188	456.465647	18.849735	0.772328	0	0
0	0	0	43.620975	5.927887	38.178607	5.927887	5.963026E+14	0.002182	457.684993	18.855731	0.767978	0	0
0	0	0	43.518557	5.932966	38.043423	5.932966	5.709014E+14	0.00218	458.123179	18.834066	0.763852	0	0
0	0	0	43.41573	5.93631	37.909281	5.93631	5.463253E+14	0.002148	465.041817	18.80352	0.759767	0	0
0	0	0	43.313434	5.939409	37.776012	5.939409	5.227717E+14	0.002113	472.734516	18.780989	0.755457	0	0
0	0	0	43.20975	5.944026	37.63952	5.944026	4.997848E+14	0.002109	473.769352	18.78408	0.751107	0	0
0	0	0	43.10382	5.948236	37.500503	5.948236	4.771951E+14	0.002097	476.418604	18.804899	0.746704	0	0
0	0	0	43.00279	5.951107	37.368964	5.951107	4.564694E+14	0.002065	483.964367	18.80004	0.742751	0	0
0	0	0	42.891715	5.954733	37.223866	5.954733	4.345782E+14	0.002041	489.637423	18.765042	0.738745	0	0
0	0	0	42.785336	5.958796	37.084303	5.958796	4.144653E+14	0.002034	491.403525	18.732807	0.734593	0	0
0	0	0	42.677323	5.961843	36.943593	5.961843	3.948706E+14	0.002005	498.480946	18.709389	0.730508	0	0
0	0	0	42.568983	5.965008	36.802322	5.965008	3.760278E+14	0.001981	504.577129	18.725886	0.726144	0	0
0	0	0	42.46436	5.967308	36.666601	5.967308	3.585779E+14	0.001942	514.742718	18.738056	0.722072	0	0
0	0	0	42.352549	5.969952	36.521351	5.969952	3.40714E+14	0.001907	524.32294	18.741129	0.717854	0	0
0	0	0	42.23053	5.973634	36.362024	5.973634	3.221127E+14	0.00189	528.931492	18.699952	0.714139	0	0
0	0	0	42.125661	5.976649	36.225207	5.976649	3.068453E+14	0.001875	533.186422	18.666492	0.710278	0	0
0	0	0	42.012585	5.979891	36.077658	5.979891	2.911016E+14	0.001862	537.010043	18.64822	0.706166	0	0
0	0	0	41.908574	5.982153	35.942627	5.982153	2.772562E+14	0.001833	545.510628	18.643341	0.702372	0	0
0	0	0	41.799295	5.984174	35.801089	5.984174	2.63343E+14	0.001795	557.100375	18.667006	0.698379	0	0
0	0	0	41.680175	5.986584	35.646572	5.986584	2.488895E+14	0.001761	567.703622	18.654583	0.694849	0	0
0	0	0	41.570039	5.988574	35.503927	5.988574	2.361626E+14	0.001726	579.371449	18.610837	0.691226	0	0
0	0	0	41.460556	5.990929	35.361724	5.990929	2.240942E+14	0.001703	586.961387	18.580414	0.687577	0	0
0	0	0	41.345683	5.993746	35.21214	5.993746	2.120327E+14	0.001693	590.494054	18.573554	0.683809	0	0
0	0	0	41.236608	5.995999	35.070513	5.995999	2.011277E+14	0.001674	597.340912	18.583591	0.679961	0	0
0	0	0	41.117038	5.998515	34.915186	5.998515	1.897613E+14	0.001657	603.333125	18.591218	0.676127	0	0
0	0	0	41.008209	5.999901	34.774725	5.999901	1.799289E+14	0.001615	618.998578	18.567153	0.672716	0	0
0	0	0	40.888558	6.00152	34.620181	6.00152	1.69659E+14	0.001575	635.015714	18.52506	0.669093	0	0
0	0	0	40.771928	6.00274	34.469899	6.00274	1.601698E+14	0.001525	655.523171	18.497756	0.665378	0	0
0	0	0	40.655748	6.004127	34.320002	6.004127	1.512064E+14	0.001484	673.771545	18.491218	0.661557	0	0
0	0	0	40.529727	6.005994	34.157006	6.005994	1.420104E+14	0.001454	687.855318	18.494058	0.657908	0	0
0	0	0	40.411831	6.007792	34.004446	6.007792	1.338805E+14	0.00143	699.44722	18.489094	0.654272	0	0
0	0	0	40.28973	6.009455	33.846635	6.009455	1.259198E+14	0.001401	713.975496	18.453389	0.650834	0	0
0	0	0	40.167302	6.011221	33.688278	6.011221	1.183841E+14	0.001378	725.896538	18.407468	0.647277	0	0
0	0	0	40.044792	6.013159	33.52961	6.013159	1.112688E+14	0.001364	733.174068	18.38901	0.643694	0	0
0	0	0	39.918852	6.014986	33.366656	6.014986	1.043755E+14	0.001347	742.251639	18.395684	0.63986	0	0
0	0	0	39.79185	6.016125	33.203077	6.016125	9.783389E+13	0.001306	765.697398	18.384654	0.636343	0	0
0	0	0	39.663011	6.017366	33.037023	6.017366	9.159587E+13	0.00127	787.389391	18.356794	0.633051	0	0
0	0	0	39.538378	6.018321	32.876649	6.018321	8.592259E+13	0.001228	814.408371	18.33528	0.629653	0	0
0	0	0	39.402841	6.019215	32.702392	6.019215	8.013362E+13	0.001179	848.1507	18.289516	0.626321	0	0
0	0	0	39.270449	6.020341	32.531885	6.020341	7.48401E+13	0.001144	874.336347	18.29274	0.622566	0	0
0	0	0	39.138628	6.021116	32.362489	6.021116	6.990332E+13	0.001098	911.143615	18.31653	0.619115	0	0
0	0	0	39.002724	6.022247	32.187461	6.022247	6.51418E+13	0.001065	938.734113	18.292399	0.615849	0	0
0	0	0	38.866207	6.023065	32.01199	6.023065	6.067406E+13	0.001023	977.541709	18.235863	0.612623	0	0
0	0	0	38.726995	6.024327	31.832556	6.024327	5.642332E+13	0.000999	1000.904172	18.200961	0.609265	0	0
0	0	0	38.587579	6.025549	31.65289	6.025549	5.245576E+13	0.000976	1024.247995	18.201415	0.605854	0	0
0	0	0	38.441874	6.026668	31.465286	6.026668	4.859865E+13	0.000949	1053.780207	18.19786	0.602482	0	0
0	0	0	38.296292	6.027716	31.277907	6.027716	4.502057E+13	0.000921	1085.206469	18.203366	0.599071	0	0
0	0	0	38.145278	6.02894	31.083361	6.02894	4.15803E+13	0.000902	1108.806447	18.168159	0.596017	0	0
0	0	0	37.991937	6.029822	30.886225	6.029822	3.834977E+13	0.000869	1150.550773	18.103466	0.592897	0	0
0	0	0	37.836104	6.031183	30.685322	6.031183	3.531839E+13	0.00086	1162.681495	18.079522	0.58975	0	0
0	0	0	37.679088	6.032002	30.483531	6.032002	3.250155E+13	0.000829	1206.780402	18.093966	0.586378	0	0
0	0	0	37.517824	6.03253	30.276646	6.03253	2.9838E+13	0.000784	1274.700496	18.082845	0.582981	0	0
0	0	0	37.351047	6.033492	30.062178	6.033492	2.730898E+13	0.000761	1313.606056	18.043127	0.580125	0	0
0	0	0	37.182351	6.033981	29.845814	6.033981	2.496555E+13	0.000718	1392.810091	17.989846	0.577163	0	0
0	0	0	37.011246	6.034452	29.626384	6.034452	2.279113E+13	0.000676	1479.241333	17.952943	0.57395	0	0
0	0	0	36.83569	6.035065	29.401078	6.035065	2.075432E+13	0.000642	1558.075532	17.940969	0.57079	0	0
0	0	0	36.654784	6.035483	29.16916	6.035483	1.884349E+13	0.0006	1666.134905	17.954451	0.567564	0	0
0	0	0	36.468528	6.035888	28.93041	6.035888	1.705786E+13	0.00056	1787.272761	17.944619	0.564576	0	0
0	0	0	36.282599	6.036462	28.691857	6.036462	1.544252E+13	0.000529	1890.555219	17.885487	0.561641	0	0
0	0	0	36.089197	6.036691	28.444172	6.036691	1.392295E+13	0.000485	2059.933906	17.839887	0.558785	0	0
0	0	0	35.895672	6.037244	28.195913	6.037244	1.255092E+13	0.000457	2186.174052	17.815321	0.555585	0	0
0	0	0	35.696798	6.037597	27.941057	6.037597	1.12807E+13	0.000423	2361.948499	17.814242	0.552558	0	0
0	0	0	35.492778	6.038118	27.679395	6.038118	1.011023E+13	0.000397	2519.470255	17.816069	0.549609	0	0
0	0	0	35.289657	6.038421	27.419158	6.038421	9.064898E+12	0.000366	2735.031916	17.773493	0.547031	0	0
0	0	0	35.085474	6.03881	27.157443	6.03881	8.122453E+12	0.00034	2944.746288	17.713173	0.544268	0	0
0	0	0	34.87586	6.039237	26.888721	6.039237	7.256304E+12	0.000316	3163.764577	17.68185	0.541491	0	0
0	0	0	34.662693	6.039891	26.615145	6.039891	6.469754E+12	0.000301	3321.182091	17.68168	0.538543	0	0
0	0	0	34.446872	6.040375	26.338388	6.040375	5.75991E+12	0.000282	3541.809083	17.715211	0.535607	0	0
0	0	0	34.218922	6.040856	26.046109	6.040856	5.094295E+12	0.000264	3792.332833	17.675357	0.533069	0	0
0	0	0	34.02066	6.040983	25.792284	6.040983	4.578056E+12	0.000241	4157.593868	17.604336	0.530424	0	0
0	0	0	33.886022	6.041076	25.619902	6.041076	4.25756E+12	0.000226	4421.050634	17.549074	0.527727	0	0
0	0	0	33.758775	6.041174	25.456969	6.041174	3.975257E+12	0.000214	4679.626369	17.554107	0.524647	0	0
0	0	0	33.641125	6.041245	25.306351	6.041245	3.730888E+12	0.000202	4943.853729	17.554239	0.521949	0	0
0	0	0	33.508365	6.041578	25.136037	6.041578	3.473086E+12	0.000196	5095.173582	17.526425	0.519305	0	0
0	0	0	33.364906	6.042087	24.951786	6.042087	3.214455E+12	0.000194	5149.291343	17.458469	0.516714	0	0
0	0	0	33.213525	6.042408	24.757653	6.042408	2.962357E+12	0.000187	5343.337588	17.400185	0.514096	0	0
0	0	0	33.054222	6.04258	24.553591	6.04258	2.71835E+12	0.000176	5681.014719	17.425146	0.511002	0	0
0	0	0	32.874826	6.042518	24.32415	6.042518	2.467506E+12	0.000158	6315.051124	17.435745	0.508371	0	0
0	0	0	32.687305	6.042989	24.083553	6.042989	2.229973E+12	0.000154	6512.672753	17.394316	0.505978	0	0
0	0	0	32.499579	6.04342	23.842746	6.04342	2.015054E+12	0.000149	6726.934901	17.325349	0.503505	0	0
0	0	0	32.296294	6.043822	23.582064	6.043822	1.805592E+12	0.000143	7006.906457	17.273117	0.500755	0	0
0	0	0	32.083373	6.043885	23.309535	6.043885	1.609482E+12	0.000129	7772.266162	17.302441	0.497979	0	0
0	0	0	31.863998	6.044274	23.028274	6.044274	1.429663E+12	0.000123	8138.423183	17.30869	0.495242	0	0
0	0	0	31.638948	6.044647	22.739764	6.044647	1.266029E+12	0.000117	8528.138934	17.25602	0.492809	0	0
0	0	0	31.408303	6.044783	22.44444	6.044783	1.117728E+12	0.000107	9386.00882	17.172911	0.490442	0	0
0	0	0	31.174391	6.045139	22.144603	6.045139	9.850481E+11	0.000102	9836.756549	17.115254	0.488009	0	0
0	0	0	30.933251	6.045195	21.835962	6.045195	8.647255E+11	9.041608E-5	11059.97956	17.11492	0.485127	0	0
0	0	0	30.679615	6.04579	21.510512	6.04579	7.539851E+11	9.165762E-5	10910.167297	17.107266	0.482668	0	0
0	0	0	30.40797	6.045959	21.162655	6.045959	6.510541E+11	8.296612E-5	12053.112182	17.066117	0.480262	0	0
0	0	0	30.147106	6.046119	20.828604	6.046119	5.654545E+11	7.551572E-5	13242.276737	17.006274	0.477763	0	0
0	0	0	29.868641	6.046426	20.471796	6.046426	4.864568E+11	7.15724E-5	13971.865798	16.953519	0.475515	0	0
0	0	0	29.574087	6.046707	20.094434	6.046707	4.148695E+11	6.727844E-5	14863.602239	16.943565	0.472712	0	0
0	0	0	29.277246	6.046845	19.714363	6.046845	3.533776E+11	6.035258E-5	16569.298631	16.942188	0.470319	0	0
0	0	0	28.985999	6.046935	19.341525	6.046935	3.019098E+11	5.340261E-5	18725.67605	16.883401	0.468084	0	0
0	0	0	28.687974	6.046757	18.960439	6.046757	2.569935E+11	4.245916E-5	23552.042097	16.826549	0.46585	0	0
0	0	0	28.387825	6.047165	18.575691	6.047165	2.185076E+11	4.254646E-5	23503.716836	16.802913	0.463364	0	0
0	0	0	28.088043	6.047285	18.191874	6.047285	1.858215E+11	3.818888E-5	26185.635894	16.809851	0.460786	0	0
0	0	0	27.786179	6.047491	17.805247	6.047491	1.578465E+11	3.584169E-5	27900.473473	16.783231	0.458605	0	0
0	0	0	27.489746	6.047781	17.425422	6.047781	1.344769E+11	3.585813E-5	27887.681109	16.775313	0.456423	0	0
0	0	0	27.197846	6.047772	17.051895	6.047772	1.14848E+11	3.044407E-5	32847.118251	16.697218	0.454215	0	0
0	0	0	26.903047	6.047848	16.674511	6.047848	9.793053E+10	2.719953E-5	36765.335237	16.652653	0.451941	0	0
0	0	0	26.598978	6.047991	16.285149	6.047991	8.30875E+10	2.534238E-5	39459.589287	16.651909	0.449363	0	0
0	0	0	26.285475	6.047974	15.883986	6.047974	7.013554E+10	2.114724E-5	47287.490399	16.618143	0.447313	0	0
0	0	0	25.971769	6.047944	15.482586	6.047944	5.919596E+10	1.748673E-5	57186.220598	16.551493	0.44529	0	0
0	0	0	25.660145	6.048119	15.083492	6.048119	5.001894E+10	1.672484E-5	59791.296179	16.476762	0.443135	0	0
0	0	0	25.36555	6.048181	14.706386	6.048181	4.265543E+10	1.495405E-5	66871.538649	16.46892	0.440888	0	0
0	0	0	25.090066	6.048109	14.353974	6.048109	3.675365E+10	1.219041E-5	82031.672029	16.487415	0.438389	0	0
0	0	0	24.833367	6.048183	14.02534	6.048183	3.199164E+10	1.123101E-5	89039.209222	16.455253	0.436419	0	0
0	0	0	24.569604	6.048696	13.686873	6.048696	2.774047E+10	1.638265E-5	61040.172951	16.360945	0.43466	0	0
0	0	0	24.301348	6.048664	13.343635	6.048664	2.399586E+10	1.358078E-5	73633.452251	16.303369	0.432426	0	0
0	0	0	24.026314	6.048604	12.991771	6.048604	2.068079E+10	1.088183E-5	91896.316018	16.325913	0.430006	0	0
0	0	0	23.747522	6.048698	12.634819	6.048698	1.778755E+10	1.052785E-5	94986.173846	16.313687	0.427811	0	0
0	0	0	23.461258	6.048432	12.268967	6.048432	1.523738E+10	6.660229E-6	150144.989497	16.256158	0.425868	0	0
0	0	0	23.163151	6.048719	11.886935	6.048719	1.296953E+10	7.895923E-6	126647.638316	16.170276	0.423911	0	0
0	0	0	22.872925	6.048739	11.515483	6.048739	1.108634E+10	6.942568E-6	144038.915212	16.118137	0.421703	0	0
0	0	0	22.576206	6.048706	11.135822	6.048706	9.443389E+9	5.650956E-6	176961.199587	16.108465	0.419455	0	0
0	0	0	22.282795	6.048647	10.760446	6.048647	8.058311E+9	4.463593E-6	224034.779487	16.11314	0.417327	0	0
0	0	0	21.977379	6.048747	10.3694	6.048747	6.831899E+9	4.324144E-6	231259.645278	16.052085	0.415515	0	0
0	0	0	21.663754	6.0487	9.96813	6.0487	5.766494E+9	3.423788E-6	292074.158036	15.992537	0.413532	0	0
0	0	0	21.350333	6.048687	9.567058	6.048687	4.867771E+9	2.840445E-6	352057.474963	15.981432	0.411192	0	0
0	0	0	21.054268	6.048914	9.187726	6.048914	4.147849E+9	3.445181E-6	290260.513658	15.992574	0.40905	0	0
0	0	0	20.778825	6.048854	8.835346	6.048854	3.574022E+9	2.670028E-6	374527.848475	15.934792	0.407133	0	0
0	0	0	20.505056	6.048908	8.484886	6.048908	3.082369E+9	2.529635E-6	395313.913607	15.864638	0.405308	0	0
0	0	0	20.23921	6.049068	8.144349	6.049068	2.669758E+9	3.108924E-6	321654.668597	15.816748	0.403206	0	0
0	0	0	19.971649	6.048954	7.802163	6.048954	2.310236E+9	2.075102E-6	481904.096287	15.813712	0.400958	0	0
0	0	0	19.696778	6.048888	7.450531	6.048888	1.991246E+9	1.576583E-6	634282.932727	15.796328	0.398975	0	0
0	0	0	19.4284	6.049048	7.106748	6.049048	1.722335E+9	1.906706E-6	524464.831543	15.729873	0.397217	0	0
0	0	0	19.154713	6.048915	6.756768	6.048915	1.485471E+9	1.234925E-6	809765.727123	15.652503	0.395392	0	0
0	0	0	18.886376	6.049035	6.413116	6.049035	1.284892E+9	1.377E-6	726216.2506	15.636826	0.393118	0	0
0	0	0	18.617712	6.049075	6.069209	6.049075	1.1112E+9	1.317921E-6	758771.097998	15.634593	0.390963	0	0
0	0	0	18.341289	6.049101	5.715398	6.049101	9.569654E+8	1.221937E-6	818372.484752	15.588472	0.389191	0	0
0	0	0	18.056903	6.049095	5.351467	6.049095	8.205987E+8	1.028213E-6	972561.553936	15.505017	0.387406	0	0
0	0	0	17.769291	6.049215	4.983139	6.049215	7.02438E+8	1.329541E-6	752139.048934	15.446263	0.385462	0	0
0	0	0	17.474042	6.049068	4.605602	6.049068	5.988146E+8	6.979825E-7	1432700.744474	15.433992	0.383294	0	0
0	0	0	17.175568	6.049055	4.223655	6.049055	5.095882E+8	5.739572E-7	1742290.296664	15.463383	0.381113	0	0
0	0	0	16.877134	6.049181	3.841459	6.049181	4.336665E+8	7.190229E-7	1390776.20501	15.382555	0.379486	0	0
0	0	0	16.577842	6.049115	3.458582	6.049115	3.688851E+8	4.89925E-7	2041128.831263	15.278412	0.377728	0	0
0	0	0	16.274508	6.049235	3.070125	6.049235	3.130958E+8	6.479378E-7	1543358.075331	15.253502	0.375811	0	0
0	0	0	15.967499	6.049121	2.677473	6.049121	2.652164E+8	3.594106E-7	2782332.804027	15.249543	0.373629	0	0
0	0	0	15.653751	6.049268	2.275627	6.049268	2.238421E+8	5.482708E-7	1823916.277227	15.202243	0.371884	0	0
0	0	0	15.321913	6.049221	1.851056	6.049221	1.870837E+8	3.645877E-7	2742824.208055	15.081773	0.370297	0	0
0	0	0	14.975741	6.049095	1.408321	6.049095	1.551547E+8	1.944766E-7	5142006.605921	15.004645	0.368512	0	0
0	0	0	14.607477	6.048981	0.937287	6.048981	1.271474E+8	1.208027E-7	8277960.274936	15.038727	0.366397	0	0
0	0	0	14.224756	6.049255	0.446877	6.049255	1.033846E+8	2.359271E-7	4238598.26765	15.031059	0.364546	0	0
0	0	0	13.839382	6.049315	-0.046451	6.049315	8.394237E+7	2.767075E-7	3613924.632527	14.963298	0.363025	0	0
0	0	0	13.475446	6.049161	-0.51185	6.049161	6.895089E+7	1.064087E-7	9397723.571991	14.893669	0.36128	0	0
0	0	0	12.796987	6.049141	-1.38007	6.049141	4.778127E+7	6.895763E-8	1.450166E+7	14.885956	0.359297	0	0
0	0	0	11.854519	6.049308	-2.586601	6.049308	2.870741E+7	9.019195E-8	1.108746E+7	14.873077	0.35738	0	0
0	0	0	10.82654	6.049401	-3.902405	6.049401	1.646852E+7	1.517774E-7	6588598.316332	14.812459	0.355793	0	0
0	0	0	9.775651	6.049361	-5.247205	6.049361	9331188.375	4.703365E-8	2.126137E+7	14.726245	0.354326	0	0
0	0	0	8.757146	6.049308	-6.550525	6.049308	5380490.75	1.69062E-8	5.914989E+7	14.675708	0.352501	0	0
0	0	0	7.7972	6.049361	-7.779171	6.049361	3202247.5	1.61416E-8	6.195171E+7	14.656599	0.350518	0	0
0	0	0	6.898632	6.049315	-8.929011	6.049315	1970142	6.49639E-9	1.539316E+8	14.609235	0.348891	0	0
0	0	0	6.069853	6.049395	-9.989869	6.049395	1258707.25	1.019486E-8	9.808866E+7	14.575109	0.347331	0	0
0	0	0	5.30919	6.049341	-10.963202	6.049341	834340.625	3.428816E-9	2.916459E+8	14.464284	0.345837	0	0
0	0	0	4.590629	6.049428	-11.883031	6.049428	565778.625	1.165428E-8	8.580539E+7	14.413139	0.343828	0	0
0	0	0	3.943451	6.049308	-12.710943	6.049308	398756.875	1.252972E-9	7.981023E+8	14.339332	0.342241	0	0
0	0	0	3.356711	6.049375	-13.46202	6.049375	290374.75	1.724171E-9	5.79989E+8	14.291226	0.340787	0	0
0	0	0	2.812482	6.049301	-14.158304	6.049301	216366.375	6.492964E-10	1.540129E+9	14.30219	0.339359	0	0
0	0	0	2.324117	6.049201	-14.783015	6.049201	166163.625	2.97793E-10	3.358038E+9	14.275699	0.337587	0	0
0	0	0	1.909462	6.049281	-15.313903	6.049281	132796.75	3.511448E-10	2.847828E+9	14.290524	0.335842	0	0
0	0	0	1.561698	6.049421	-15.759362	6.049421	110038	1.732067E-9	5.773448E+8	14.241983	0.334374	0	0
0	0	0	1.27478	6.049341	-16.126322	6.049341	94228.625	3.872442E-10	2.58235E+9	14.322043	0.333012	0	0
0	0	0	1.036294	6.049375	-16.431625	6.049375	82831	4.918297E-10	2.033224E+9	14.349639	0.331267	0	0
0	0	0	0.837053	6.049381	-16.686628	6.049381	74373.25	4.847356E-10	2.06298E+9	14.24782	0.329575	0	0
0	0	0	0.673094	6.049428	-16.896594	6.049428	68065.125	1.402064E-9	7.132344E+8	14.128418	0.328041	0	0
0	0	0	0.535801	6.049461	-17.072395	6.049461	63196.375	-2.396447E-9	-4.172844E+8	13.959782	0.326811	0	0
0	0	0	0.434159	6.049488	-17.202552	6.049488	59817.625	-6.930984E-10	-1.442797E+9	13.863635	0.325291	0	0
0	0	0	0.35465	6.049168	-17.303372	6.049168	57301.125	9.053728E-11	1.104517E+10	13.854286	0.323519	0	0
0	0	0	0.289638	6.049255	-17.386824	6.049255	55322.25	1.26273E-10	7.919347E+9	13.831982	0.32184	0	0
0	0	0	0.240308	6.049441	-17.450502	6.049441	53866.5	2.899247E-9	3.449172E+8	13.740267	0.320584	0	0
0	0	0	0.196082	6.049535	-17.507374	6.049535	52594	-2.750893E-10	-3.635183E+9	13.634642	0.319249	0	0
0	0	0	0.161493	6.049395	-17.55123	6.049395	51619.75	4.180968E-10	2.39179E+9	13.653942	0.317464	0	0
0	0	0	0.125189	6.049475	-17.597925	6.049475	50616.5	-8.98447E-10	-1.113032E+9	13.659077	0.315705	0	0
0	0	0	0.10861	6.049535	-17.619319	6.049535	50164.875	-2.623839E-10	-3.811209E+9	13.612975	0.314489	0	0
0	0	0	0.073858	6.049308	-17.66313	6.049308	49231.25	1.546944E-10	6.464359E+9	13.50447	0.313259	0	0
0	0	0	0.052541	6.049435	-17.690781	6.049435	48667.25	1.45003E-9	6.896409E+8	13.46879	0.311567	0	0
0	0	0	0.046497	6.049355	-17.698282	6.049355	48508.5	2.273506E-10	4.398494E+9	13.456182	0.310007	0	0
0	0	0	0.039718	6.049221	-17.706566	6.049221	48331.125	9.42066E-11	1.061497E+10	13.620838	0.308671	0	0
0	0	0	0.027508	6.049415	-17.722759	6.049415	48013.125	6.115287E-10	1.635246E+9	13.518544	0.307362	0	0
0	0	0	0.010153	6.049455	-17.745088	6.049455	47564.75	-4.176955E-9	-2.394088E+8	13.377121	0.305829	0	0
0	0	0	-0.004018	6.049361	-17.762949	6.049361	47201.75	2.37935E-10	4.202829E+9	13.323372	0.304123	0	0
0	0	0	-0.015003	6.049415	-17.777164	6.049415	46922.25	5.976346E-10	1.673263E+9	13.247885	0.302854	0	0
0	0	0	-0.01974	6.049295	-17.782874	6.049295	46802.375	1.344064E-10	7.440122E+9	13.132	0.301611	0	0
0	0	0	-0.022762	6.049488	-17.787309	6.049488	46725.875	-5.414061E-10	-1.847042E+9	13.051798	0.300117	0	0
0	0	0	-0.024191	6.049461	-17.789059	6.049461	46689.875	-1.770509E-9	-5.648092E+8	13.047287	0.298332	0	0
0	0	0	-0.026396	6.049275	-17.791333	6.049275	46634.25	1.186122E-10	8.430836E+9	12.999011	0.297195	0	0
0	0	0	-0.027866	6.049321	-17.793352	6.049321	46597.125	1.616375E-10	6.186681E+9	12.914127	0.296005	0	0
0	0	0	-0.030766	6.049475	-17.797513	6.049475	46524.125	-8.25807E-10	-1.210937E+9	12.850411	0.294458	0	0
0	0	0	-0.03293	6.049301	-17.799774	6.049301	46469.75	1.394517E-10	7.170943E+9	12.84108	0.292792	0	0
0	0	0	-0.040526	6.049321	-17.809553	6.049321	46279.375	1.605353E-10	6.229159E+9	12.789024	0.291615	0	0
0	0	0	-0.046692	6.049328	-17.817464	6.049328	46125.375	1.687731E-10	5.925114E+9	12.688791	0.290478	0	0
0	0	0	-0.054124	6.049415	-17.82723	6.049415	45940.375	5.851287E-10	1.709026E+9	12.632594	0.288931	0	0
0	0	0	-0.064578	6.049421	-17.840629	6.049421	45681.5	7.19056E-10	1.390712E+9	12.631129	0.287345	0	0
0	0	0	-0.073481	6.049255	-17.851532	6.049255	45462.25	1.037676E-10	9.63692E+9	12.561235	0.286102	0	0
0	0	0	-0.078545	6.049481	-17.858679	6.049481	45337.875	-6.356856E-10	-1.573105E+9	12.45396	0.284965	0	0
0	0	0	-0.083935	6.049408	-17.865362	6.049408	45206	4.835036E-10	2.068237E+9	12.421043	0.283418	0	0
0	0	0	-0.089162	6.049455	-17.872188	6.049455	45078.5	-3.958622E-9	-2.526131E+8	12.417495	0.281897	0	0
0	0	0	-0.09247	6.049355	-17.876127	6.049355	44997.875	2.108969E-10	4.741653E+9	12.328973	0.280774	0	0
0	0	0	-0.095206	6.049295	-17.879453	6.049295	44931.375	1.290333E-10	7.749938E+9	12.228655	0.279742	0	0
0	0	0	-0.095696	6.049241	-17.879923	6.049241	44919.5	9.596483E-11	1.042048E+10	12.215257	0.278248	0	0
0	0	0	-0.097289	6.049301	-17.882138	6.049301	44880.875	1.346836E-10	7.424809E+9	12.204607	0.276688	0	0
0	0	0	-0.097779	6.049321	-17.882823	6.049321	44869	1.55643E-10	6.424961E+9	12.067838	0.275683	0	0
0	0	0	-0.098432	6.049448	-17.884032	6.049448	44853.125	1.247296E-8	8.017341E+7	11.998015	0.274374	0	0
0	0	0	-0.098432	6.049515	-17.884228	6.049515	44853.125	-3.067122E-10	-3.260385E+9	12.008423	0.272682	0	0
0	0	0	-0.098799	6.049275	-17.883993	6.049275	44844.25	1.140594E-10	8.767361E+9	11.942444	0.271651	0	0
0	0	0	-0.099494	6.049381	-17.885195	6.049381	44827.375	2.921673E-10	3.422697E+9	11.830913	0.270619	0	0
0	0	0	-0.100188	6.049481	-17.886377	6.049481	44810.625	-6.28293E-10	-1.591614E+9	11.808146	0.269059	0	0
0	0	0	-0.101209	6.049381	-17.88739	6.049381	44785.875	2.918968E-10	3.425869E+9	11.783958	0.267658	0	0
0	0	0	-0.102597	6.049361	-17.889108	6.049361	44752.25	2.255875E-10	4.432869E+9	11.663285	0.266732	0	0
0	0	0	-0.102842	6.049488	-17.889794	6.049488	44746.375	-5.184699E-10	-1.928752E+9	11.565487	0.265503	0	0
0	0	0	-0.10272	6.049288	-17.889049	6.049288	44749.25	1.232087E-10	8.116311E+9	11.595752	0.263916	0	0
0	0	0	-0.102393	6.049361	-17.888847	6.049361	44757.25	2.256127E-10	4.432374E+9	11.573937	0.262911	0	0
0	0	0	-0.10223	6.049441	-17.888873	6.049441	44761.125	2.40917E-9	4.150807E+8	11.490541	0.261801	0	0
0	0	0	-0.102271	6.049368	-17.888709	6.049368	44760.125	2.440608E-10	4.097339E+9	11.461917	0.260412	0	0
0	0	0	-0.102393	6.049341	-17.888788	6.049341	44757.25	1.839355E-10	5.436688E+9	11.470111	0.25905	0	0
0	0	0	-0.102189	6.049468	-17.888899	6.049468	44762.125	-1.082405E-9	-9.238686E+8	11.361738	0.258178	0	0
0	0	0	-0.101903	6.049328	-17.888121	6.049328	44769	1.638101E-10	6.104629E+9	11.288504	0.256988	0	0
0	0	0	-0.101291	6.049321	-17.887318	6.049321	44783.875	1.553477E-10	6.437173E+9	11.299167	0.255507	0	0
0	0	0	-0.101699	6.049428	-17.888154	6.049428	44774	9.222933E-10	1.084254E+9	11.229063	0.254436	0	0
0	0	0	-0.100964	6.049368	-17.887037	6.049368	44791.75	2.442333E-10	4.094446E+9	11.099523	0.253511	0	0
0	0	0	-0.100882	6.049341	-17.886854	6.049341	44793.75	1.840855E-10	5.432258E+9	11.086086	0.251911	0	0
0	0	0	-0.100106	6.049355	-17.8859	6.049355	44812.625	2.100287E-10	4.761255E+9	11.06845	0.250721	0	0
0	0	0	-0.099984	6.049155	-17.885156	6.049155	44815.5	6.76085E-11	1.479104E+10	10.952477	0.249848	0	0
0	0	0	-0.100433	6.049575	-17.886965	6.049575	44804.625	-1.593963E-10	-6.273672E+9	10.860579	0.248632	0	0
0	0	0	-0.099902	6.049408	-17.885796	6.049408	44817.5	4.793483E-10	2.086166E+9	10.857918	0.247151	0	0
0	0	0	-0.099208	6.049308	-17.884613	6.049308	44834.375	1.408785E-10	7.098314E+9	10.786155	0.246265	0	0
0	0	0	-0.09978	6.049301	-17.885326	6.049301	44820.5	1.345024E-10	7.43481E+9	10.692867	0.245313	0	0
0	0	0	-0.099575	6.049275	-17.884986	6.049275	44825.375	1.140114E-10	8.771052E+9	10.693364	0.24374	0	0
0	0	0	-0.09933	6.049455	-17.885201	6.049455	44831.375	-3.936921E-9	-2.540056E+8	10.647481	0.242748	0	0
0	0	0	-0.099616	6.049461	-17.885587	6.049461	44824.375	-1.699768E-9	-5.883154E+8	10.514888	0.242034	0	0
0	0	0	-0.098473	6.049401	-17.883947	6.049401	44852.125	4.134592E-10	2.418618E+9	10.492946	0.240699	0	0
0	0	0	-0.098309	6.049335	-17.883542	6.049335	44856.125	1.736492E-10	5.758738E+9	10.47418	0.239469	0	0
0	0	0	-0.098922	6.049328	-17.884306	6.049328	44841.25	1.640745E-10	6.094793E+9	10.371189	0.238808	0	0
0	0	0	-0.099045	6.049328	-17.884463	6.049328	44838.25	1.640635E-10	6.0952E+9	10.286293	0.237512	0	0
0	0	0	-0.098391	6.049388	-17.883803	6.049388	44854.125	3.239803E-10	3.086607E+9	10.237285	0.236309	0	0
0	0	0	-0.098636	6.049335	-17.88396	6.049335	44848.125	1.736182E-10	5.759765E+9	10.078829	0.235423	0	0
0	0	0	-0.098718	6.049355	-17.884123	6.049355	44846.25	2.101863E-10	4.757685E+9	10.003342	0.234366	0	0
0	0	0	-0.099085	6.049348	-17.884574	6.049348	44837.25	1.963551E-10	5.092814E+9	10.035534	0.232977	0	0
0	0	0	-0.099535	6.049561	-17.885776	6.049561	44826.375	-1.785039E-10	-5.602117E+9	9.94689	0.232382	0	0
0	0	0	-0.099902	6.049315	-17.885521	6.049315	44817.5	1.477833E-10	6.766665E+9	9.850301	0.231285	0	0
0	0	0	-0.100188	6.049455	-17.886299	6.049455	44810.625	-3.935098E-9	-2.541232E+8	9.86482	0.22991	0	0
0	0	0	-0.100106	6.049288	-17.885704	6.049288	44812.625	1.233832E-10	8.104832E+9	9.787809	0.229156	0	0
0	0	0	-0.101045	6.049421	-17.887298	6.049421	44789.875	7.050212E-10	1.418397E+9	9.713497	0.228284	0	0
0	0	0	-0.101209	6.049428	-17.887527	6.049428	44785.875	9.22538E-10	1.083966E+9	9.731798	0.226842	0	0
0	0	0	-0.102679	6.049481	-17.889565	6.049481	44750.25	-6.274465E-10	-1.593761E+9	9.666435	0.225996	0	0
0	0	0	-0.102434	6.049428	-17.889095	6.049428	44756.25	9.219277E-10	1.084684E+9	9.569966	0.225269	0	0
0	0	0	-0.102679	6.049348	-17.889173	6.049348	44750.25	1.959741E-10	5.102715E+9	9.584058	0.223802	0	0
0	0	0	-0.102924	6.049508	-17.889957	6.049508	44744.375	-3.408965E-10	-2.933442E+9	9.532125	0.222982	0	0
0	0	0	-0.102311	6.049521	-17.889212	6.049521	44759.125	-2.776243E-10	-3.60199E+9	9.434538	0.222083	0	0
0	0	0	-0.103292	6.049388	-17.890075	6.049388	44735.5	3.231235E-10	3.094792E+9	9.429129	0.220813	0	0
0	0	0	-0.102638	6.049261	-17.888866	6.049261	44751.25	1.057618E-10	9.455213E+9	9.374966	0.219914	0	0
0	0	0	-0.104598	6.049315	-17.891532	6.049315	44703.875	1.474086E-10	6.783864E+9	9.252191	0.219121	0	0
0	0	0	-0.105129	6.049308	-17.892191	6.049308	44691	1.40428E-10	7.121086E+9	9.216437	0.217812	0	0
0	0	0	-0.106395	6.049255	-17.893655	6.049255	44660.5	1.019376E-10	9.809923E+9	9.163123	0.217098	0	0
0	0	0	-0.107253	6.049295	-17.89487	6.049295	44639.75	1.281958E-10	7.800567E+9	9.046226	0.216292	0	0
0	0	0	-0.107253	6.049261	-17.894772	6.049261	44639.75	1.054982E-10	9.47883E+9	9.032016	0.21493	0	0
0	0	0	-0.107743	6.049475	-17.896026	6.049475	44628	-7.921506E-10	-1.262386E+9	8.974153	0.214123	0	0
0	0	0	-0.108151	6.049441	-17.896451	6.049441	44618.125	2.401474E-9	4.16411E+8	8.837885	0.213343	0	0
0	0	0	-0.107212	6.049381	-17.895072	6.049381	44640.75	2.909509E-10	3.437006E+9	8.817728	0.212034	0	0
0	0	0	-0.107253	6.049335	-17.894987	6.049335	44639.75	1.728115E-10	5.786651E+9	8.756028	0.211347	0	0
0	0	0	-0.106273	6.049375	-17.893851	6.049375	44663.375	2.651999E-10	3.77074E+9	8.644055	0.210355	0	0
0	0	0	-0.106109	6.049275	-17.893348	6.049275	44667.375	1.136095E-10	8.802078E+9	8.643925	0.209337	0	0
0	0	0	-0.104925	6.049328	-17.891989	6.049328	44696	1.63543E-10	6.114599E+9	8.572698	0.208504	0	0
0	0	0	-0.103496	6.049395	-17.890356	6.049395	44730.5	3.62297E-10	2.760166E+9	8.453036	0.207605	0	0
0	0	0	-0.103169	6.049308	-17.889683	6.049308	44738.375	1.405769E-10	7.113546E+9	8.449445	0.206428	0	0
0	0	0	-0.102965	6.049408	-17.889715	6.049408	44743.375	4.785555E-10	2.089622E+9	8.403261	0.20578	0	0
0	0	0	-0.102475	6.049441	-17.889186	6.049441	44755.25	2.408854E-9	4.151352E+8	8.312529	0.204802	0	0
0	0	0	-0.102189	6.049255	-17.888272	6.049255	44762.125	1.021696E-10	9.787651E+9	8.353063	0.203744	0	0
0	0	0	-0.102107	6.049295	-17.888285	6.049295	44764.125	1.28553E-10	7.778894E+9	8.245625	0.203123	0	0
0	0	0	-0.101576	6.049395	-17.887899	6.049395	44777	3.626736E-10	2.7573E+9	8.206052	0.202052	0	0
0	0	0	-0.101127	6.049575	-17.887854	6.049575	44787.875	-1.593367E-10	-6.276018E+9	8.15762	0.200994	0	0
0	0	0	-0.101209	6.049481	-17.887684	6.049481	44785.875	-6.27946E-10	-1.592494E+9	7.988562	0.200465	0	0
0	0	0	-0.100351	6.049375	-17.886273	6.049375	44806.625	2.660505E-10	3.758685E+9	7.981075	0.199262	0	0
0	0	0	-0.101495	6.049475	-17.88803	6.049475	44779	-7.948309E-10	-1.258129E+9	7.89456	0.198535	0	0
0	0	0	-0.100923	6.049535	-17.887475	6.049535	44792.75	-2.342854E-10	-4.268298E+9	7.78171	0.197609	0	0
0	0	0	-0.100025	6.049321	-17.885698	6.049321	44814.5	1.554539E-10	6.432774E+9	7.772304	0.196446	0	0
0	0	0	-0.099984	6.049361	-17.885763	6.049361	44815.5	2.259064E-10	4.426613E+9	7.62698	0.19593	0	0
0	0	0	-0.099371	6.049301	-17.884803	6.049301	44830.375	1.345321E-10	7.433173E+9	7.572171	0.195031	0	0
0	0	0	-0.099371	6.049395	-17.885077	6.049395	44830.375	3.631059E-10	2.754017E+9	7.535909	0.193987	0	0
0	0	0	-0.098718	6.049375	-17.884182	6.049375	44846.25	2.662858E-10	3.755364E+9	7.393922	0.193365	0	0
0	0	0	-0.099494	6.049461	-17.88543	6.049461	44827.375	-1.699882E-9	-5.882761E+8	7.389689	0.192136	0	0
0	0	0	-0.099494	6.049455	-17.88541	6.049455	44827.375	-3.936569E-9	-2.540283E+8	7.259386	0.191765	0	0
0	0	0	-0.100147	6.049335	-17.885894	6.049335	44811.625	1.734769E-10	5.764457E+9	7.222261	0.190509	0	0
0	0	0	-0.099943	6.049308	-17.885554	6.049308	44816.5	1.408224E-10	7.101145E+9	7.179152	0.189954	0	0
0	0	0	-0.100474	6.049461	-17.886684	6.049461	44803.625	-1.698982E-9	-5.885879E+8	7.073	0.189134	0	0
0	0	0	-0.1008	6.049435	-17.887024	6.049435	44795.75	1.334679E-9	7.492436E+8	7.086265	0.188011	0	0
0	0	0	-0.101576	6.049428	-17.887997	6.049428	44777	9.223551E-10	1.084181E+9	6.942809	0.187376	0	0
0	0	0	-0.101781	6.049461	-17.888357	6.049461	44772	-1.697782E-9	-5.890036E+8	6.946425	0.186318	0	0
0	0	0	-0.102434	6.049428	-17.889095	6.049428	44756.25	9.219277E-10	1.084684E+9	6.849326	0.185816	0	0
0	0	0	-0.103046	6.049315	-17.889546	6.049315	44741.375	1.475323E-10	6.778178E+9	6.769682	0.184851	0	0
0	0	0	-0.103169	6.049355	-17.88982	6.049355	44738.375	2.096807E-10	4.769157E+9	6.724865	0.184031	0	0
0	0	0	-0.10321	6.049515	-17.890343	6.049515	44737.375	-3.059207E-10	-3.268821E+9	6.604005	0.18329	0	0
0	0	0	-0.103986	6.049341	-17.890826	6.049341	44718.75	1.837773E-10	5.441369E+9	6.578287	0.182325	0	0
0	0	0	-0.104639	6.049315	-17.891584	6.049315	44702.875	1.474053E-10	6.784016E+9	6.473491	0.181902	0	0
0	0	0	-0.104762	6.049348	-17.891839	6.049348	44699.875	1.957535E-10	5.108466E+9	6.445093	0.180659	0	0
0	0	0	-0.10517	6.049281	-17.892165	6.049281	44690.125	1.181709E-10	8.462323E+9	6.377335	0.18021	0	0
0	0	0	-0.105946	6.049381	-17.893452	6.049381	44671.375	2.911505E-10	3.43465E+9	6.302037	0.179324	0	0
0	0	0	-0.106518	6.049281	-17.89389	6.049281	44657.5	1.180846E-10	8.468505E+9	6.262588	0.178491	0	0
0	0	0	-0.106681	6.049441	-17.894569	6.049441	44653.5	2.403378E-9	4.160811E+8	6.153281	0.178041	0	0
0	0	0	-0.108886	6.049241	-17.896803	6.049241	44600.375	9.528306E-11	1.049505E+10	6.175133	0.176865	0	0
0	0	0	-0.109499	6.049315	-17.897803	6.049315	44585.625	1.470187E-10	6.801856E+9	6.028931	0.176547	0	0
0	0	0	-0.11007	6.049301	-17.898495	6.049301	44571.875	1.337563E-10	7.476282E+9	5.999617	0.175305	0	0
0	0	0	-0.110683	6.049381	-17.899514	6.049381	44557.125	2.904059E-10	3.443457E+9	5.890875	0.174895	0	0
0	0	0	-0.111459	6.049375	-17.900488	6.049375	44538.375	2.644577E-10	3.781323E+9	5.830319	0.173969	0	0
0	0	0	-0.110642	6.049461	-17.899697	6.049461	44558.125	-1.689672E-9	-5.918308E+8	5.74893	0.173427	0	0
0	0	0	-0.109744	6.049335	-17.898175	6.049335	44579.75	1.725792E-10	5.79444E+9	5.680013	0.172581	0	0
0	0	0	-0.108478	6.049281	-17.896398	6.049281	44610.25	1.179597E-10	8.477475E+9	5.624551	0.17192	0	0
0	0	0	-0.107457	6.049495	-17.895719	6.049495	44634.875	-4.406724E-10	-2.26926E+9	5.513446	0.171179	0	0
0	0	0	-0.106844	6.049475	-17.894876	6.049475	44649.625	-7.925345E-10	-1.261775E+9	5.486084	0.17032	0	0
0	0	0	-0.106763	6.049515	-17.894889	6.049515	44651.625	-3.053343E-10	-3.275098E+9	5.375945	0.169818	0	0
0	0	0	-0.105456	6.049415	-17.892923	6.049415	44683.125	5.691155E-10	1.757112E+9	5.366074	0.168985	0	0
0	0	0	-0.105129	6.049515	-17.892799	6.049515	44691	-3.056036E-10	-3.272213E+9	5.240917	0.168456	0	0
0	0	0	-0.102965	6.049388	-17.889657	6.049388	44743.375	3.231804E-10	3.094247E+9	5.230847	0.167477	0	0
0	0	0	-0.102761	6.049348	-17.889278	6.049348	44748.375	1.959659E-10	5.102929E+9	5.106284	0.167081	0	0
0	0	0	-0.102842	6.049328	-17.889323	6.049328	44746.375	1.637273E-10	6.107715E+9	5.086738	0.166142	0	0
0	0	0	-0.102883	6.049381	-17.889533	6.049381	44745.375	2.916328E-10	3.428969E+9	4.963747	0.165613	0	0
0	0	0	-0.103128	6.049461	-17.890081	6.049461	44739.375	-1.696545E-9	-5.894332E+8	4.949525	0.164807	0	0
0	0	0	-0.103046	6.049528	-17.890173	6.049528	44741.375	-2.539161E-10	-3.938309E+9	4.836668	0.164212	0	0
0	0	0	-0.103006	6.049301	-17.889454	6.049301	44742.375	1.34268E-10	7.447792E+9	4.799461	0.163418	0	0
0	0	0	-0.101536	6.049455	-17.888023	6.049455	44778	-3.932233E-9	-2.543084E+8	4.693272	0.162837	0	0
0	0	0	-0.101862	6.049468	-17.888481	6.049468	44770	-1.082595E-9	-9.237061E+8	4.662898	0.161964	0	0
0	0	0	-0.101209	6.049501	-17.887743	6.049501	44785.875	-3.851834E-10	-2.596166E+9	4.550164	0.161435	0	0
0	0	0	-0.100392	6.049395	-17.886384	6.049395	44805.625	3.629055E-10	2.755538E+9	4.495642	0.160721	0	0
0	0	0	-0.10027	6.049428	-17.886325	6.049428	44808.625	9.230066E-10	1.083416E+9	4.405665	0.159928	0	0
0	0	0	-0.099575	6.049475	-17.885574	6.049475	44825.375	-7.95654E-10	-1.256828E+9	4.360831	0.159465	0	0
0	0	0	-0.099861	6.049275	-17.885352	6.049275	44818.5	1.139939E-10	8.772398E+9	4.283448	0.158566	0	0
0	0	0	-0.10027	6.049428	-17.886325	6.049428	44808.625	9.230066E-10	1.083416E+9	4.185654	0.158103	0	0
0	0	0	-0.099943	6.049288	-17.885495	6.049288	44816.5	1.233938E-10	8.104132E+9	4.154256	0.157204	0	0
0	0	0	-0.100147	6.049561	-17.88656	6.049561	44811.625	-1.784452E-10	-5.603961E+9	4.061868	0.156715	0	0
0	0	0	-0.100515	6.049648	-17.887285	6.049648	44802.625	-1.004752E-10	-9.952708E+9	4.018884	0.156067	0	0
0	0	0	-0.1008	6.049515	-17.887259	6.049515	44795.75	-3.063199E-10	-3.264561E+9	3.93818	0.155393	0	0
0	0	0	-0.101372	6.049441	-17.887775	6.049441	44781.875	2.410287E-9	4.148883E+8	3.872025	0.154732	0	0
0	0	0	-0.102475	6.049468	-17.889265	6.049468	44755.25	-1.082239E-9	-9.240105E+8	3.798862	0.154084	0	0
0	0	0	-0.103128	6.049488	-17.89016	6.049488	44739.375	-5.183888E-10	-1.929054E+9	3.695804	0.153542	0	0
0	0	0	-0.10223	6.049568	-17.889245	6.049568	44761.125	-1.682078E-10	-5.945026E+9	3.628075	0.152801	0	0
0	0	0	-0.103618	6.049515	-17.890865	6.049515	44727.625	-3.05854E-10	-3.269533E+9	3.527372	0.152127	0	0
0	0	0	-0.103741	6.049468	-17.890885	6.049468	44724.625	-1.081498E-9	-9.246432E+8	3.427486	0.151598	0	0
0	0	0	-0.104925	6.049288	-17.891871	6.049288	44696	1.230621E-10	8.12598E+9	3.342831	0.150831	0	0
0	0	0	-0.105456	6.049361	-17.892766	6.049361	44683.125	2.252391E-10	4.439727E+9	3.227376	0.150236	0	0
0	0	0	-0.105497	6.049261	-17.892525	6.049261	44682.25	1.055987E-10	9.469814E+9	3.180472	0.149522	0	0
0	0	0	-0.107089	6.049355	-17.894837	6.049355	44643.75	2.092372E-10	4.779265E+9	3.108994	0.148941	0	0
0	0	0	-0.107375	6.049421	-17.895399	6.049421	44636.75	7.026109E-10	1.423263E+9	3.002705	0.148372	0	0
0	0	0	-0.107702	6.049341	-17.895582	6.049341	44628.875	1.834079E-10	5.452327E+9	2.935553	0.147737	0	0
0	0	0	-0.107212	6.049435	-17.895229	6.049435	44640.75	1.330061E-9	7.518451E+8	2.870344	0.14709	0	0
0	0	0	-0.107457	6.049435	-17.895543	6.049435	44634.875	1.329886E-9	7.51944E+8	2.786105	0.146521	0	0
0	0	0	-0.110356	6.049335	-17.898959	6.049335	44565	1.725221E-10	5.796357E+9	2.732034	0.145966	0	0
0	0	0	-0.110111	6.049435	-17.89894	6.049435	44570.875	1.327979E-9	7.530237E+8	2.695568	0.145252	0	0
0	0	0	-0.110887	6.049308	-17.89956	6.049308	44552.125	1.399916E-10	7.143284E+9	2.647612	0.144683	0	0
0	0	0	-0.113215	6.049381	-17.902755	6.049381	44496.125	2.900083E-10	3.448177E+9	2.626441	0.144128	0	0
0	0	0	-0.112439	6.049275	-17.901448	6.049275	44514.75	1.132213E-10	8.832257E+9	2.605495	0.143388	0	0
0	0	0	-0.111908	6.049268	-17.900749	6.049268	44527.625	1.090964E-10	9.166201E+9	2.593771	0.142779	0	0
0	0	0	-0.111622	6.049401	-17.900775	6.049401	44534.5	4.105312E-10	2.435868E+9	2.555899	0.142264	0	0
0	0	0	-0.110765	6.049435	-17.899776	6.049435	44555.125	1.32751E-9	7.532899E+8	2.535018	0.14155	0	0
0	0	0	-0.109744	6.049248	-17.89792	6.049248	44579.75	9.838843E-11	1.01638E+10	2.502963	0.140862	0	0
0	0	0	-0.107865	6.049268	-17.895575	6.049268	44625	1.09335E-10	9.1462E+9	2.482022	0.140532	0	0
0	0	0	-0.107171	6.049355	-17.894942	6.049355	44641.75	2.092278E-10	4.779479E+9	2.464903	0.139897	0	0
0	0	0	-0.105415	6.049295	-17.892518	6.049295	44684.125	1.283232E-10	7.792821E+9	2.452378	0.139077	0	0
0	0	0	-0.10615	6.049361	-17.893655	6.049361	44666.375	2.251546E-10	4.441392E+9	2.435164	0.138628	0	0
0	0	0	-0.105129	6.049348	-17.892309	6.049348	44691	1.957146E-10	5.10948E+9	2.409137	0.138258	0	0
0	0	0	-0.10468	6.049401	-17.891891	6.049401	44701.875	4.120741E-10	2.426748E+9	2.38495	0.137557	0	0
0	0	0	-0.103537	6.049321	-17.890192	6.049321	44729.5	1.551591E-10	6.444999E+9	2.364562	0.136843	0	0
0	0	0	-0.103496	6.049268	-17.889983	6.049268	44730.5	1.095935E-10	9.124628E+9	2.330022	0.136512	0	0
0	0	0	-0.103332	6.049435	-17.890264	6.049435	44734.5	1.332855E-9	7.502694E+8	2.307974	0.135983	0	0
0	0	0	-0.10321	6.049368	-17.889911	6.049368	44737.375	2.439368E-10	4.099423E+9	2.280675	0.135309	0	0
0	0	0	-0.102924	6.049321	-17.889408	6.049321	44744.375	1.552107E-10	6.442856E+9	2.258786	0.134741	0	0
0	0	0	-0.102761	6.049375	-17.889356	6.049375	44748.375	2.657046E-10	3.763577E+9	2.254094	0.134357	0	0
0	0	0	-0.101903	6.049401	-17.888337	6.049401	44769	4.126929E-10	2.423109E+9	2.222359	0.133577	0	0
0	0	0	-0.101413	6.049321	-17.887475	6.049321	44780.875	1.553373E-10	6.437605E+9	2.220521	0.132903	0	0
0	0	0	-0.101944	6.049455	-17.888546	6.049455	44768	-3.931355E-9	-2.543652E+8	2.170594	0.132625	0	0
0	0	0	-0.100841	6.049255	-17.886547	6.049255	44794.75	1.02244E-10	9.780523E+9	2.127792	0.132242	0	0
0	0	0	-0.100596	6.049421	-17.886723	6.049421	44800.75	7.051924E-10	1.418053E+9	2.094848	0.131343	0	0
0	0	0	-0.100719	6.049435	-17.886919	6.049435	44797.75	1.334739E-9	7.492101E+8	2.064015	0.130761	0	0
0	0	0	-0.100392	6.049361	-17.886286	6.049361	44805.625	2.258566E-10	4.427589E+9	2.074944	0.130179	0	0
0	0	0	-0.100555	6.049381	-17.886554	6.049381	44801.625	2.919994E-10	3.424664E+9	2.048017	0.129584	0	0
0	0	0	-0.100433	6.049368	-17.886358	6.049368	44804.625	2.443035E-10	4.09327E+9	2.04196	0.128976	0	0
0	0	0	-0.10125	6.049175	-17.886835	6.049175	44784.875	7.247712E-11	1.379746E+10	2.004965	0.128606	0	0
0	0	0	-0.101045	6.049315	-17.886985	6.049315	44789.875	1.476922E-10	6.770839E+9	1.996725	0.127984	0	0
0	0	0	-0.102026	6.049481	-17.888729	6.049481	44766.125	-6.276691E-10	-1.593196E+9	1.972312	0.127284	0	0
0	0	0	-0.10272	6.049455	-17.889539	6.049455	44749.25	-3.929709E-9	-2.544718E+8	1.959192	0.126847	0	0
0	0	0	-0.103128	6.049341	-17.889729	6.049341	44739.375	1.83862E-10	5.438861E+9	1.89624	0.126583	0	0
0	0	0	-0.103496	6.049401	-17.890375	6.049401	44730.5	4.12338E-10	2.425195E+9	1.875318	0.125842	0	0
0	0	0	-0.103986	6.049475	-17.891218	6.049475	44718.75	-7.937614E-10	-1.259824E+9	1.859397	0.125168	0	0
0	0	0	-0.103659	6.049361	-17.890467	6.049361	44726.625	2.254584E-10	4.435409E+9	1.834381	0.124824	0	0
0	0	0	-0.105905	6.049508	-17.893772	6.049508	44672.375	-3.403479E-10	-2.93817E+9	1.817152	0.124494	0	0
0	0	0	-0.105252	6.049428	-17.892701	6.049428	44688.125	9.205244E-10	1.086337E+9	1.809102	0.123806	0	0
0	0	0	-0.106436	6.049375	-17.89406	6.049375	44659.5	2.651769E-10	3.771067E+9	1.795073	0.123238	0	0
0	0	0	-0.106395	6.049395	-17.894066	6.049395	44660.5	3.6173E-10	2.764493E+9	1.776005	0.122881	0	0
0	0	0	-0.106599	6.049281	-17.893994	6.049281	44655.5	1.180793E-10	8.468884E+9	0	0	0	0
0	0	0	-0.107824	6.049355	-17.895778	6.049355	44626	2.09154E-10	4.781166E+9	0	0	0	0
0	0	0	-0.106926	6.049501	-17.895059	6.049501	44647.625	-3.839943E-10	-2.604205E+9	0	0	0	0
0	0	0	-0.109254	6.049441	-17.897862	6.049441	44591.5	2.400041E-9	4.166596E+8	0	0	0	0
0	0	0	-0.110438	6.049355	-17.899123	6.049355	44563	2.088587E-10	4.787925E+9	0	0	0	0
0	0	0	-0.112235	6.049348	-17.901402	6.049348	44519.75	1.949647E-10	5.129134E+9	0	0	0	0
0	0	0	-0.113991	6.049448	-17.903944	6.049448	44477.5	1.236851E-8	8.085049E+7	0	0	0	0
0	0	0	-0.113664	6.049428	-17.903467	6.049428	44485.25	9.163454E-10	1.091292E+9	0	0	0	0
0	0	0	-0.113296	6.049588	-17.903467	6.049588	44494.125	-1.43042E-10	-6.990955E+9	0	0	0	0
0	0	0	-0.113174	6.049361	-17.902644	6.049361	44497.125	2.243015E-10	4.458285E+9	0	0	0	0
0	0	0	-0.112847	6.049495	-17.902618	6.049495	44505	-4.393901E-10	-2.275882E+9	0	0	0	0
0	0	0	-0.112276	6.049368	-17.901513	6.049368	44518.75	2.427447E-10	4.119555E+9	0	0	0	0
0	0	0	-0.111091	6.049508	-17.90041	6.049508	44547.25	-3.393946E-10	-2.946422E+9	0	0	0	0
0	0	0	-0.110111	6.049288	-17.898508	6.049288	44570.875	1.227176E-10	8.148793E+9	0	0	0	0
0	0	0	-0.108968	6.049368	-17.89728	6.049368	44598.375	2.431789E-10	4.1122E+9	0	0	0	0
0	0	0	-0.108682	6.049388	-17.896973	6.049388	44605.25	3.221827E-10	3.103829E+9	0	0	0	0
0	0	0	-0.106803	6.049381	-17.89455	6.049381	44650.625	2.910153E-10	3.436246E+9	0	0	0	0
0	0	0	-0.105701	6.049521	-17.89355	6.049521	44677.25	-2.771165E-10	-3.608591E+9	0	0	0	0
0	0	0	-0.104312	6.049288	-17.891087	6.049288	44710.75	1.231027E-10	8.1233E+9	0	0	0	0
0	0	0	-0.104067	6.049435	-17.891205	6.049435	44716.75	1.332326E-9	7.505672E+8	0	0	0	0
0	0	0	-0.104231	6.049268	-17.890924	6.049268	44712.75	1.0955E-10	9.12825E+9	0	0	0	0
0	0	0	-0.103618	0	-0.103618	0	44727.625	0	0	0	0	0	0
0	0	0	-0.103496	0	-0.103496	0	44730.5	0	0	0	0	0	0
