Vload_(V)	ILoad_(A)	RsLoad (ohm)	SunsVoc_Voltage_(V)	SunsVoc_Current_(A)	Model_Voltage_(V)	Model_Current_(A)	Carrier_Density_(cm-3)	Lifetime_(s)	Inverse_Lifetime_(s-1)	Efficiency_(%)	Intensity_(suns)	Dark_IV_Voltage_(V)	Dark_IV_Current_(A)
3.083687	6.021289	0	52.220917	-0.536453	52.50351	-0.536453	1.084312E+16	0.000736	1164.367768	19.456277	1.187085	0	0
3.085781	6.02428	-0.527414	52.781726	-0.863174	53.218056	-0.863174	1.273776E+16	0.000823	945.64432	19.380616	1.186503	0	0
3.174773	6.022296	-0.542111	52.909708	-0.765402	53.292897	-0.765402	1.321204E+16	0.000866	864.96356	19.317559	1.185128	0	0
3.914432	6.021532	-0.534575	52.891494	-0.472064	53.128154	-0.472064	1.314353E+16	0.0009	823.808531	19.270248	1.183039	0	0
5.952594	6.01924	3.814671	52.8088	-0.125298	52.872009	-0.125298	1.283672E+16	0.000929	802.858357	19.228513	1.179522	0	0
8.465988	6.016193	3.983172	52.71312	0.22319	52.599717	0.22319	1.249021E+16	0.000958	784.567947	19.141841	1.177023	0	0
10.901519	6.001648	4.523855	52.59596	0.576329	52.300565	0.576329	1.207798E+16	0.000987	771.270384	19.062969	1.175212	0	0
12.991169	5.998127	4.260352	52.48807	0.899754	52.023219	0.899754	1.170977E+16	0.001017	755.586818	19.038444	1.173189	0	0
15.014644	5.993513	4.031805	52.367357	1.217659	51.732684	1.217659	1.131039E+16	0.001047	742.382304	19.067488	1.169526	0	0
17.125655	5.995431	3.63448	52.250768	1.506701	51.458773	1.506701	1.093687E+16	0.001078	729.372427	19.080521	1.165282	0	0
19.456375	5.992888	3.304983	52.132914	1.773532	51.192726	1.773532	1.057113E+16	0.001107	717.793298	19.06061	1.160615	0	0
21.640667	5.999131	2.795582	52.011915	2.02379	50.929765	2.02379	1.020761E+16	0.001136	707.387426	19.001723	1.156741	0	0
23.797756	5.991392	2.611454	51.901044	2.253544	50.686557	2.253544	9.884848E+15	0.001167	694.648509	18.970817	1.152642	0	0
25.935411	5.992978	2.222006	51.778534	2.483476	50.428583	2.483476	9.539332E+15	0.001199	682.640131	18.969587	1.1482	0	0
28.06848	5.991827	1.890143	51.653288	2.691059	50.177708	2.691059	9.197796E+15	0.001229	673.486233	18.989939	1.14344	0	0
30.231114	5.989756	1.568973	51.537149	2.875331	49.947852	2.875331	8.891321E+15	0.001257	664.154943	19.001401	1.138998	0	0
32.355305	5.986978	1.258677	51.416518	3.052488	49.715324	3.052488	8.58308E+15	0.001286	655.261784	18.994846	1.134106	0	0
33.112681	5.983241	1.186238	51.309036	3.213437	49.505033	3.213437	8.316836E+15	0.001318	644.11913	18.968455	1.128857	0	0
33.808893	5.98693	1.016679	51.189344	3.378418	49.277374	3.378418	8.029374E+15	0.001351	632.901011	18.940999	1.123674	0	0
34.49511	5.97978	1.001773	51.069488	3.52592	49.058001	3.52592	7.750759E+15	0.001382	624.016568	18.948042	1.119112	0	0
35.201382	5.981367	0.862766	50.958699	3.657719	48.856641	3.657719	7.50119E+15	0.001412	614.916716	18.980327	1.1143	0	0
35.899514	5.970769	0.868949	50.84309	3.783805	48.651968	3.783805	7.248681E+15	0.001441	606.671828	18.995522	1.109632	0	0
36.608281	5.959997	0.847588	50.736303	3.899944	48.462119	3.899944	7.022409E+15	0.001473	597.212332	18.990259	1.104542	0	0
37.306704	5.9461	0.833221	50.621184	4.011301	48.264538	4.011301	6.785762E+15	0.001502	589.428586	18.977328	1.099478	0	0
38.006684	5.927905	0.826273	50.511701	4.114261	48.077469	4.114261	6.567501E+15	0.001532	581.153854	18.977437	1.093793	0	0
38.703203	5.904809	0.820505	50.400708	4.208244	47.89314	4.208244	6.352795E+15	0.001559	574.563521	18.991424	1.088451	0	0
39.388918	5.878941	0.803366	50.290122	4.2991	47.710371	4.2991	6.145264E+15	0.001587	567.299356	19.009744	1.082806	0	0
40.096017	5.846146	0.784234	50.17872	4.384083	47.529436	4.384083	5.942457E+15	0.001615	560.720903	18.995476	1.077861	0	0
40.796181	5.801931	0.775502	50.072055	4.466014	47.355179	4.466014	5.753989E+15	0.001646	552.657479	18.982967	1.072361	0	0
41.491129	5.750223	0.759934	49.954282	4.546633	47.168037	4.546633	5.552198E+15	0.001675	545.886958	18.977283	1.066477	0	0
42.187552	5.684409	0.746486	49.847984	4.617652	46.999588	4.617652	5.375583E+15	0.001704	539.008292	18.983414	1.060646	0	0
42.891363	5.606234	0.726341	49.735439	4.686101	46.824801	4.686101	5.194122E+15	0.001731	533.074502	19.008615	1.054776	0	0
43.581634	5.509224	0.709472	49.629509	4.748841	46.660808	4.748841	5.028382E+15	0.001758	526.885146	19.012224	1.049143	0	0
44.2685	5.392733	0.690254	49.521169	4.808717	46.495263	4.808717	4.863796E+15	0.001784	521.163883	18.992963	1.043379	0	0
44.939421	5.256829	0.669563	49.412625	4.866293	46.330441	4.866293	4.703753E+15	0.001812	515.257768	18.965736	1.037588	0	0
45.605538	5.080283	0.655993	49.303633	4.921349	46.166217	4.921349	4.547796E+15	0.001839	509.367785	18.963384	1.031598	0	0
46.276147	4.878543	0.635841	49.196804	4.970832	46.007688	4.970832	4.399423E+15	0.001863	504.624026	18.995221	1.025345	0	0
46.931322	4.634185	0.620685	49.088955	5.020859	45.847189	5.020859	4.254012E+15	0.001892	498.623871	19.00463	1.019368	0	0
47.577274	4.350403	0.606459	48.982004	5.067223	45.689733	5.067223	4.114036E+15	0.001918	493.22151	18.994992	1.013485	0	0
48.204917	4.01421	0.597053	48.877135	5.11108	45.536025	5.11108	3.980757E+15	0.001946	487.70016	18.96638	1.007773	0	0
48.822215	3.631188	0.59028	48.765488	5.152604	45.375399	5.152604	3.843062E+15	0.001968	483.615896	18.962595	1.001744	0	0
49.424243	3.218898	0.579422	48.66748	5.189095	45.234079	5.189095	3.725661E+15	0.001992	479.085135	18.985742	0.99594	0	0
49.995976	2.777454	0.571069	48.558732	5.226531	45.078987	5.226531	3.59909E+15	0.002014	474.899974	19.003556	0.990334	0	0
50.543533	2.298959	0.574643	48.454395	5.260463	44.931226	5.260463	3.481208E+15	0.002035	471.183225	19.003544	0.984754	0	0
51.066021	1.810584	0.588936	48.350629	5.293769	44.784303	5.293769	3.367331E+15	0.002059	466.858211	18.98425	0.979598	0	0
51.558674	1.328908	0.585211	48.244086	5.325324	44.634967	5.325324	3.253797E+15	0.00208	463.2522	18.976352	0.974243	0	0
51.975216	0.883485	0.580702	48.14028	5.355191	44.489819	5.355191	3.146394E+15	0.002101	459.467499	18.998992	0.96869	0	0
52.344105	0.501825	0.490583	48.035044	5.383953	44.343471	5.383953	3.040663E+15	0.002122	455.837629	19.025909	0.963362	0	0
42.690529	5.629691	0.733018	47.93234	5.409887	44.201896	5.409887	2.940454E+15	0.002139	453.064143	19.041557	0.958364	0	0
52.696463	0	0	47.826573	5.435901	44.056369	5.435901	2.840247E+15	0.002158	449.927477	19.022686	0.953432	0	0
0	0	0	47.725462	5.458935	43.918332	5.458935	2.747214E+15	0.002173	447.632388	19.010908	0.948157	0	0
0	0	0	47.619981	5.483451	43.773799	5.483451	2.652961E+15	0.002194	444.051893	19.014823	0.942881	0	0
0	0	0	47.514745	5.506117	43.630671	5.506117	2.561702E+15	0.002212	441.187028	19.034311	0.937844	0	0
0	0	0	47.414859	5.525806	43.495946	5.525806	2.477578E+15	0.002224	439.37609	19.04324	0.933097	0	0
0	0	0	47.30901	5.546496	43.353141	5.546496	2.391016E+15	0.00224	436.899513	19.034957	0.928205	0	0
0	0	0	47.211125	5.564793	43.22153	5.564793	2.31327E+15	0.002254	434.728247	19.009794	0.92326	0	0
0	0	0	47.110585	5.582651	43.086883	5.582651	2.235661E+15	0.002267	432.757513	19.016523	0.917919	0	0
0	0	0	47.004655	5.601178	42.945079	5.601178	2.15629E+15	0.002283	430.255884	19.04578	0.91263	0	0
0	0	0	46.908608	5.616012	42.817806	5.616012	2.086397E+15	0.00229	429.437345	19.059832	0.907355	0	0
0	0	0	46.806394	5.631569	42.682412	5.631569	2.014128E+15	0.002299	428.233951	19.031632	0.902291	0	0
0	0	0	46.704057	5.647108	42.546761	5.647108	1.943896E+15	0.002311	426.441146	18.990079	0.8972	0	0
0	0	0	46.607846	5.661385	42.419365	5.661385	1.879758E+15	0.002323	424.538396	18.987183	0.89211	0	0
0	0	0	46.502896	5.675587	42.2813	5.675587	1.81183E+15	0.002331	423.47129	19.004911	0.886993	0	0
0	0	0	46.401662	5.689272	42.148026	5.689272	1.748268E+15	0.002342	421.843995	19.026296	0.882181	0	0
0	0	0	46.307166	5.700099	42.02499	5.700099	1.690633E+15	0.002342	422.330402	19.020237	0.8775	0	0
0	0	0	46.204707	5.712388	41.891084	5.712388	1.629943E+15	0.002347	421.618497	18.985345	0.873045	0	0
0	0	0	46.104903	5.724766	41.760245	5.724766	1.572584E+15	0.002359	419.76825	18.98148	0.868205	0	0
0	0	0	46.008038	5.735442	41.634192	5.735442	1.518534E+15	0.002363	419.328985	19.004409	0.863459	0	0
0	0	0	45.902884	5.746735	41.497489	5.746735	1.461618E+15	0.002368	418.719363	19.022989	0.858884	0	0
0	0	0	45.804835	5.756416	41.370596	5.756416	1.410157E+15	0.002368	418.941338	19.00452	0.854521	0	0
0	0	0	45.708012	5.766223	41.245027	5.766223	1.360826E+15	0.002373	418.275492	18.984335	0.849907	0	0
0	0	0	45.604164	5.775843	41.110967	5.775843	1.309517E+15	0.002373	418.496554	18.974859	0.845319	0	0
0	0	0	45.5073	5.7847	40.985945	5.7847	1.263116E+15	0.002375	418.411008	18.98822	0.840466	0	0
0	0	0	45.40872	5.792449	40.859634	5.792449	1.2173E+15	0.002366	420.136123	19.001384	0.835812	0	0
0	0	0	45.308058	5.800957	40.730127	5.800957	1.171947E+15	0.002366	420.351723	18.991385	0.831449	0	0
0	0	0	45.211521	5.809109	40.60587	5.809109	1.129776E+15	0.002369	420.067727	18.955067	0.82702	0	0
0	0	0	45.111879	5.816379	40.478467	5.816379	1.087576E+15	0.002361	421.577316	18.933828	0.822419	0	0
0	0	0	45.010686	5.824071	40.348777	5.824071	1.046064E+15	0.002359	422.002273	18.955309	0.817725	0	0
0	0	0	44.914067	5.830958	40.22526	5.830958	1.007662E+15	0.002355	422.920297	18.969502	0.813336	0	0
0	0	0	44.816549	5.837185	40.10113	5.837185	9.700943E+14	0.002344	425.058072	18.946677	0.808986	0	0
0	0	0	44.717398	5.844722	39.973894	5.844722	9.33096E+14	0.002351	423.933206	18.915993	0.804543	0	0
0	0	0	44.619349	5.849691	39.850042	5.849691	8.976679E+14	0.002327	428.38536	18.897378	0.80022	0	0
0	0	0	44.521791	5.856326	39.725389	5.856326	8.635326E+14	0.002329	428.200319	18.91112	0.795539	0	0
0	0	0	44.421047	5.86209	39.597508	5.86209	8.294218E+14	0.002318	430.333901	18.922699	0.791163	0	0
0	0	0	44.325285	5.867508	39.475961	5.867508	7.980444E+14	0.002309	432.123259	18.903493	0.786945	0	0
0	0	0	44.225929	5.874103	39.349003	5.874103	7.665407E+14	0.002317	430.666401	18.871014	0.782833	0	0
0	0	0	44.125471	5.878545	39.222442	5.878545	7.357486E+14	0.002293	435.237209	18.847371	0.778417	0	0
0	0	0	44.029751	5.882865	39.101744	5.882865	7.073765E+14	0.002273	439.069142	18.866737	0.774028	0	0
0	0	0	43.9326	5.888357	38.97828	5.888357	6.795224E+14	0.002274	438.996595	18.883163	0.769863	0	0
0	0	0	43.833449	5.892741	38.853264	5.892741	6.520481E+14	0.002256	442.472042	18.852966	0.76591	0	0
0	0	0	43.736176	5.896231	38.731272	5.896231	6.260067E+14	0.002227	448.429396	18.816381	0.761824	0	0
0	0	0	43.637597	5.90152	38.606121	5.90152	6.005137E+14	0.00223	447.747129	18.814179	0.757527	0	0
0	0	0	43.536036	5.906287	38.477728	5.906287	5.751707E+14	0.002225	448.92113	18.82963	0.753323	0	0
0	0	0	43.438355	5.909192	38.35565	5.909192	5.516544E+14	0.002189	456.287164	18.842621	0.749171	0	0
0	0	0	43.33757	5.912493	38.229409	5.912493	5.282498E+14	0.00216	462.522123	18.818337	0.74535	0	0
0	0	0	43.238092	5.916504	38.104126	5.916504	5.059811E+14	0.002148	465.115478	18.775711	0.741476	0	0
0	0	0	43.138941	5.920879	37.978895	5.920879	4.845861E+14	0.002147	465.406334	18.770443	0.737205	0	0
0	0	0	43.039014	5.924095	37.853696	5.924095	4.6381E+14	0.002123	470.717145	18.791643	0.732988	0	0
0	0	0	42.937617	5.926756	37.72716	5.926756	4.435128E+14	0.002087	478.821938	18.795222	0.729061	0	0
0	0	0	42.835362	5.930021	37.599019	5.930021	4.238214E+14	0.002066	483.795196	18.755887	0.72524	0	0
0	0	0	42.733761	5.933422	37.471533	5.933422	4.050067E+14	0.00205	487.432641	18.709682	0.721432	0	0
0	0	0	42.634936	5.936571	37.347647	5.936571	3.874033E+14	0.002034	491.3407	18.707701	0.717095	0	0
0	0	0	42.531987	5.939215	37.219135	5.939215	3.697746E+14	0.002004	498.72709	18.72463	0.713036	0	0
0	0	0	42.432019	5.941225	37.094826	5.941225	3.533286E+14	0.001963	509.182791	18.71086	0.709109	0	0
0	0	0	42.320984	5.944211	36.956057	5.944211	3.35814E+14	0.001938	515.780322	18.66994	0.705421	0	0
0	0	0	42.213829	5.947066	36.822137	5.947066	3.196374E+14	0.001916	521.831386	18.634038	0.70156	0	0
0	0	0	42.113289	5.949536	36.696654	5.949536	3.050869E+14	0.001891	528.547667	18.634908	0.697593	0	0
0	0	0	42.005032	5.952829	36.560938	5.952829	2.900759E+14	0.001885	530.402294	18.657375	0.693733	0	0
0	0	0	41.909066	5.955086	36.441216	5.955086	2.773202E+14	0.001863	536.520851	18.64397	0.690044	0	0
0	0	0	41.802441	5.957298	36.308451	5.957298	2.637347E+14	0.001833	545.318016	18.59062	0.686527	0	0
0	0	0	41.69059	5.959345	36.169412	5.959345	2.501242E+14	0.001796	556.618307	18.558305	0.682812	0	0
0	0	0	41.589805	5.961054	36.04424	5.961054	2.384027E+14	0.001761	567.881289	18.587163	0.678819	0	0
0	0	0	41.484038	5.963015	35.91271	5.963015	2.266349E+14	0.00173	577.932985	18.595819	0.675077	0	0
0	0	0	41.380559	5.965534	35.783446	5.965534	2.15631E+14	0.00172	581.178189	18.546609	0.671719	0	0
0	0	0	41.274057	5.968104	35.650407	5.968104	2.048129E+14	0.001713	583.672227	18.493539	0.668215	0	0
0	0	0	41.170209	5.970341	35.520919	5.970341	1.947414E+14	0.0017	588.051559	18.490056	0.664315	0	0
0	0	0	41.062523	5.972123	35.387137	5.972123	1.847762E+14	0.001672	598.099653	18.507401	0.66056	0	0
0	0	0	40.95986	5.973386	35.259997	5.973386	1.757122E+14	0.001632	612.799785	18.503863	0.656897	0	0
0	0	0	40.850745	5.974728	35.124855	5.974728	1.665272E+14	0.001591	628.482946	18.460314	0.653512	0	0
0	0	0	40.744079	5.975783	34.992985	5.975783	1.579776E+14	0.001544	647.495301	18.413153	0.649903	0	0
0	0	0	40.635903	5.977075	34.859024	5.977075	1.497225E+14	0.001506	663.800194	18.411777	0.646254	0	0
0	0	0	40.519519	5.978698	34.714661	5.978698	1.412887E+14	0.001476	677.617984	18.425854	0.642433	0	0
0	0	0	40.413181	5.980074	34.582849	5.980074	1.339711E+14	0.001446	691.537322	18.410321	0.639101	0	0
0	0	0	40.302228	5.981836	34.444987	5.981836	1.267138E+14	0.001429	699.898324	18.352345	0.63569	0	0
0	0	0	40.190866	5.983422	34.306781	5.983422	1.198009E+14	0.001407	710.517444	18.322475	0.632054	0	0
0	0	0	40.08122	5.985113	34.170564	5.985113	1.133414E+14	0.001394	717.489747	18.342053	0.628391	0	0
0	0	0	39.965326	5.986822	34.026646	5.986822	1.068709E+14	0.001379	724.982943	18.347069	0.625046	0	0
0	0	0	39.854005	5.988105	33.88875	5.988105	1.009853E+14	0.001354	738.662607	18.306334	0.621886	0	0
0	0	0	39.737253	5.989212	33.744355	5.989212	9.514278E+13	0.001319	757.871761	18.262593	0.618488	0	0
0	0	0	39.62287	5.990254	33.602922	5.990254	8.973086E+13	0.001286	777.480934	18.26065	0.615011	0	0
0	0	0	39.505383	5.990963	33.458007	5.990963	8.447768E+13	0.001239	806.960943	18.270723	0.611626	0	0
0	0	0	39.387039	5.992017	33.311683	5.992017	7.948346E+13	0.001208	827.873923	18.24959	0.608532	0	0
0	0	0	39.269225	5.992703	33.166376	5.992703	7.479278E+13	0.001164	859.184114	18.190178	0.60561	0	0
0	0	0	39.148349	5.993424	33.017267	5.993424	7.025642E+13	0.001122	891.568898	18.147491	0.602318	0	0
0	0	0	39.029759	5.994377	32.870721	5.994377	6.606343E+13	0.001092	915.739733	18.159553	0.598788	0	0
0	0	0	38.907454	5.995133	32.719807	5.995133	6.199179E+13	0.001054	948.461179	18.16705	0.595668	0	0
0	0	0	38.781065	5.996081	32.563675	5.996081	5.803894E+13	0.001024	976.35186	18.138101	0.592706	0	0
0	0	0	38.659453	5.997147	32.413276	5.997147	5.446618E+13	0.001004	996.404951	18.076687	0.589758	0	0
0	0	0	38.530981	5.998172	32.254487	5.998172	5.092345E+13	0.00098	1020.459429	18.069147	0.586426	0	0
0	0	0	38.403612	5.99929	32.096945	5.99929	4.763233E+13	0.000963	1038.229369	18.083635	0.5832	0	0
0	0	0	38.273221	6.000192	31.93591	6.000192	4.447759E+13	0.000938	1066.285869	18.062938	0.580251	0	0
0	0	0	38.140216	6.001318	31.771419	6.001318	4.146953E+13	0.000924	1082.607822	17.998785	0.577316	0	0
0	0	0	38.008681	6.002192	31.60899	6.002192	3.869026E+13	0.000901	1109.554399	17.964618	0.574196	0	0
0	0	0	37.872859	6.00315	31.441198	6.00315	3.601152E+13	0.000883	1132.284904	17.977332	0.571009	0	0
0	0	0	37.738262	6.003797	31.275236	6.003797	3.353627E+13	0.000853	1172.538076	17.97948	0.568114	0	0
0	0	0	37.597253	6.004526	31.101305	6.004526	3.112198E+13	0.000826	1210.830507	17.928004	0.565417	0	0
0	0	0	37.462655	6.005256	30.935238	6.005256	2.897694E+13	0.000804	1243.802938	17.875006	0.562402	0	0
0	0	0	37.317195	6.005889	30.75593	6.005889	2.6822E+13	0.000775	1290.669809	17.869941	0.559374	0	0
0	0	0	37.177698	6.006414	30.584057	6.006414	2.490379E+13	0.000745	1342.74885	17.885723	0.55636	0	0
0	0	0	37.028032	6.006791	30.399853	6.006791	2.29959E+13	0.000706	1417.274818	17.850323	0.553663	0	0
0	0	0	36.885879	6.007233	30.2248	6.007233	2.131754E+13	0.000675	1482.18371	17.783132	0.551032	0	0
0	0	0	36.736458	6.00767	30.040823	6.00767	1.968365E+13	0.000643	1555.399317	17.760519	0.548043	0	0
0	0	0	36.586425	6.007955	29.856259	6.007955	1.816763E+13	0.000606	1649.945746	17.769419	0.544936	0	0
0	0	0	36.432757	6.008276	29.667186	6.008276	1.67346E+13	0.000572	1748.089065	17.749855	0.542252	0	0
0	0	0	36.279089	6.00875	29.477937	6.00875	1.541352E+13	0.000547	1828.726302	17.688903	0.539608	0	0
0	0	0	36.119785	6.009043	29.281967	6.009043	1.415302E+13	0.000514	1945.005983	17.645919	0.53666	0	0
0	0	0	35.961421	6.009509	29.08695	6.009509	1.300131E+13	0.000491	2036.748104	17.655892	0.533553	0	0
0	0	0	35.796155	6.009758	28.883701	6.009758	1.189848E+13	0.000459	2178.473372	17.650677	0.530842	0	0
0	0	0	35.631706	6.009978	28.681486	6.009978	1.089334E+13	0.000428	2334.077222	17.602952	0.528304	0	0
0	0	0	35.465011	6.010299	28.476392	6.010299	9.960554E+12	0.000403	2480.258759	17.543647	0.525527	0	0
0	0	0	35.294028	6.010791	28.265828	6.010791	9.08622E+12	0.000385	2597.269101	17.528119	0.522552	0	0
0	0	0	35.125006	6.011179	28.057788	6.011179	8.296975E+12	0.000365	2739.316035	17.544358	0.519683	0	0
0	0	0	34.949817	6.011621	27.842104	6.011621	7.550867E+12	0.000347	2878.316806	17.521401	0.517158	0	0
0	0	0	34.772994	6.012125	27.624335	6.012125	6.865524E+12	0.000333	3000.558059	17.448624	0.514659	0	0
0	0	0	34.595396	6.012302	27.405998	6.012302	6.239533E+12	0.000309	3237.762634	17.416758	0.511737	0	0
0	0	0	34.413591	6.012641	27.182297	6.012641	5.657581E+12	0.000291	3436.183721	17.42311	0.50904	0	0
0	0	0	34.230644	6.013021	26.957138	6.013021	5.126572E+12	0.000276	3625.569248	17.408103	0.506448	0	0
0	0	0	34.039814	6.013374	26.722325	6.013374	4.625564E+12	0.00026	3846.449113	17.332445	0.503963	0	0
0	0	0	33.852823	6.013847	26.492075	6.013847	4.182035E+12	0.00025	4000.182847	17.285021	0.501437	0	0
0	0	0	33.657706	6.014209	26.251975	6.014209	3.764399E+12	0.000237	4227.990003	17.307085	0.4987	0	0
0	0	0	33.459526	6.014641	26.00802	6.014641	3.382787E+12	0.000226	4417.986934	17.299103	0.496162	0	0
0	0	0	33.259672	6.014907	25.762208	6.014907	3.037041E+12	0.000212	4723.505095	17.232199	0.493941	0	0
0	0	0	33.05847	6.015204	25.514699	6.015204	2.724589E+12	0.000199	5020.56558	17.178583	0.491336	0	0
0	0	0	32.841138	6.015564	25.247291	6.015564	2.423045E+12	0.000188	5310.890836	17.185503	0.488692	0	0
0	0	0	32.626827	6.015918	24.983598	6.015918	2.158346E+12	0.000179	5593.5831	17.192501	0.4861	0	0
0	0	0	32.416846	6.01634	24.725129	6.01634	1.927027E+12	0.000173	5772.937613	17.115292	0.48409	0	0
0	0	0	32.194695	6.016782	24.45168	6.016782	1.709203E+12	0.000169	5928.279628	17.048312	0.481552	0	0
0	0	0	31.977811	6.016705	24.185365	6.016705	1.520297E+12	0.000148	6777.493706	17.033552	0.478841	0	0
0	0	0	31.758029	6.017026	23.914973	6.017026	1.350135E+12	0.000141	7098.34464	17.04458	0.476276	0	0
0	0	0	31.534694	6.017405	23.640134	6.017405	1.196705E+12	0.000137	7296.15706	16.979053	0.474227	0	0
0	0	0	31.306989	6.017352	23.360492	6.017352	1.058199E+12	0.00012	8363.860022	16.929982	0.471834	0	0
0	0	0	31.071566	6.017914	23.070552	6.017914	9.318198E+11	0.000123	8141.487623	16.919753	0.469335	0	0
0	0	0	30.836184	6.017877	22.781453	6.017877	8.205444E+11	0.000107	9346.900424	16.935294	0.466717	0	0
0	0	0	30.599903	6.018309	22.49062	6.018309	7.222003E+11	0.000108	9274.670598	16.888129	0.464456	0	0
0	0	0	30.36056	6.018183	22.196775	6.018183	6.345871E+11	9.088037E-5	11003.476557	16.820086	0.462314	0	0
0	0	0	30.11456	6.01846	21.894203	6.01846	5.555968E+11	8.73707E-5	11445.484856	16.786885	0.459789	0	0
0	0	0	29.868928	6.018829	21.591953	6.018829	4.865324E+11	8.797307E-5	11367.114719	16.798011	0.457264	0	0
0	0	0	29.617865	6.018845	21.283511	6.018845	4.248021E+11	7.731626E-5	12933.890318	16.740961	0.45528	0	0
0	0	0	29.362228	6.019126	20.969081	6.019126	3.699864E+11	7.607596E-5	13144.756483	16.673059	0.453059	0	0
0	0	0	29.106183	6.01916	20.654491	6.01916	3.221715E+11	6.730805E-5	14857.064736	16.64731	0.450785	0	0
0	0	0	28.843277	6.019213	20.331445	6.019213	2.794965E+11	5.989767E-5	16695.139838	16.665292	0.448299	0	0
0	0	0	28.576001	6.019346	20.002917	6.019346	2.419014E+11	5.537294E-5	18059.363897	16.614796	0.44621	0	0
0	0	0	28.308767	6.01969	19.674133	6.01969	2.093672E+11	5.822943E-5	17173.446844	16.540857	0.444148	0	0
0	0	0	28.037081	6.019661	19.340412	6.019661	1.807727E+11	4.940392E-5	20241.308412	16.516669	0.441821	0	0
0	0	0	27.76176	6.019679	19.00216	6.019679	1.557767E+11	4.303611E-5	23236.302833	16.533693	0.439295	0	0
0	0	0	27.485297	6.020014	18.662037	6.020014	1.341538E+11	4.681431E-5	21360.990306	16.480998	0.437273	0	0
0	0	0	27.206219	6.019978	18.319245	6.019978	1.15369E+11	3.913813E-5	25550.530075	16.412501	0.435355	0	0
0	0	0	26.921956	6.020113	17.969827	6.020113	9.893662E+10	3.743585E-5	26712.364198	16.384338	0.433095	0	0
0	0	0	26.63169	6.019963	17.613459	6.019963	8.456975E+10	2.83799E-5	35236.200106	16.386117	0.430688	0	0
0	0	0	26.340116	6.020019	17.255179	6.020019	7.223799E+10	2.529831E-5	39528.330043	16.341105	0.428718	0	0
0	0	0	26.045113	6.02026	16.892402	6.02026	6.159004E+10	2.661596E-5	37571.446096	16.24991	0.426788	0	0
0	0	0	25.745372	6.020334	16.524054	6.020334	5.237726E+10	2.44064E-5	40972.857145	16.218337	0.424487	0	0
0	0	0	25.442977	6.020216	16.152741	6.020216	4.447864E+10	1.844729E-5	54208.517942	16.235054	0.422213	0	0
0	0	0	25.139276	6.02035	15.779433	6.02035	3.774446E+10	1.788815E-5	55902.944471	16.178418	0.420468	0	0
0	0	0	24.831368	6.020637	15.400717	6.020637	3.195708E+10	2.179506E-5	45881.963306	16.104714	0.418405	0	0
0	0	0	24.517457	6.020518	15.015258	6.020518	2.696941E+10	1.556571E-5	64243.785534	16.090652	0.416092	0	0
0	0	0	24.200197	6.020572	14.625414	6.020572	2.271901E+10	1.409824E-5	70930.822076	16.092418	0.414016	0	0
0	0	0	23.872851	6.020653	14.223134	6.020653	1.90344E+10	1.330332E-5	75169.216228	16.042645	0.412059	0	0
0	0	0	23.543953	6.02066	13.819064	6.02066	1.593399E+10	1.126572E-5	88764.845729	15.965705	0.410115	0	0
0	0	0	23.195372	6.020913	13.390413	6.020913	1.319741E+10	1.559468E-5	64124.446853	15.950357	0.407973	0	0
0	0	0	22.848098	6.020893	12.963807	6.020893	1.093855E+10	1.229169E-5	81355.789454	15.968226	0.405686	0	0
0	0	0	22.502253	6.020767	12.539134	6.020767	9.073312E+9	7.739263E-6	129211.26873	15.895776	0.40398	0	0
0	0	0	22.152977	6.020967	12.109708	6.020967	7.512193E+9	1.037321E-5	96402.189171	15.81319	0.401918	0	0
0	0	0	21.793534	6.020795	11.668409	6.020795	6.185578E+9	5.566225E-6	179654.98674	15.805687	0.399723	0	0
0	0	0	21.427801	6.020861	11.218983	6.020861	5.075951E+9	5.278851E-6	189435.152028	15.801289	0.397634	0	0
0	0	0	21.055698	6.021127	10.76139	6.021127	4.151058E+9	1.138721E-5	87817.792014	15.711813	0.395862	0	0
0	0	0	20.678695	6.020848	10.298706	6.020848	3.38571E+9	3.418132E-6	292557.479524	15.640446	0.393932	0	0
0	0	0	20.294586	6.021087	9.826402	6.021087	2.750885E+9	6.068836E-6	164776.234748	15.645873	0.391671	0	0
0	0	0	19.898879	6.021048	9.340331	6.021048	2.221122E+9	4.094482E-6	244231.140744	15.635315	0.389622	0	0
0	0	0	19.494679	6.021048	8.843755	6.021048	1.785164E+9	3.292339E-6	303735.385983	15.532225	0.38785	0	0
0	0	0	19.077574	6.021008	8.331398	6.021008	1.424801E+9	2.256262E-6	443210.955556	15.466102	0.385827	0	0
0	0	0	18.655201	6.020995	7.812521	6.020995	1.133949E+9	1.715136E-6	583044.054522	15.473505	0.383566	0	0
0	0	0	18.222783	6.021128	7.281039	6.021128	8.975828E+8	2.474564E-6	404111.539966	15.461347	0.381636	0	0
0	0	0	17.780073	6.021088	6.737226	6.021088	7.065443E+8	1.562857E-6	639853.970712	15.353403	0.380023	0	0
0	0	0	17.327277	6.021114	6.180899	6.021114	5.531415E+8	1.409889E-6	709275.517279	15.315143	0.378066	0	0
0	0	0	16.860433	6.021287	5.607041	6.021287	4.29769E+8	9.570792E-5	10448.456034	15.333086	0.375911	0	0
0	0	0	16.386647	6.021075	5.025373	6.021075	3.326627E+8	6.906551E-7	1447900.763789	15.28975	0.374311	0	0
0	0	0	15.901835	6.0213	4.429334	6.0213	2.559673E+8	-1.005513E-5	-99451.759588	15.198882	0.372632	0	0
0	0	0	15.412572	6.021227	3.828392	6.021227	1.964807E+8	1.418098E-6	705170.055567	15.182016	0.370384	0	0
0	0	0	14.910118	6.021174	3.211209	6.021174	1.497472E+8	5.808041E-7	1721750.94276	15.174107	0.36852	0	0
0	0	0	14.397007	6.021221	2.580739	6.021221	1.134737E+8	7.397061E-7	1351888.226757	15.108694	0.366986	0	0
0	0	0	13.870827	6.021101	1.934541	6.021101	8.53815E+7	2.024082E-7	4940512.378411	15.034049	0.365241	0	0
0	0	0	13.336113	6.02132	1.277186	6.02132	6.394824E+7	-9.091204E-7	-1099964.272216	15.039965	0.363073	0	0
0	0	0	12.802379	6.021307	0.621495	6.021307	4.792074E+7	-1.182464E-6	-845691.928459	15.006945	0.361473	0	0
0	0	0	12.263458	6.021234	-0.040445	6.021234	3.580972E+7	2.899226E-7	3449196.923316	14.933557	0.359886	0	0
0	0	0	11.720209	6.021274	-0.707932	6.021274	2.669697E+7	7.84624E-7	1274495.752433	14.877241	0.358115	0	0
0	0	0	11.175531	6.021294	-1.377136	6.021294	1.988784E+7	-1.854952E-6	-539097.649183	14.884427	0.356184	0	0
0	0	0	10.630812	6.021254	-2.046265	6.021254	1.481506E+7	1.881122E-7	5315977.013504	14.820416	0.354796	0	0
0	0	0	10.081641	6.021154	-2.720733	6.021154	1.100967E+7	3.640056E-8	2.74721E+7	14.73078	0.353196	0	0
0	0	0	9.53096	6.021287	-3.397553	6.021287	8175054.375	1.954592E-6	511615.725987	14.74528	0.351213	0	0
0	0	0	8.983178	6.021241	-4.070427	6.021241	6079775.75	5.599528E-8	1.785865E+7	14.74262	0.349507	0	0
0	0	0	8.439847	6.021254	-4.737962	6.021254	4532413.125	5.755607E-8	1.737436E+7	14.636275	0.348251	0	0
0	0	0	7.898925	6.021426	-5.402889	6.021426	3383273.125	-1.094877E-8	-9.133447E+7	14.562785	0.346572	0	0
0	0	0	7.364374	6.021314	-6.059361	6.021314	2534196.125	-4.567991E-8	-2.189146E+7	14.596627	0.34451	0	0
0	0	0	6.872171	6.021314	-6.664056	6.021314	1942161.625	-3.500796E-8	-2.856494E+7	14.545628	0.343108	0	0
0	0	0	6.41864	6.0213	-7.22121	6.0213	1519881	-5.925318E-8	-1.687673E+7	14.434684	0.34168	0	0
0	0	0	5.984506	6.021234	-7.754412	6.021234	1201953.75	9.73351E-9	1.027379E+8	14.414637	0.339697	0	0
0	0	0	5.569566	6.021353	-8.264459	6.021353	960443.75	-6.62555E-9	-1.509309E+8	14.411988	0.338097	0	0
0	0	0	5.165978	6.021201	-8.759933	6.021201	772185	3.898854E-9	2.564857E+8	14.334298	0.336762	0	0
0	0	0	4.764636	6.021307	-9.253246	6.021307	621581.5	-1.532312E-8	-6.526084E+7	14.264387	0.335109	0	0
0	0	0	4.386611	6.02132	-9.717698	6.02132	506697.875	-7.198189E-9	-1.389238E+8	14.26401	0.333298	0	0
0	0	0	4.02288	6.021314	-10.164543	6.021314	416251.375	-7.502896E-9	-1.332819E+8	14.228976	0.331804	0	0
0	0	0	3.674585	6.021307	-10.592425	6.021307	344815	-8.500287E-9	-1.176431E+8	14.120477	0.330495	0	0
0	0	0	3.342461	6.021254	-11.000328	6.021254	288146.375	3.659259E-9	2.732794E+8	14.09634	0.328591	0	0
0	0	0	3.020546	6.021486	-11.396371	6.021486	242123.625	-5.462646E-10	-1.830615E+9	14.091188	0.327044	0	0
0	0	0	2.708758	6.021373	-11.779147	6.021373	204568.375	-1.078366E-9	-9.27329E+8	13.982205	0.325788	0	0
0	0	0	2.41351	6.021261	-12.141601	6.021261	174390.625	2.73208E-9	3.660214E+8	13.923746	0.324042	0	0
0	0	0	2.130022	6.02138	-12.490168	6.02138	149612.625	-7.311876E-10	-1.367638E+9	13.945477	0.322377	0	0
0	0	0	1.859521	6.021466	-12.822703	6.021466	129259.5	-3.2437E-10	-3.082899E+9	13.899948	0.320949	0	0
0	0	0	1.608621	6.02146	-13.130931	6.02146	112864.875	-2.942405E-10	-3.39858E+9	13.786467	0.319574	0	0
0	0	0	1.376015	6.02144	-13.41665	6.02144	99529	-2.937352E-10	-3.404427E+9	13.777222	0.317762	0	0
0	0	0	1.167504	6.02134	-13.672572	6.02134	88919.625	-7.723159E-10	-1.294807E+9	13.767718	0.316268	0	0
0	0	0	0.991498	6.021526	-13.889262	6.021526	80849.375	-1.517679E-10	-6.58901E+9	13.67301	0.314986	0	0
0	0	0	0.83342	6.021254	-14.082796	6.021254	74227.375	9.426375E-10	1.060853E+9	13.630077	0.313426	0	0
0	0	0	0.703478	6.021367	-14.242716	6.021367	69192.25	-3.958626E-10	-2.526129E+9	13.634787	0.31172	0	0
0	0	0	0.590442	6.021533	-14.381998	6.021533	65090.875	-1.18859E-10	-8.413331E+9	13.5578	0.31049	0	0
0	0	0	0.494272	6.02136	-14.499719	6.02136	61793.375	-3.865109E-10	-2.587249E+9	13.463853	0.309062	0	0
0	0	0	0.411945	6.02132	-14.600762	6.02132	59103.625	-8.396277E-10	-1.191004E+9	13.485838	0.307211	0	0
0	0	0	0.344238	6.021407	-14.684158	6.021407	56979.5	-2.156103E-10	-4.637997E+9	13.447008	0.306008	0	0
0	0	0	0.283433	6.021307	-14.758613	6.021307	55137	-1.359217E-9	-7.357176E+8	13.333548	0.304792	0	0
0	0	0	0.233571	6.021267	-14.81977	6.021267	53670.75	1.097181E-9	9.114264E+8	13.313292	0.303033	0	0
0	0	0	0.200289	6.021519	-14.861289	6.021519	52713.75	-1.018026E-10	-9.822934E+9	13.281687	0.301751	0	0
0	0	0	0.158718	6.021466	-14.912229	6.021466	51542.375	-1.293429E-10	-7.731387E+9	13.187069	0.300561	0	0
0	0	0	0.131194	6.021214	-14.945412	6.021214	50781.125	3.018616E-10	3.312777E+9	13.15721	0.298987	0	0
0	0	0	0.115962	6.021347	-14.964458	6.021347	50364.75	-3.872797E-10	-2.582113E+9	13.150723	0.297414	0	0
0	0	0	0.083782	6.021314	-15.003909	6.021314	49496.125	-8.921602E-10	-1.120875E+9	13.048343	0.296422	0	0
0	0	0	0.062629	6.021307	-15.02988	6.021307	48933.375	-1.206288E-9	-8.289897E+8	12.968426	0.294942	0	0
0	0	0	0.05536	6.021407	-15.039059	6.021407	48741.5	-1.844377E-10	-5.421884E+9	12.988415	0.293223	0	0
0	0	0	0.046539	6.021267	-15.049547	6.021267	48509.625	9.916734E-10	1.008397E+9	12.918228	0.292258	0	0
0	0	0	0.029878	6.021201	-15.06985	6.021201	48074.625	2.42735E-10	4.119719E+9	12.814755	0.290909	0	0
0	0	0	0.011461	6.021314	-15.092759	6.021314	47598.375	-8.579536E-10	-1.165564E+9	12.819672	0.28923	0	0
0	0	0	-0.004016	6.02138	-15.11194	6.02138	47201.875	-2.306852E-10	-4.334912E+9	12.769575	0.288066	0	0
0	0	0	-0.011163	6.021446	-15.120886	6.021446	47019.875	-1.329173E-10	-7.523478E+9	12.654574	0.286995	0	0
0	0	0	-0.015695	6.021188	-15.125805	6.021188	46904.75	2.058297E-10	4.858385E+9	12.661974	0.285316	0	0
0	0	0	-0.017206	6.021334	-15.128028	6.021334	46866.5	-4.676359E-10	-2.138416E+9	12.645814	0.284166	0	0
0	0	0	-0.019493	6.021261	-15.130654	6.021261	46808.625	7.333254E-10	1.363651E+9	12.519989	0.283095	0	0
0	0	0	-0.023087	6.021327	-15.135236	6.021327	46717.75	-5.476467E-10	-1.825995E+9	12.491383	0.281403	0	0
0	0	0	-0.028477	6.02136	-15.141941	6.02136	46581.75	-2.913638E-10	-3.432135E+9	12.472535	0.280147	0	0
0	0	0	-0.034684	6.021373	-15.149601	6.021373	46425.75	-2.447295E-10	-4.086143E+9	12.371822	0.279076	0	0
0	0	0	-0.041504	6.021393	-15.158029	6.021393	46254.875	-1.972966E-10	-5.068512E+9	12.352056	0.277529	0	0
0	0	0	-0.047875	6.02128	-15.165572	6.02128	46095.875	2.414719E-9	4.141268E+8	12.347319	0.276167	0	0
0	0	0	-0.054286	6.021294	-15.173482	6.021294	45936.375	-4.277981E-9	-2.337551E+8	12.222333	0.275162	0	0
0	0	0	-0.058125	6.021413	-15.178498	6.021413	45841.25	-1.64197E-10	-6.090246E+9	12.176543	0.273681	0	0
0	0	0	-0.059064	6.021433	-15.179702	6.021433	45817.875	-1.414457E-10	-7.069851E+9	12.170146	0.272333	0	0
0	0	0	-0.061882	6.021486	-15.183297	6.021486	45748.125	-1.032141E-10	-9.688598E+9	12.067035	0.271407	0	0
0	0	0	-0.062453	6.021261	-15.183433	6.021261	45734	7.164898E-10	1.395693E+9	12.026627	0.269966	0	0
0	0	0	-0.065149	6.021387	-15.187061	6.021387	45667.5	-2.080243E-10	-4.807131E+9	12.033754	0.26867	0	0
0	0	0	-0.06327	6.021294	-15.184519	6.021294	45713.875	-4.25726E-9	-2.348929E+8	11.912505	0.267652	0	0
0	0	0	-0.062862	6.021334	-15.184118	6.021334	45724	-4.56236E-10	-2.191848E+9	11.856959	0.266224	0	0
0	0	0	-0.06327	6.021526	-15.185103	6.021526	45713.875	-8.581262E-11	-1.16533E+10	11.86022	0.264823	0	0
0	0	0	-0.063883	6.02138	-15.185489	6.02138	45698.75	-2.233391E-10	-4.477496E+9	11.754913	0.263937	0	0
0	0	0	-0.064332	6.02136	-15.185991	6.02136	45687.625	-2.857712E-10	-3.499304E+9	11.708398	0.262496	0	0
0	0	0	-0.063678	6.021373	-15.185221	6.021373	45703.75	-2.409236E-10	-4.150694E+9	11.71041	0.261094	0	0
0	0	0	-0.064209	6.021267	-15.185607	6.021267	45690.625	9.340451E-10	1.070612E+9	11.584871	0.260327	0	0
0	0	0	-0.063515	6.02132	-15.184887	6.02132	45707.75	-6.493255E-10	-1.54006E+9	11.534374	0.258886	0	0
0	0	0	-0.063964	6.02134	-15.185489	6.02134	45696.75	-3.969014E-10	-2.519518E+9	11.508907	0.257643	0	0
0	0	0	-0.064005	6.021287	-15.185406	6.021287	45695.625	1.094287E-8	9.138372E+7	11.404396	0.256758	0	0
0	0	0	-0.064005	6.021407	-15.185706	6.021407	45695.625	-1.729121E-10	-5.783284E+9	11.396687	0.255237	0	0
0	0	0	-0.064618	6.021367	-15.186358	6.021367	45680.5	-2.613472E-10	-3.826328E+9	11.358521	0.254179	0	0
0	0	0	-0.060657	6.021373	-15.181509	6.021373	45778.5	-2.413176E-10	-4.143916E+9	11.243282	0.253267	0	0
0	0	0	-0.058737	6.02142	-15.179267	6.02142	45826	-1.558187E-10	-6.417714E+9	11.223074	0.25176	0	0
0	0	0	-0.057185	6.021413	-15.177344	6.021413	45864.5	-1.642803E-10	-6.087158E+9	11.166252	0.250795	0	0
0	0	0	-0.056573	6.02146	-15.176708	6.02146	45879.625	-1.196089E-10	-8.360582E+9	11.065798	0.249882	0	0
0	0	0	-0.058574	6.021294	-15.17875	6.021294	45830.125	-4.268086E-9	-2.342971E+8	11.076331	0.248415	0	0
0	0	0	-0.058533	6.021274	-15.17865	6.021274	45831.125	1.347846E-9	7.419246E+8	11.026831	0.247397	0	0
0	0	0	-0.058288	6.02134	-15.178515	6.02134	45837.125	-3.981206E-10	-2.511802E+9	10.909476	0.246339	0	0
0	0	0	-0.061514	6.021539	-15.182979	6.021539	45757.25	-8.133975E-11	-1.229411E+10	10.922734	0.244871	0	0
0	0	0	-0.063474	6.021353	-15.18492	6.021353	45708.875	-3.153181E-10	-3.171401E+9	10.821115	0.244104	0	0
0	0	0	-0.067231	6.0213	-15.189403	6.0213	45616.125	-1.778298E-9	-5.623355E+8	10.75213	0.242901	0	0
0	0	0	-0.070539	6.021393	-15.1937	6.021393	45534.625	-1.942244E-10	-5.148683E+9	10.755027	0.24146	0	0
0	0	0	-0.072581	6.02136	-15.196125	6.02136	45484.375	-2.844998E-10	-3.51494E+9	10.631324	0.240839	0	0
0	0	0	-0.073888	6.021533	-15.198163	6.021533	45452.25	-8.299794E-11	-1.204849E+10	10.571753	0.23953	0	0
0	0	0	-0.07695	6.021413	-15.201626	6.021413	45377	-1.625341E-10	-6.152555E+9	10.556837	0.238379	0	0
0	0	0	-0.078502	6.021168	-15.202916	6.021168	45339	1.663069E-10	6.012979E+9	10.41804	0.237639	0	0
0	0	0	-0.079972	6.021347	-15.205172	6.021347	45303	-3.483574E-10	-2.870615E+9	10.43592	0.236105	0	0
0	0	0	-0.081647	6.0214	-15.207362	6.0214	45262	-1.815148E-10	-5.509192E+9	10.345534	0.235418	0	0
0	0	0	-0.082545	6.02132	-15.208266	6.02132	45240	-6.426806E-10	-1.555983E+9	10.258902	0.234254	0	0
0	0	0	-0.084301	6.021373	-15.210557	6.021373	45197	-2.382523E-10	-4.197231E+9	10.267746	0.232826	0	0
0	0	0	-0.084873	6.021347	-15.211193	6.021347	45183.125	-3.474356E-10	-2.878231E+9	10.160079	0.232258	0	0
0	0	0	-0.084995	6.021307	-15.211243	6.021307	45180.125	-1.113764E-9	-8.978564E+8	10.10812	0.231015	0	0
0	0	0	-0.085526	6.02132	-15.211929	6.02132	45167.125	-6.416453E-10	-1.558493E+9	10.089305	0.229918	0	0
0	0	0	-0.085934	6.021261	-15.21228	6.021261	45157.125	7.074522E-10	1.413523E+9	9.974069	0.229071	0	0
0	0	0	-0.086914	6.021513	-15.214118	6.021513	45133.25	-8.974776E-11	-1.114234E+10	9.966258	0.227683	0	0
0	0	0	-0.086955	6.021367	-15.213801	6.021367	45132.25	-2.582105E-10	-3.872809E+9	9.888976	0.22693	0	0
0	0	0	-0.08867	6.0213	-15.215742	6.0213	45090.5	-1.757807E-9	-5.688907E+8	9.80267	0.225898	0	0
0	0	0	-0.088997	6.02142	-15.216443	6.02142	45082.5	-1.532907E-10	-6.523555E+9	9.818175	0.224589	0	0
0	0	0	-0.088221	6.0214	-15.21544	6.0214	45101.375	-1.808706E-10	-5.528813E+9	9.692516	0.223915	0	0
0	0	0	-0.08916	6.021387	-15.21656	6.021387	45078.5	-2.053413E-10	-4.869942E+9	9.677366	0.222699	0	0
0	0	0	-0.088834	6.021287	-15.215909	6.021287	45086.5	1.0797E-8	9.261832E+7	9.617815	0.221839	0	0
0	0	0	-0.088711	6.021393	-15.216025	6.021393	45089.5	-1.923258E-10	-5.199511E+9	9.49088	0.220993	0	0
0	0	0	-0.088466	6.021294	-15.215474	6.021294	45095.5	-4.199671E-9	-2.381139E+8	9.510049	0.219631	0	0
0	0	0	-0.087895	6.021247	-15.214655	6.021247	45109.375	4.816391E-10	2.076243E+9	9.379813	0.219116	0	0
0	0	0	-0.087772	6.021188	-15.214355	6.021188	45112.375	1.979643E-10	5.051415E+9	9.35565	0.217688	0	0
0	0	0	-0.087323	6.02138	-15.214286	6.02138	45123.375	-2.205271E-10	-4.534589E+9	9.298585	0.216921	0	0
0	0	0	-0.087568	6.021519	-15.214937	6.021519	45117.375	-8.71322E-11	-1.147681E+10	9.199969	0.216035	0	0
0	0	0	-0.086751	6.021533	-15.213967	6.021533	45137.25	-8.242273E-11	-1.213258E+10	9.241601	0.214845	0	0
0	0	0	-0.086302	6.021407	-15.213098	6.021407	45148.25	-1.708409E-10	-5.8534E+9	9.13276	0.214171	0	0
0	0	0	-0.085894	6.021453	-15.212713	6.021453	45158.25	-1.224907E-10	-8.163883E+9	9.114633	0.212954	0	0
0	0	0	-0.084342	6.021473	-15.210857	6.021473	45196.125	-1.093258E-10	-9.146974E+9	9.054058	0.212293	0	0
0	0	0	-0.084832	6.021241	-15.210876	6.021241	45184.125	4.161684E-10	2.402874E+9	8.948198	0.211249	0	0
0	0	0	-0.084995	6.021579	-15.211926	6.021579	45180.125	-6.92918E-11	-1.443172E+10	8.943937	0.210165	0	0
0	0	0	-0.084913	6.021413	-15.211409	6.021413	45182.125	-1.618361E-10	-6.179091E+9	8.80523	0.209583	0	0
0	0	0	-0.084056	6.021294	-15.210056	6.021294	45203	-4.209683E-9	-2.375476E+8	8.789934	0.208313	0	0
0	0	0	-0.083484	6.021241	-15.20922	6.021241	45217	4.164712E-10	2.401127E+9	8.66769	0.207679	0	0
0	0	0	-0.083688	6.021446	-15.209988	6.021446	45212	-1.278067E-10	-7.824316E+9	8.627236	0.206515	0	0
0	0	0	-0.082218	6.0214	-15.208065	6.0214	45248	-1.814587E-10	-5.510897E+9	8.592203	0.205762	0	0
0	0	0	-0.080993	6.021453	-15.206693	6.021453	45278	-1.228155E-10	-8.142291E+9	8.484325	0.204902	0	0
0	0	0	-0.079156	6.021506	-15.204569	6.021506	45323	-9.287952E-11	-1.076664E+10	8.519226	0.203659	0	0
0	0	0	-0.078257	6.02128	-15.202898	6.02128	45345	2.375385E-9	4.209844E+8	8.376022	0.203223	0	0
0	0	0	-0.07887	6.021433	-15.204034	6.021433	45330	-1.399396E-10	-7.145942E+9	8.386778	0.202033	0	0
0	0	0	-0.077849	6.021426	-15.202763	6.021426	45355	-1.467743E-10	-6.813182E+9	8.301155	0.201451	0	0
0	0	0	-0.078461	6.02146	-15.203599	6.02146	45340	-1.182021E-10	-8.460088E+9	8.238899	0.200341	0	0
0	0	0	-0.078951	6.021294	-15.203785	6.021294	45328	-4.221324E-9	-2.368925E+8	8.180578	0.199627	0	0
0	0	0	-0.080707	6.021334	-15.206042	6.021334	45285	-4.518556E-10	-2.213096E+9	8.079159	0.198543	0	0
0	0	0	-0.082137	6.021486	-15.208181	6.021486	45250	-1.020903E-10	-9.795252E+9	8.075706	0.19771	0	0
0	0	0	-0.082912	6.021433	-15.209001	6.021433	45231	-1.396339E-10	-7.161583E+9	7.954305	0.197049	0	0
0	0	0	-0.084628	6.021347	-15.210892	6.021347	45189.125	-3.474818E-10	-2.877849E+9	7.954539	0.195938	0	0
0	0	0	-0.085649	6.021327	-15.212096	6.021327	45164.125	-5.294344E-10	-1.888808E+9	7.825526	0.195303	0	0
0	0	0	-0.085608	6.021227	-15.211796	6.021227	45165.125	3.263396E-10	3.064292E+9	7.819981	0.194153	0	0
0	0	0	-0.086588	6.02136	-15.213333	6.02136	45141.25	-2.823536E-10	-3.541658E+9	7.704245	0.193598	0	0
0	0	0	-0.0872	6.021367	-15.214102	6.021367	45126.25	-2.581762E-10	-3.873324E+9	7.670209	0.192448	0	0
0	0	0	-0.08765	6.02142	-15.214787	6.02142	45115.375	-1.534024E-10	-6.518801E+9	7.594916	0.191919	0	0
0	0	0	-0.088997	6.021373	-15.216326	6.021373	45082.5	-2.376487E-10	-4.207891E+9	7.551716	0.190927	0	0
0	0	0	-0.088385	6.02132	-15.21544	6.02132	45097.375	-6.406545E-10	-1.560904E+9	7.501649	0.190266	0	0
0	0	0	-0.088834	6.021426	-15.216259	6.021426	45086.5	-1.459054E-10	-6.853756E+9	7.410204	0.189446	0	0
0	0	0	-0.089079	6.021353	-15.216377	6.021353	45080.5	-3.109833E-10	-3.215607E+9	7.39888	0.188587	0	0
0	0	0	-0.088956	6.021533	-15.216676	6.021533	45083.5	-8.232458E-11	-1.214704E+10	7.296809	0.187833	0	0
0	0	0	-0.089528	6.021307	-15.216812	6.021307	45069.5	-1.111037E-9	-9.000602E+8	7.279841	0.186908	0	0
0	0	0	-0.089324	6.021247	-15.216411	6.021247	45074.5	4.812668E-10	2.07785E+9	7.152251	0.186339	0	0
0	0	0	-0.089691	6.021334	-15.217079	6.021334	45065.5	-4.496654E-10	-2.223876E+9	7.152125	0.185334	0	0
0	0	0	-0.090059	6.02134	-15.217547	6.02134	45056.625	-3.913415E-10	-2.555313E+9	7.018709	0.184779	0	0
0	0	0	-0.090712	6.021307	-15.218267	6.021307	45040.75	-1.110328E-9	-9.006348E+8	7.023221	0.183708	0	0
0	0	0	-0.091202	6.02144	-15.219202	6.02144	45028.75	-1.328912E-10	-7.524954E+9	6.911206	0.183166	0	0
0	0	0	-0.091161	6.021307	-15.218819	6.021307	45029.75	-1.110057E-9	-9.008548E+8	6.908924	0.182029	0	0
0	0	0	-0.090916	6.021367	-15.218668	6.021367	45035.75	-2.576584E-10	-3.881107E+9	6.792433	0.18154	0	0
0	0	0	-0.090304	6.021314	-15.217782	6.021314	45050.625	-8.120307E-10	-1.23148E+9	6.782123	0.180389	0	0
0	0	0	-0.090712	6.021499	-15.21875	6.021499	45040.75	-9.521098E-11	-1.050299E+10	6.659034	0.180032	0	0
0	0	0	-0.09059	6.021373	-15.218283	6.021373	45043.625	-2.374438E-10	-4.211523E+9	6.639335	0.179014	0	0
0	0	0	-0.089732	6.0214	-15.217296	6.0214	45064.5	-1.807228E-10	-5.533337E+9	6.498151	0.178512	0	0
0	0	0	-0.090141	6.02144	-15.217898	6.02144	45054.625	-1.329675E-10	-7.520632E+9	6.497206	0.177586	0	0
0	0	0	-0.089569	6.02148	-15.217295	6.02148	45068.625	-1.052215E-10	-9.503762E+9	6.382379	0.176846	0	0
0	0	0	-0.089324	6.021221	-15.216344	6.021221	45074.5	2.940034E-10	3.401321E+9	6.371687	0.175987	0	0
0	0	0	-0.089406	6.021314	-15.216678	6.021314	45072.5	-8.12425E-10	-1.230883E+9	6.234135	0.175524	0	0
0	0	0	-0.088956	6.02138	-15.216293	6.02138	45083.5	-2.203323E-10	-4.5386E+9	6.232333	0.174625	0	0
0	0	0	-0.08863	6.021393	-15.215925	6.021393	45091.5	-1.923343E-10	-5.199281E+9	6.121832	0.173898	0	0
0	0	0	-0.088466	6.021486	-15.215957	6.021486	45095.5	-1.017417E-10	-9.828812E+9	6.075381	0.173144	0	0
0	0	0	-0.087813	6.021274	-15.214621	6.021274	45111.375	1.326679E-9	7.537619E+8	5.995195	0.172377	0	0
0	0	0	-0.087854	6.021247	-15.214605	6.021247	45110.375	4.816498E-10	2.076197E+9	5.940832	0.171901	0	0
0	0	0	-0.087527	6.0214	-15.214587	6.0214	45118.375	-1.809388E-10	-5.52673E+9	5.879293	0.170843	0	0
0	0	0	-0.087364	6.021314	-15.21417	6.021314	45122.375	-8.13324E-10	-1.229522E+9	5.782038	0.170301	0	0
0	0	0	-0.086996	6.02136	-15.213835	6.02136	45131.25	-2.822911E-10	-3.542443E+9	5.742842	0.169376	0	0
0	0	0	-0.086629	6.021353	-15.213367	6.021353	45140.25	-3.113955E-10	-3.211351E+9	5.628439	0.169111	0	0
0	0	0	-0.08671	6.0214	-15.213584	6.0214	45138.25	-1.810185E-10	-5.524296E+9	5.604338	0.167895	0	0
0	0	0	-0.085363	6.021513	-15.212211	6.021513	45171.125	-8.982308E-11	-1.1133E+10	5.502037	0.16734	0	0
0	0	0	-0.084873	6.021347	-15.211193	6.021347	45183.125	-3.474356E-10	-2.878231E+9	5.468327	0.16652	0	0
0	0	0	-0.083648	6.021413	-15.209854	6.021413	45213	-1.619467E-10	-6.174872E+9	5.398775	0.165832	0	0
0	0	0	-0.084546	6.021314	-15.210708	6.021314	45191.125	-8.145632E-10	-1.227652E+9	5.334758	0.165317	0	0
0	0	0	-0.084178	6.021499	-15.210723	6.021499	45200.125	-9.554788E-11	-1.046596E+10	5.307803	0.164391	0	0
0	0	0	-0.085077	6.021287	-15.211293	6.021287	45178.125	1.081894E-8	9.243049E+7	5.210998	0.163981	0	0
0	0	0	-0.085159	6.021367	-15.211594	6.021367	45176.125	-2.584616E-10	-3.869047E+9	5.178429	0.16291	0	0
0	0	0	-0.085485	6.021347	-15.211945	6.021347	45168.125	-3.473203E-10	-2.879187E+9	5.07454	0.162501	0	0
0	0	0	-0.086179	6.021393	-15.212915	6.021393	45151.25	-1.925892E-10	-5.1924E+9	4.992608	0.161853	0	0
0	0	0	-0.087568	6.021373	-15.21457	6.021373	45117.375	-2.378326E-10	-4.204639E+9	4.938978	0.161033	0	0
0	0	0	-0.087935	6.021373	-15.215022	6.021373	45108.375	-2.377851E-10	-4.205478E+9	4.808109	0.160531	0	0
0	0	0	-0.088344	6.021274	-15.215274	6.021274	45098.375	1.326297E-9	7.539792E+8	4.783672	0.159658	0	0
0	0	0	-0.088589	6.02134	-15.215741	6.02134	45092.375	-3.91652E-10	-2.553287E+9	4.704769	0.158917	0	0
0	0	0	-0.089201	6.021294	-15.216377	6.021294	45077.5	-4.197995E-9	-2.38209E+8	4.622331	0.158441	0	0
0	0	0	-0.089201	6.02146	-15.216794	6.02146	45077.5	-1.175177E-10	-8.509353E+9	4.593344	0.157807	0	0
0	0	0	-0.089814	6.021327	-15.217213	6.021327	45062.625	-5.282446E-10	-1.893063E+9	4.510931	0.157	0	0
0	0	0	-0.089732	6.021247	-15.216913	6.021247	45064.5	4.8116E-10	2.078311E+9	4.426523	0.156405	0	0
0	0	0	-0.089896	6.021214	-15.21703	6.021214	45060.625	2.678568E-10	3.733338E+9	4.346957	0.155757	0	0
0	0	0	-0.090386	6.021267	-15.217765	6.021267	45048.625	9.209208E-10	1.08587E+9	4.24637	0.155149	0	0
0	0	0	-0.090059	6.021314	-15.217481	6.021314	45056.625	-8.121389E-10	-1.231316E+9	4.174071	0.154462	0	0
0	0	0	-0.090426	6.02132	-15.217949	6.02132	45047.625	-6.399477E-10	-1.562628E+9	4.095577	0.153748	0	0
0	0	0	-0.09059	6.021367	-15.218266	6.021367	45043.625	-2.577035E-10	-3.880429E+9	4.047724	0.153153	0	0
0	0	0	-0.090753	6.021546	-15.218917	6.021546	45039.75	-7.799652E-11	-1.282109E+10	3.950213	0.152465	0	0
0	0	0	-0.091202	6.021274	-15.218786	6.021274	45028.75	1.324249E-9	7.55145E+8	3.874133	0.151817	0	0
0	0	0	-0.091815	6.021387	-15.219821	6.021387	45013.875	-2.050469E-10	-4.876933E+9	3.791928	0.151262	0	0
0	0	0	-0.092182	6.021413	-15.22034	6.021413	45004.875	-1.612012E-10	-6.203427E+9	3.715747	0.150601	0	0
0	0	0	-0.092713	6.021519	-15.221259	6.021519	44992	-8.689007E-11	-1.150879E+10	3.673356	0.149927	0	0
0	0	0	-0.092632	6.021353	-15.220741	6.021353	44994	-3.103866E-10	-3.221789E+9	3.598969	0.149332	0	0
0	0	0	-0.092019	6.021347	-15.219972	6.021347	45008.875	-3.460957E-10	-2.889374E+9	3.534891	0.148776	0	0
0	0	0	-0.092142	6.021407	-15.220273	6.021407	45006	-1.703026E-10	-5.871901E+9	3.48922	0.148168	0	0
0	0	0	-0.091121	6.021373	-15.218935	6.021373	45030.75	-2.373759E-10	-4.212727E+9	3.417096	0.147481	0	0
0	0	0	-0.091284	6.021393	-15.219186	6.021393	45026.75	-1.920581E-10	-5.206758E+9	3.396668	0.14674	0	0
0	0	0	-0.091243	6.02136	-15.219052	6.02136	45027.75	-2.816437E-10	-3.550585E+9	3.358035	0.146357	0	0
0	0	0	-0.089977	6.021466	-15.217764	6.021466	45058.625	-1.130723E-10	-8.843902E+9	3.335876	0.14563	0	0
0	0	0	-0.089977	6.021154	-15.21698	6.021154	45058.625	1.489788E-10	6.712363E+9	3.323066	0.144982	0	0
0	0	0	-0.090426	6.0213	-15.217899	6.0213	45047.625	-1.756136E-9	-5.694321E+8	3.299137	0.144427	0	0
0	0	0	-0.090018	6.02136	-15.217547	6.02136	45057.625	-2.818306E-10	-3.548231E+9	3.247477	0.143858	0	0
0	0	0	-0.089814	6.021201	-15.216896	6.021201	45062.625	2.27527E-10	4.395082E+9	3.218659	0.143118	0	0
0	0	0	-0.08961	6.02142	-15.217196	6.02142	45067.625	-1.532401E-10	-6.525708E+9	3.187819	0.142628	0	0
0	0	0	-0.089406	6.021373	-15.216828	6.021373	45072.5	-2.37596E-10	-4.208825E+9	3.189517	0.142007	0	0
0	0	0	-0.088425	6.0213	-15.215441	6.0213	45096.5	-1.758041E-9	-5.68815E+8	3.176029	0.141174	0	0
0	0	0	-0.088875	6.021426	-15.216309	6.021426	45085.5	-1.459022E-10	-6.853908E+9	3.159403	0.140817	0	0
0	0	0	-0.08916	6.021426	-15.21666	6.021426	45078.5	-1.458795E-10	-6.854972E+9	3.092372	0.140394	0	0
0	0	0	-0.088466	6.021314	-15.215524	6.021314	45095.5	-8.128396E-10	-1.230255E+9	3.08691	0.139587	0	0
0	0	0	-0.088834	6.021446	-15.216309	6.021446	45086.5	-1.274519E-10	-7.846095E+9	3.039592	0.139125	0	0
0	0	0	-0.088262	6.021387	-15.215457	6.021387	45100.375	-2.054409E-10	-4.86758E+9	3.013385	0.138675	0	0
0	0	0	-0.086792	6.02136	-15.213584	6.02136	45136.25	-2.823224E-10	-3.54205E+9	3.017233	0.137922	0	0
0	0	0	-0.087037	6.021347	-15.213852	6.021347	45130.25	-3.470291E-10	-2.881603E+9	3.017818	0.137141	0	0
0	0	0	-0.085812	6.021446	-15.212596	6.021446	45160.25	-1.276604E-10	-7.833282E+9	2.977566	0.136732	0	0
0	0	0	-0.086955	6.021446	-15.214001	6.021446	45132.25	-1.275813E-10	-7.838142E+9	2.936253	0.136189	0	0
0	0	0	-0.087241	6.021261	-15.213886	6.021261	45125.25	7.069528E-10	1.414522E+9	2.904917	0.135674	0	0
0	0	0	-0.086792	6.021314	-15.213467	6.021314	45136.25	-8.135741E-10	-1.229144E+9	2.853026	0.134973	0	0
0	0	0	-0.086833	6.021493	-15.213967	6.021493	45135.25	-9.851656E-11	-1.015058E+10	2.835915	0.134643	0	0
0	0	0	-0.087119	6.0214	-15.214085	6.0214	45128.25	-1.809784E-10	-5.52552E+9	2.817043	0.133942	0	0
0	0	0	-0.087527	6.02144	-15.214687	6.02144	45118.375	-1.331557E-10	-7.510006E+9	2.79237	0.133439	0	0
0	0	0	-0.088589	6.021287	-15.215608	6.021287	45092.375	1.079841E-8	9.260626E+7	2.772852	0.132911	0	0
0	0	0	-0.088875	6.021466	-15.216409	6.021466	45085.5	-1.131397E-10	-8.83863E+9	2.722169	0.132368	0	0
0	0	0	-0.089446	6.02134	-15.216795	6.02134	45071.5	-3.914707E-10	-2.554469E+9	2.693707	0.131787	0	0
0	0	0	-0.090141	6.021373	-15.217731	6.021373	45054.625	-2.375018E-10	-4.210495E+9	2.664086	0.131007	0	0
0	0	0	-0.089569	6.021387	-15.217062	6.021387	45068.625	-2.052963E-10	-4.871009E+9	2.646574	0.13061	0	0
0	0	0	-0.089896	6.021473	-15.21768	6.021473	45060.625	-1.08998E-10	-9.174479E+9	2.618951	0.129989	0	0
0	0	0	-0.090386	6.021287	-15.217815	6.021287	45048.625	1.078793E-8	9.269619E+7	2.599262	0.129327	0	0
0	0	0	-0.090345	6.021267	-15.217715	6.021267	45049.625	9.209412E-10	1.085846E+9	2.576819	0.128878	0	0
0	0	0	-0.090631	6.021161	-15.2178	6.021161	45042.625	1.566503E-10	6.383645E+9	2.555377	0.128494	0	0
0	0	0	-0.091161	6.021334	-15.218885	6.021334	45029.75	-4.493087E-10	-2.225641E+9	2.486551	0.128018	0	0
0	0	0	-0.090916	6.021387	-15.218718	6.021387	45035.75	-2.051465E-10	-4.874565E+9	2.464937	0.127106	0	0
0	0	0	-0.091407	6.021373	-15.219286	6.021373	45023.875	-2.373397E-10	-4.213371E+9	2.441646	0.126776	0	0
0	0	0	-0.091897	6.021261	-15.219605	6.021261	45011.875	7.051766E-10	1.418084E+9	2.42345	0.126379	0	0
0	0	0	-0.091856	6.02148	-15.220105	6.02148	45012.875	-1.050913E-10	-9.515532E+9	2.403508	0.125771	0	0
0	0	0	-0.09255	6.021314	-15.220541	6.021314	44996	-8.110461E-10	-1.232975E+9	2.390369	0.125097	0	0
0	0	0	-0.093203	6.0213	-15.22131	6.0213	44980.125	-1.753504E-9	-5.702866E+8	2.336404	0.124779	0	0
0	0	0	-0.09304	6.021453	-15.221493	6.021453	44984.125	-1.220184E-10	-8.195484E+9	2.327788	0.124383	0	0
0	0	0	-0.093367	6.02132	-15.221561	6.02132	44976.125	-6.38932E-10	-1.565112E+9	2.2936	0.123721	0	0
0	0	0	-0.092999	6.021347	-15.221176	6.021347	44985	-3.459122E-10	-2.890907E+9	0	0	0	0
0	0	0	-0.093203	6.021347	-15.221427	6.021347	44980.125	-3.458747E-10	-2.891221E+9	0	0	0	0
0	0	0	-0.093734	6.02144	-15.222313	6.02144	44967.125	-1.327093E-10	-7.535267E+9	0	0	0	0
0	0	0	-0.092877	6.021353	-15.221042	6.021353	44988	-3.103452E-10	-3.222219E+9	0	0	0	0
0	0	0	-0.092346	6.021373	-15.22044	6.021373	45001	-2.372191E-10	-4.215512E+9	0	0	0	0
0	0	0	-0.091366	6.02134	-15.219153	6.02134	45024.75	-3.910647E-10	-2.557122E+9	0	0	0	0
0	0	0	-0.091407	6.021254	-15.218986	6.021254	45023.875	5.717729E-10	1.748946E+9	0	0	0	0
0	0	0	-0.090957	6.021261	-15.218451	6.021261	45034.75	7.05535E-10	1.417364E+9	0	0	0	0
0	0	0	-0.09108	6.0213	-15.218702	6.0213	45031.75	-1.755517E-9	-5.696329E+8	0	0	0	0
0	0	0	-0.090386	6.021267	-15.217765	6.021267	45048.625	9.209208E-10	1.08587E+9	0	0	0	0
0	0	0	-0.090263	6.02136	-15.217848	6.02136	45051.625	-2.81793E-10	-3.548704E+9	0	0	0	0
0	0	0	-0.089855	6.021433	-15.21753	6.021433	45061.625	-1.39111E-10	-7.188502E+9	0	0	0	0
0	0	0	-0.089691	6.021334	-15.217079	6.021334	45065.5	-4.496654E-10	-2.223876E+9	0	0	0	0
0	0	0	-0.08961	6.021227	-15.216712	6.021227	45067.625	3.256352E-10	3.070922E+9	0	0	0	0
0	0	0	-0.089242	6.021453	-15.216827	6.021453	45076.5	-1.22269E-10	-8.178689E+9	0	0	0	0
0	0	0	-0.089896	6.021433	-15.21758	6.021433	45060.625	-1.39108E-10	-7.188661E+9	0	0	0	0
0	0	0	-0.089283	6.02146	-15.216894	6.02146	45075.5	-1.175125E-10	-8.509731E+9	0	0	0	0
0	0	0	-0.08916	6.021493	-15.216827	6.021493	45078.5	-9.839269E-11	-1.016336E+10	0	0	0	0
0	0	0	-0.088834	6.021373	-15.216126	6.021373	45086.5	-2.376698E-10	-4.207518E+9	0	0	0	0
0	0	0	-0.087935	6.021334	-15.214922	6.021334	45108.375	-4.500932E-10	-2.221762E+9	0	0	0	0
0	0	0	-0.087405	0	-0.087405	0	45121.375	0	0	0	0	0	0
0	0	0	-0.08765	0	-0.08765	0	45115.375	0	0	0	0	0	0
