Vload_(V)	ILoad_(A)	RsLoad (ohm)	SunsVoc_Voltage_(V)	SunsVoc_Current_(A)	Model_Voltage_(V)	Model_Current_(A)	Carrier_Density_(cm-3)	Lifetime_(s)	Inverse_Lifetime_(s-1)	Efficiency_(%)	Intensity_(suns)	Dark_IV_Voltage_(V)	Dark_IV_Current_(A)
3.098256	6.02821	0	51.886992	-0.682959	52.27729	-0.682959	9.844632E+15	0.000653	1371.583518	19.189013	1.188744	0	0
3.092787	6.027975	1.829055	52.393693	-0.9113	52.900477	-0.9113	1.139641E+16	0.000731	1153.242405	19.11517	1.188208	0	0
3.16283	6.031582	-0.538707	52.503298	-0.746789	52.916113	-0.746789	1.176109E+16	0.000772	1065.334854	19.047376	1.18809	0	0
3.678793	6.028461	-0.62451	52.474917	-0.415134	52.704755	-0.415134	1.166562E+16	0.000805	1015.735816	19.04359	1.186979	0	0
5.604153	6.024676	4.007904	52.392304	-0.061683	52.42661	-0.061683	1.139186E+16	0.000832	986.304846	19.038475	1.185254	0	0
8.029945	6.017569	4.444288	52.285312	0.299013	52.118045	0.299013	1.104631E+16	0.000858	963.364258	18.985317	1.18341	0	0
10.622794	5.998804	4.666873	52.171746	0.648747	51.806603	0.648747	1.069035E+16	0.000884	941.488264	18.910073	1.181388	0	0
12.581005	5.987134	4.52796	52.056015	0.970622	51.506299	0.970622	1.033872E+16	0.000909	922.249858	18.867667	1.179742	0	0
14.6341	5.98333	4.234136	51.932403	1.282788	51.201081	1.282788	9.975155E+15	0.000935	904.241147	18.883445	1.177878	0	0
16.747769	5.983321	3.881001	51.816713	1.568417	50.91705	1.568417	9.645776E+15	0.000962	884.920276	18.875209	1.176927	0	0
18.928893	5.977855	3.579892	51.693876	1.845172	50.628588	1.845172	9.307205E+15	0.00099	866.536945	18.837019	1.175757	0	0
21.166171	5.978097	3.203929	51.563485	2.100976	50.342203	2.100976	8.959971E+15	0.001015	852.041675	18.792566	1.174924	0	0
23.344155	5.977913	2.841655	51.443384	2.330697	50.080077	2.330697	8.650858E+15	0.001041	836.59121	18.819301	1.173001	0	0
25.525104	5.973312	2.52207	51.325163	2.544255	49.827814	2.544255	8.356289E+15	0.001067	821.326882	18.877653	1.170383	0	0
27.649957	5.972609	2.173278	51.208942	2.743992	49.584371	2.743992	8.075802E+15	0.001094	805.930925	18.885118	1.167231	0	0
29.83485	5.972676	1.806798	51.087289	2.933016	49.339986	2.933016	7.791566E+15	0.00112	792.231443	18.836328	1.164296	0	0
32.017405	5.968315	1.48137	50.967189	3.10867	49.103917	3.10867	7.52005E+15	0.001146	778.866724	18.778002	1.162056	0	0
32.732763	5.968062	1.363758	50.851662	3.272122	48.878955	3.272122	7.267131E+15	0.001173	764.887761	18.791074	1.159101	0	0
33.454202	5.965526	1.264047	50.73585	3.42766	48.657331	3.42766	7.021464E+15	0.001201	750.747363	18.822215	1.156286	0	0
34.140627	5.967489	1.132582	50.619057	3.57004	48.441553	3.57004	6.781459E+15	0.001227	738.515456	18.814794	1.153312	0	0
34.844654	5.964392	1.040486	50.503326	3.705691	48.230075	3.705691	6.551072E+15	0.001255	725.722984	18.763142	1.150754	0	0
35.547919	5.95798	0.973265	50.386656	3.829205	48.024085	3.829205	6.326076E+15	0.00128	714.986911	18.741228	1.148276	0	0
36.262724	5.953245	0.887568	50.275581	3.941323	47.830556	3.941323	6.118439E+15	0.001304	704.601212	18.776549	1.145301	0	0
36.965839	5.940089	0.853146	50.157359	4.053791	47.628028	4.053791	5.904271E+15	0.00133	693.867289	18.824313	1.141752	0	0
37.673833	5.924033	0.822383	50.046406	4.156149	47.439222	4.156149	5.709485E+15	0.001357	682.967666	18.811391	1.138322	0	0
38.381006	5.902167	0.803497	49.928143	4.258349	47.241574	4.258349	5.508288E+15	0.001384	671.928274	18.759533	1.134872	0	0
39.072724	5.873917	0.791676	49.80939	4.348932	47.050008	4.348932	5.312723E+15	0.001407	663.700946	18.750136	1.131144	0	0
39.780036	5.840206	0.772957	49.700152	4.432963	46.872765	4.432963	5.138375E+15	0.001433	654.072802	18.785332	1.127556	0	0
40.485597	5.793403	0.766353	49.582461	4.514064	46.687233	4.514064	4.956305E+15	0.001456	645.976899	18.809823	1.123788	0	0
41.183249	5.735862	0.758944	49.476858	4.588112	46.519441	4.588112	4.797882E+15	0.001482	636.524642	18.772752	1.120775	0	0
41.885603	5.664064	0.749741	49.358554	4.660961	46.337455	4.660961	4.625796E+15	0.001505	628.915245	18.73014	1.117681	0	0
42.588017	5.582618	0.729921	49.250296	4.728014	46.170211	4.728014	4.473171E+15	0.00153	620.19389	18.741855	1.114529	0	0
43.281693	5.479773	0.713514	49.137587	4.789445	46.001109	4.789445	4.319046E+15	0.001551	613.786742	18.797671	1.110464	0	0
43.968583	5.35228	0.698922	49.027982	4.848969	45.836403	4.848969	4.173704E+15	0.001574	606.228417	18.815023	1.106558	0	0
44.636187	5.202736	0.68354	48.917111	4.903409	45.67321	4.903409	4.031106E+15	0.001594	600.279523	18.776099	1.10287	0	0
45.308664	5.022647	0.665407	48.812079	4.955056	45.518225	4.955056	3.900004E+15	0.001617	593.32191	18.743078	1.099143	0	0
45.971598	4.802777	0.651624	48.69839	5.005437	45.353785	5.005437	3.762342E+15	0.001636	587.603729	18.757416	1.095296	0	0
46.623013	4.54647	0.637667	48.596462	5.051262	45.20562	5.051262	3.642569E+15	0.001659	580.889053	18.805115	1.090974	0	0
47.264566	4.249677	0.625245	48.483099	5.098016	45.043344	5.098016	3.513297E+15	0.00168	574.693735	18.805658	1.087266	0	0
47.893636	3.906979	0.615133	48.378272	5.139655	44.894079	5.139655	3.397345E+15	0.001701	568.785274	18.771314	1.08328	0	0
48.504163	3.514942	0.610053	48.26932	5.178616	44.741602	5.178616	3.280381E+15	0.001718	564.346247	18.740266	1.079969	0	0
49.10062	3.096669	0.600904	48.163308	5.215557	44.593656	5.215557	3.169951E+15	0.001735	559.614311	18.76637	1.075924	0	0
49.661696	2.647281	0.60116	48.053866	5.252142	44.441739	5.252142	3.059345E+15	0.001754	554.710681	18.81201	1.071701	0	0
50.218417	2.167005	0.607542	47.948998	5.284789	44.297608	5.284789	2.95651E+15	0.001769	550.749035	18.807384	1.067379	0	0
50.744387	1.685801	0.619871	47.839392	5.31775	44.147551	5.31775	2.852233E+15	0.001786	546.442256	18.760773	1.063592	0	0
51.221379	1.207598	0.631272	47.732278	5.347649	44.002305	5.347649	2.753402E+15	0.0018	543.050546	18.735981	1.059884	0	0
51.648141	0.768425	0.62037	47.628267	5.376563	43.861165	5.376563	2.660263E+15	0.001816	538.907462	18.764675	1.055819	0	0
42.335159	5.610682	0.741429	47.515558	5.405306	43.709838	5.405306	2.562397E+15	0.00183	535.57113	18.80923	1.051378	0	0
52.297332	0	0	47.411588	5.431758	43.570115	5.431758	2.474864E+15	0.001846	531.604416	18.796357	1.047293	0	0
0	0	0	47.301207	5.456733	43.423802	5.456733	2.384737E+15	0.001856	529.263736	18.75171	1.043466	0	0
0	0	0	47.197727	5.480201	43.286446	5.480201	2.302797E+15	0.001869	526.160873	18.736319	1.03962	0	0
0	0	0	47.090122	5.502823	43.144736	5.502823	2.220139E+15	0.00188	523.792664	18.768455	1.035892	0	0
0	0	0	46.985458	5.524225	43.00719	5.524225	2.142165E+15	0.001891	521.262663	18.81016	1.031867	0	0
0	0	0	46.87716	5.545355	42.865459	5.545355	2.063933E+15	0.001901	518.841143	18.796918	1.027981	0	0
0	0	0	46.775191	5.563658	42.733042	5.563658	1.992491E+15	0.001908	517.529368	18.764696	1.024491	0	0
0	0	0	46.66677	5.582983	42.59222	5.582983	1.918824E+15	0.001917	515.489226	18.759659	1.0212	0	0
0	0	0	46.564311	5.600643	42.459467	5.600643	1.851325E+15	0.001926	513.484975	18.80649	1.017135	0	0
0	0	0	46.460055	5.617265	42.325266	5.617265	1.784699E+15	0.001932	512.332523	18.837297	1.01311	0	0
0	0	0	46.351634	5.63427	42.1858	5.63427	1.717553E+15	0.001939	510.702518	18.812599	1.009303	0	0
0	0	0	46.251176	5.648545	42.057576	5.648545	1.657238E+15	0.001942	510.442303	18.772621	1.005734	0	0
0	0	0	46.146144	5.662929	41.923825	5.662929	1.596078E+15	0.001944	510.247354	18.776504	1.002007	0	0
0	0	0	46.040459	5.676858	41.789556	5.676858	1.536449E+15	0.001945	510.144503	18.821189	0.99816	0	0
0	0	0	45.93996	5.689715	41.662087	5.689715	1.481479E+15	0.001947	509.985376	18.846584	0.994056	0	0
0	0	0	45.83113	5.703046	41.524408	5.703046	1.423808E+15	0.001948	510.019944	18.812433	0.990705	0	0
0	0	0	45.727365	5.715102	41.393551	5.715102	1.37057E+15	0.001947	510.434702	18.776458	0.987295	0	0
0	0	0	45.621516	5.727368	41.260014	5.727368	1.317977E+15	0.001949	510.241484	18.778824	0.983983	0	0
0	0	0	45.51673	5.738923	41.128187	5.738923	1.267572E+15	0.001949	510.369246	18.827053	0.980177	0	0
0	0	0	45.411494	5.749562	40.996464	5.749562	1.21857E+15	0.001945	511.575568	18.851391	0.976251	0	0
0	0	0	45.306584	5.759034	40.865955	5.759034	1.171294E+15	0.001936	514.331855	18.817457	0.97292	0	0
0	0	0	45.202084	5.769582	40.735034	5.769582	1.125723E+15	0.001936	514.356283	18.779338	0.969747	0	0
0	0	0	45.096276	5.778825	40.603525	5.778825	1.081088E+15	0.001928	516.62377	18.786443	0.966614	0	0
0	0	0	44.991122	5.788085	40.47271	5.788085	1.038192E+15	0.001923	518.149299	18.828025	0.963026	0	0
0	0	0	44.881476	5.797806	40.336194	5.797806	9.949745E+14	0.001921	518.91747	18.851667	0.959457	0	0
0	0	0	44.780854	5.804895	40.212298	5.804895	9.566372E+14	0.001906	523.243535	18.831052	0.956086	0	0
0	0	0	44.672311	5.813847	40.077569	5.813847	9.166631E+14	0.001902	524.298949	18.789982	0.952993	0	0
0	0	0	44.566748	5.821291	39.947484	5.821291	8.791265E+14	0.00189	527.821806	18.806128	0.949543	0	0
0	0	0	44.461961	5.829011	39.818045	5.829011	8.431373E+14	0.001883	529.926345	18.844386	0.945934	0	0
0	0	0	44.352968	5.83612	39.684095	5.83612	8.070119E+14	0.001869	533.997127	18.862204	0.942147	0	0
0	0	0	44.248917	5.843556	39.555652	5.843556	7.737357E+14	0.001864	535.491616	18.820168	0.939014	0	0
0	0	0	44.140945	5.849993	39.423353	5.849993	7.404231E+14	0.001848	540.171383	18.779761	0.93608	0	0
0	0	0	44.034076	5.857402	39.291522	5.857402	7.086384E+14	0.001846	541.013633	18.791809	0.933026	0	0
0	0	0	43.927125	5.862615	39.161332	5.862615	6.779802E+14	0.001821	548.301841	18.843376	0.929378	0	0
0	0	0	43.825319	5.868545	39.036584	5.868545	6.498373E+14	0.001811	551.628089	18.856526	0.925908	0	0
0	0	0	43.714162	5.87491	38.900426	5.87491	6.202361E+14	0.0018	554.980002	18.828293	0.922458	0	0
0	0	0	43.610518	5.8796	38.774457	5.8796	5.936663E+14	0.001777	562.142986	18.787004	0.919365	0	0
0	0	0	43.502832	5.885837	38.642416	5.885837	5.670837E+14	0.001772	563.84768	18.79096	0.916331	0	0
0	0	0	43.393309	5.890661	38.50934	5.890661	5.410872E+14	0.00175	570.97191	18.828688	0.912723	0	0
0	0	0	43.290727	5.894698	38.38507	5.894698	5.176621E+14	0.001725	579.338422	18.852314	0.909035	0	0
0	0	0	43.178549	5.900231	38.248212	5.900231	4.930383E+14	0.001714	583.111027	18.808073	0.905704	0	0
0	0	0	43.075192	5.90461	38.122685	5.90461	4.71242E+14	0.001696	589.245641	18.76834	0.902551	0	0
0	0	0	42.964851	5.908572	37.989247	5.908572	4.488881E+14	0.001669	598.799164	18.770625	0.899359	0	0
0	0	0	42.857369	5.913151	37.858631	5.913151	4.279946E+14	0.001655	604.026471	18.815717	0.895631	0	0
0	0	0	42.746253	5.91813	37.723361	5.91813	4.072804E+14	0.001646	607.313652	18.832741	0.892062	0	0
0	0	0	42.640609	5.920954	37.596347	5.920954	3.883955E+14	0.001611	620.536174	18.798865	0.888692	0	0
0	0	0	42.526225	5.923796	37.45899	5.923796	3.68809E+14	0.001571	636.202966	18.75728	0.885519	0	0
0	0	0	42.423685	5.92762	37.334743	5.92762	3.519868E+14	0.001557	642.220129	18.763936	0.882426	0	0
0	0	0	42.309587	5.932186	37.196195	5.932186	3.3406E+14	0.001548	645.98428	18.799321	0.878976	0	0
0	0	0	42.189569	5.935987	37.051292	5.935987	3.160715E+14	0.001525	655.748271	18.810153	0.875467	0	0
0	0	0	42.077962	5.93874	36.917199	5.93874	3.001147E+14	0.001492	670.018506	18.776406	0.872155	0	0
0	0	0	41.965539	5.941636	36.781998	5.941636	2.847649E+14	0.001463	683.292048	18.737172	0.869161	0	0
0	0	0	41.85626	5.945068	36.65002	5.945068	2.705161E+14	0.001447	690.784486	18.741278	0.866029	0	0
0	0	0	41.747022	5.948646	36.517939	5.948646	2.569105E+14	0.001436	696.080059	18.778216	0.862757	0	0
0	0	0	41.626718	5.952048	36.372926	5.952048	2.426373E+14	0.001417	705.527348	18.794561	0.859446	0	0
0	0	0	41.517153	5.954176	36.241696	5.954176	2.302618E+14	0.001384	722.691353	18.759834	0.856412	0	0
0	0	0	41.405751	5.956299	36.108286	5.956299	2.182645E+14	0.00135	740.554202	18.719464	0.853418	0	0
0	0	0	41.293859	5.958697	35.974038	5.958697	2.067863E+14	0.001323	755.605942	18.719415	0.850464	0	0
0	0	0	41.184458	5.96152	35.842335	5.96152	1.960961E+14	0.001308	764.452609	18.758768	0.847272	0	0
0	0	0	41.068482	5.964228	35.702953	5.964228	1.853152E+14	0.001288	776.089611	18.78575	0.843861	0	0
0	0	0	40.960551	5.966923	35.573063	5.966923	1.757718E+14	0.001276	783.762682	18.757128	0.840927	0	0
0	0	0	40.845473	5.968729	35.435521	5.968729	1.660948E+14	0.001242	804.993899	18.710556	0.838052	0	0
0	0	0	40.735541	5.970526	35.304052	5.970526	1.57311E+14	0.001213	824.266105	18.709544	0.834879	0	0
0	0	0	40.621076	5.972414	35.167135	5.972414	1.486227E+14	0.001185	843.908157	18.733542	0.831945	0	0
0	0	0	40.507142	5.974532	35.03062	5.974532	1.404182E+14	0.001164	859.313696	18.761265	0.828535	0	0
0	0	0	40.38843	5.976824	34.888286	5.976824	1.323193E+14	0.001145	872.970301	18.736515	0.825481	0	0
0	0	0	40.278049	5.978998	34.755887	5.978998	1.251818E+14	0.001132	883.718627	18.683417	0.822785	0	0
0	0	0	40.161093	5.981112	34.615761	5.981112	1.180135E+14	0.001115	897.137062	18.66795	0.81983	0	0
0	0	0	40.052712	5.982538	34.486392	5.982538	1.117164E+14	0.001088	919.000432	18.699088	0.816777	0	0
0	0	0	39.934776	5.984296	34.345414	5.984296	1.052243E+14	0.001066	938.149417	18.729306	0.813584	0	0
0	0	0	39.82219	5.985667	34.211106	5.985667	9.936036E+13	0.001039	962.506382	18.709949	0.81067	0	0
0	0	0	39.709848	5.986885	34.077223	5.986885	9.38186E+13	0.00101	990.164077	18.666605	0.807676	0	0
0	0	0	39.590932	5.988243	33.93543	5.988243	8.827283E+13	0.000982	1017.800966	18.633117	0.805098	0	0
0	0	0	39.480837	5.989467	33.804179	5.989467	8.341779E+13	0.000958	1044.065161	18.660632	0.801985	0	0
0	0	0	39.360532	5.990703	33.660843	5.990703	7.840418E+13	0.00093	1075.393016	18.694672	0.798694	0	0
0	0	0	39.247742	5.992169	33.526158	5.992169	7.39665E+13	0.000913	1095.358777	18.679685	0.795839	0	0
0	0	0	39.132787	5.993644	33.388896	5.993644	6.969194E+13	0.000897	1114.953912	18.630525	0.792904	0	0
0	0	0	39.014646	5.995174	33.247806	5.995174	6.554669E+13	0.000883	1132.988229	18.607257	0.790188	0	0
0	0	0	38.90157	5.996444	33.112942	5.996444	6.180213E+13	0.000865	1155.438111	18.619259	0.787333	0	0
0	0	0	38.781347	5.997836	32.969505	5.997836	5.804749E+13	0.00085	1176.297703	18.660491	0.784101	0	0
0	0	0	38.66533	5.99868	32.831561	5.99868	5.463383E+13	0.000823	1215.05495	18.658156	0.780968	0	0
0	0	0	38.547435	5.999607	32.69131	5.999607	5.136437E+13	0.000799	1251.812805	18.607976	0.778351	0	0
0	0	0	38.427661	6.000744	32.548626	6.000744	4.823748E+13	0.000781	1279.9711	18.572476	0.775614	0	0
0	0	0	38.31193	6.001568	32.411022	6.001568	4.539228E+13	0.000758	1319.417395	18.584323	0.772839	0	0
0	0	0	38.187664	6.002242	32.26347	6.002242	4.251915E+13	0.000728	1372.943316	18.614166	0.769706	0	0
0	0	0	38.068912	6.00283	32.122515	6.00283	3.993956E+13	0.0007	1428.511873	18.620751	0.766771	0	0
0	0	0	37.947219	6.003679	31.977821	6.003679	3.745477E+13	0.000679	1472.313361	18.586594	0.764095	0	0
0	0	0	37.82283	6.004397	31.830065	6.004397	3.507128E+13	0.000655	1526.394863	18.545904	0.761398	0	0
0	0	0	37.705099	6.005236	31.690051	6.005236	3.295246E+13	0.000638	1567.244876	18.546178	0.758642	0	0
0	0	0	37.580139	6.005922	31.54164	6.005922	3.084082E+13	0.000616	1624.550217	18.57964	0.755648	0	0
0	0	0	37.45575	6.006838	31.393669	6.006838	2.88709E+13	0.000601	1664.103148	18.593983	0.752614	0	0
0	0	0	37.333118	6.007755	31.247765	6.007755	2.704998E+13	0.000588	1699.924087	18.558119	0.749878	0	0
0	0	0	37.205545	6.00868	31.096004	6.00868	2.52756E+13	0.000576	1736.989319	18.502453	0.74736	0	0
0	0	0	37.080299	6.009691	30.9469	6.009691	2.364522E+13	0.000568	1760.636771	18.49097	0.744763	0	0
0	0	0	36.950234	6.01065	30.792145	6.01065	2.206184E+13	0.000559	1789.278605	18.521236	0.741947	0	0
0	0	0	36.826458	6.011191	30.645247	6.011191	2.065234E+13	0.00054	1852.513289	18.549244	0.738913	0	0
0	0	0	36.694924	6.011652	30.489254	6.011652	1.925187E+13	0.000517	1933.400418	18.526668	0.736237	0	0
0	0	0	36.566084	6.012568	30.335973	6.012568	1.797119E+13	0.000511	1956.617787	18.485574	0.733639	0	0
0	0	0	36.432957	6.01315	30.177962	6.01315	1.673639E+13	0.000494	2022.836299	18.44695	0.731379	0	0
0	0	0	36.299217	6.013557	30.019405	6.013557	1.558051E+13	0.000473	2114.159812	18.470679	0.728544	0	0
0	0	0	36.165927	6.014139	29.861193	6.014139	1.450722E+13	0.000459	2180.426838	18.505055	0.72555	0	0
0	0	0	36.026674	6.014656	29.695993	6.014656	1.346415E+13	0.000442	2262.969476	18.482855	0.722853	0	0
0	0	0	35.891056	6.014893	29.535384	6.014893	1.251988E+13	0.000418	2391.126897	18.432116	0.720414	0	0
0	0	0	35.748373	6.015421	29.36611	6.015421	1.15973E+13	0.000403	2479.021788	18.402779	0.717916	0	0
0	0	0	35.606506	6.015946	29.197801	6.015946	1.074695E+13	0.00039	2565.454791	18.407674	0.715279	0	0
0	0	0	35.461087	6.01619	29.025585	6.01619	9.93958E+12	0.000368	2718.447283	18.439882	0.712384	0	0
0	0	0	35.316566	6.016329	28.854544	6.016329	9.196952E+12	0.000344	2904.151621	18.436213	0.709687	0	0
0	0	0	35.168166	6.016817	28.678536	6.016817	8.491781E+12	0.000332	3015.979694	18.394849	0.70705	0	0
0	0	0	35.022012	6.016986	28.505527	6.016986	7.849889E+12	0.000311	3214.322363	18.347111	0.704651	0	0
0	0	0	34.868181	6.017401	28.323169	6.017401	7.226381E+12	0.000297	3362.502159	18.341523	0.702331	0	0
0	0	0	34.714962	6.01771	28.141648	6.01771	6.654383E+12	0.000282	3547.262112	18.380044	0.699238	0	0
0	0	0	34.558517	6.018007	27.956322	6.018007	6.116851E+12	0.000267	3749.585139	18.398635	0.696324	0	0
0	0	0	34.404971	6.018237	27.774496	6.018237	5.631373E+12	0.000251	3981.037213	18.363376	0.693984	0	0
0	0	0	34.243953	6.018427	27.583875	6.018427	5.163467E+12	0.000235	4259.280936	18.316187	0.691367	0	0
0	0	0	34.082485	6.01893	27.392372	6.01893	4.733177E+12	0.000227	4407.490466	18.286899	0.689166	0	0
0	0	0	33.916607	6.019107	27.196014	6.019107	4.328342E+12	0.000212	4727.947987	18.312467	0.68639	0	0
0	0	0	33.7464	6.019542	26.994244	6.019542	3.948818E+12	0.000203	4934.40429	18.330753	0.683812	0	0
0	0	0	33.578684	6.019857	26.795553	6.019857	3.60734E+12	0.000192	5205.701108	18.312541	0.681215	0	0
0	0	0	33.403536	6.020071	26.588182	6.020071	3.282144E+12	0.000179	5574.848715	18.26094	0.678935	0	0
0	0	0	33.225692	6.020478	26.377403	6.020478	2.981868E+12	0.000172	5829.552653	18.233926	0.676536	0	0
0	0	0	33.048462	6.020937	26.167283	6.020937	2.709913E+12	0.000166	6033.736954	18.23916	0.674156	0	0
0	0	0	32.858857	6.021074	25.942896	6.021074	2.44633E+12	0.000152	6557.939375	18.263003	0.671499	0	0
0	0	0	32.665251	6.021368	25.713592	6.021368	2.203582E+12	0.000143	6980.071824	18.249399	0.668981	0	0
0	0	0	32.474177	6.021645	25.4873	6.021645	1.987607E+12	0.000135	7425.808218	18.20772	0.666642	0	0
0	0	0	32.279264	6.021927	25.256458	6.021927	1.789064E+12	0.000127	7894.832916	18.163274	0.664242	0	0
0	0	0	32.081206	6.022055	25.022075	6.022055	1.6076E+12	0.000116	8607.590372	18.150515	0.662002	0	0
0	0	0	31.882128	6.022664	24.785916	6.022664	1.44373E+12	0.000116	8636.162253	18.173736	0.659484	0	0
0	0	0	31.677986	6.022661	24.544486	6.022661	1.293008E+12	0.000104	9647.692484	18.190685	0.656767	0	0
0	0	0	31.474742	6.023049	24.303653	6.023049	1.158571E+12	9.9853E-5	10014.721322	18.165093	0.654329	0	0
0	0	0	31.26476	6.02327	24.055046	6.02327	1.034332E+12	9.314166E-5	10736.333832	18.110582	0.652167	0	0
0	0	0	31.047019	6.023405	23.797363	6.023405	9.195441E+11	8.512384E-5	11747.589925	18.089752	0.649808	0	0
0	0	0	30.828095	6.023677	23.538112	6.023677	8.169659E+11	8.016615E-5	12474.093156	18.093249	0.647627	0	0
0	0	0	30.609088	6.023994	23.278706	6.023994	7.257933E+11	7.65747E-5	13059.143222	18.127824	0.64493	0	0
0	0	0	30.38269	6.024165	23.010733	6.024165	6.422211E+11	7.061713E-5	14160.870405	18.117667	0.642472	0	0
0	0	0	30.153842	6.024201	22.740024	6.024201	5.675165E+11	6.297372E-5	15879.640295	18.073217	0.640271	0	0
0	0	0	29.919521	6.024536	22.462474	6.024536	5.000181E+11	6.053811E-5	16518.520499	18.035652	0.638248	0	0
0	0	0	29.68124	6.024803	22.180319	6.024803	4.396034E+11	5.740005E-5	17421.588251	18.041767	0.635988	0	0
0	0	0	29.441406	6.02493	21.896499	6.02493	3.861625E+11	5.237362E-5	19093.583282	18.066481	0.63349	0	0
0	0	0	29.193855	6.02517	21.603408	6.02517	3.378047E+11	4.942693E-5	20231.88447	18.078275	0.63113	0	0
0	0	0	28.942016	6.02513	21.305595	6.02513	2.948175E+11	4.257823E-5	23486.181105	18.044082	0.62887	0	0
0	0	0	28.684459	6.02574	21.000192	6.02574	2.565058E+11	4.619779E-5	21646.058436	18.001607	0.626709	0	0
0	0	0	28.420982	6.025706	20.688604	6.025706	2.224589E+11	3.951569E-5	25306.402644	17.98045	0.624706	0	0
0	0	0	28.157912	6.025764	20.377379	6.025764	1.929733E+11	3.508904E-5	28498.925641	17.982619	0.622604	0	0
0	0	0	27.886798	6.025801	20.056665	6.025801	1.66669E+11	3.077863E-5	32490.074612	18.000929	0.620126	0	0
0	0	0	27.610376	6.026051	19.729394	6.026051	1.435375E+11	2.957067E-5	33817.28919	17.983714	0.617905	0	0
0	0	0	27.331992	6.026107	19.400055	6.026107	1.234852E+11	2.612263E-5	38280.984107	17.943782	0.615625	0	0
0	0	0	27.048791	6.02627	19.064875	6.02627	1.059576E+11	2.429044E-5	41168.466388	17.901783	0.613682	0	0
0	0	0	26.758198	6.026319	18.7211	6.026319	9.055527E+10	2.129998E-5	46948.408818	17.900039	0.611521	0	0
0	0	0	26.463357	6.026614	18.371972	6.026614	7.721429E+10	2.151314E-5	46483.222149	17.918938	0.60924	0	0
0	0	0	26.160146	6.026576	18.013386	6.026576	6.55414E+10	1.784071E-5	56051.576297	17.921579	0.606782	0	0
0	0	0	25.853667	6.026744	17.650657	6.026744	5.553495E+10	1.684836E-5	59352.960774	17.879961	0.604799	0	0
0	0	0	25.542615	6.026859	17.282587	6.026859	4.693997E+10	1.54475E-5	64735.413198	17.830064	0.602836	0	0
0	0	0	25.224416	6.026754	16.906366	6.026754	3.952221E+10	1.207068E-5	82845.396828	17.808348	0.600794	0	0
0	0	0	24.907157	6.026934	16.530861	6.026934	3.329352E+10	1.16068E-5	86156.398096	17.815879	0.598712	0	0
0	0	0	24.582424	6.026968	16.146718	6.026968	2.793339E+10	1.000661E-5	99933.900421	17.832484	0.596333	0	0
0	0	0	24.247727	6.027056	15.750714	6.027056	2.33103E+10	8.981678E-6	111337.765763	17.825169	0.594092	0	0
0	0	0	23.911438	6.027176	15.352778	6.027176	1.943561E+10	8.360202E-6	119614.33489	17.771425	0.592109	0	0
0	0	0	23.567431	6.02715	14.945919	6.02715	1.61375E+10	6.772475E-6	147656.509572	17.726212	0.590246	0	0
0	0	0	23.202637	6.027211	14.514351	6.027211	1.324934E+10	5.896652E-6	169587.75862	17.720923	0.588302	0	0
0	0	0	22.844051	6.027205	14.090219	6.027205	1.091464E+10	4.828099E-6	207120.862986	17.746136	0.585903	0	0
0	0	0	22.481382	6.027471	13.66086	6.027471	8.971518E+9	5.396245E-6	185314.059003	17.752825	0.583683	0	0
0	0	0	22.11667	6.027365	13.229628	6.027365	7.366189E+9	3.875837E-6	258008.784773	17.722436	0.581601	0	0
0	0	0	21.745956	6.027392	12.7911	6.027392	6.028515E+9	3.276169E-6	305234.52895	17.67088	0.579558	0	0
0	0	0	21.369116	6.027472	12.345248	6.027472	4.917447E+9	2.961643E-6	337650.395652	17.634855	0.577655	0	0
0	0	0	20.989172	6.027552	11.895722	6.027552	4.004427E+9	2.704321E-6	369778.584576	17.63171	0.575633	0	0
0	0	0	20.603429	6.027532	11.439487	6.027532	3.250721E+9	2.131458E-6	469162.481326	17.654892	0.573293	0	0
0	0	0	20.215931	6.027665	10.980942	6.027665	2.636372E+9	2.149992E-6	465118.103625	17.643832	0.57131	0	0
0	0	0	19.821041	6.027625	10.513917	6.027625	2.129601E+9	1.618861E-6	617718.430552	17.597156	0.569189	0	0
0	0	0	19.420108	6.027645	10.039652	6.027645	1.714632E+9	1.34961E-6	740954.648615	17.542431	0.567325	0	0
0	0	0	19.013702	6.027904	9.558538	6.027904	1.376445E+9	2.000358E-6	499910.39368	17.540573	0.565302	0	0
0	0	0	18.607337	6.027579	9.07839	6.027579	1.104985E+9	7.785034E-7	1284515.836686	17.547537	0.56326	0	0
0	0	0	18.195623	6.027718	8.591183	6.027718	8.845006E+8	7.998989E-7	1250158.044126	17.565367	0.56094	0	0
0	0	0	17.786154	6.027805	8.106713	6.027805	7.088707E+8	7.77608E-7	1285994.958675	17.525177	0.558997	0	0
0	0	0	17.370233	6.027958	7.614502	6.027958	5.661365E+8	9.963874E-7	1003625.658306	17.469113	0.556995	0	0
0	0	0	16.952475	6.027752	7.120699	6.027752	4.516935E+8	4.381706E-7	2282216.278013	17.4221	0.555329	0	0
0	0	0	16.532226	6.027692	6.623714	6.027692	3.598999E+8	3.088871E-7	3237428.437931	17.410731	0.553584	0	0
0	0	0	16.113202	6.027918	6.127707	6.027918	2.869506E+8	4.363746E-7	2291608.991987	17.445341	0.551264	0	0
0	0	0	15.691033	6.027758	5.628618	6.027758	2.283991E+8	2.248474E-7	4447460.871312	17.441252	0.549222	0	0
0	0	0	15.268456	6.027785	5.128737	6.027785	1.817548E+8	1.901085E-7	5260155.167027	17.404877	0.547338	0	0
0	0	0	14.843715	6.027772	4.626362	6.027772	1.444671E+8	1.465349E-7	6824314.803551	17.354871	0.545514	0	0
0	0	0	14.414563	6.027971	4.118409	6.027971	1.145557E+8	2.129081E-7	4696862.11021	17.322665	0.54375	0	0
0	0	0	13.980878	6.028071	3.60526	6.028071	9.061508E+7	2.884653E-7	3466621.304312	17.332359	0.541906	0	0
0	0	0	13.544376	6.028017	3.08904	6.028017	7.156861E+7	1.65082E-7	6057593.799429	17.35373	0.539764	0	0
0	0	0	13.11012	6.028084	2.57527	6.028084	5.659421E+7	1.990992E-7	5022622.007806	17.334275	0.537762	0	0
0	0	0	12.67815	6.028011	2.064448	6.028011	4.480828E+7	9.991962E-8	1.000804E+7	17.289315	0.535997	0	0
0	0	0	12.24565	6.028124	1.552671	6.028124	3.546663E+7	1.821847E-7	5488936.074887	17.244424	0.534332	0	0
0	0	0	11.813517	6.028097	1.041574	6.028097	2.807811E+7	1.103794E-7	9059662.431197	17.236057	0.532666	0	0
0	0	0	11.385836	6.028084	0.53572	6.028084	2.228234E+7	7.839576E-8	1.275579E+7	17.252096	0.530644	0	0
0	0	0	10.955622	6.028037	0.026931	6.028037	1.765873E+7	4.542828E-8	2.201272E+7	17.271625	0.528443	0	0
0	0	0	10.528512	6.02829	-0.478731	6.02829	1.401802E+7	-7.85231E-8	-1.273511E+7	17.24044	0.526559	0	0
0	0	0	10.103444	6.028144	-0.981253	6.028144	1.11402E+7	7.432923E-8	1.345366E+7	17.16643	0.524933	0	0
0	0	0	9.677437	6.028097	-1.485065	6.028097	8848693.875	3.47873E-8	2.874613E+7	17.136062	0.523248	0	0
0	0	0	9.258821	6.028197	-1.980406	6.028197	7056681.125	2.317017E-7	4315893.230948	17.119429	0.521543	0	0
0	0	0	8.843595	6.027891	-2.47098	6.027891	5637902.375	7.861998E-9	1.271941E+8	17.133572	0.519481	0	0
0	0	0	8.435637	6.028144	-2.954003	6.028144	4522110.125	3.017311E-8	3.314209E+7	17.140428	0.517498	0	0
0	0	0	8.031151	6.028283	-3.432711	6.028283	3633955.75	-2.221238E-8	-4.501993E+7	17.107475	0.515773	0	0
0	0	0	7.631565	6.02823	-3.905257	6.02823	2927983.375	-6.626951E-8	-1.50899E+7	17.067331	0.51385	0	0
0	0	0	7.237451	6.028084	-4.371151	6.028084	2366149.875	8.325182E-9	1.201175E+8	17.013936	0.512541	0	0
0	0	0	6.851341	6.027858	-4.827419	6.027858	1920414.625	2.425556E-9	4.122766E+8	17.005839	0.510737	0	0
0	0	0	6.474582	6.028084	-5.273501	6.028084	1566546.375	5.511826E-9	1.814281E+8	17.024909	0.508694	0	0
0	0	0	6.110116	6.028256	-5.704945	6.028256	1286403.5	-1.238201E-8	-8.076231E+7	17.008173	0.50693	0	0
0	0	0	5.74863	6.028164	-6.132343	6.028164	1058061.875	1.006831E-8	9.932153E+7	16.974467	0.505205	0	0
0	0	0	5.395966	6.028037	-6.549239	6.028037	874411.375	2.249545E-9	4.445343E+8	16.931361	0.503559	0	0
0	0	0	5.051713	6.028197	-6.956751	6.028197	725931.125	2.38386E-8	4.194878E+7	16.888539	0.502012	0	0
0	0	0	4.70497	6.02817	-7.366841	6.02817	601852.75	6.675325E-9	1.498054E+8	16.885757	0.500406	0	0
0	0	0	4.379135	6.028097	-7.752105	6.028097	504654	1.984011E-9	5.040293E+8	16.904756	0.498384	0	0
0	0	0	4.063631	6.028396	-8.125899	6.028396	425522.75	-1.019545E-9	-9.8083E+8	16.902601	0.49656	0	0
0	0	0	3.759848	6.028137	-8.484703	6.028137	361080	2.191061E-9	4.564E+8	16.85521	0.494914	0	0
0	0	0	3.469009	6.02817	-8.828786	6.02817	308548.375	3.422206E-9	2.922092E+8	16.790133	0.493467	0	0
0	0	0	3.191157	6.028104	-9.157305	6.028104	265516.625	1.108939E-9	9.017629E+8	16.754782	0.491999	0	0
0	0	0	2.923841	6.028177	-9.473647	6.028177	229791.375	3.054381E-9	3.273986E+8	16.772498	0.490076	0	0
0	0	0	2.665958	6.02815	-9.778627	6.02815	199889.625	1.481297E-9	6.750842E+8	16.784296	0.488371	0	0
0	0	0	2.424001	6.028356	-10.06525	6.028356	175382.375	-5.350251E-10	-1.869071E+9	16.770641	0.486527	0	0
0	0	0	2.192989	6.02823	-10.33824	6.02823	154792.875	-3.503323E-9	-2.854433E+8	16.720936	0.48506	0	0
0	0	0	1.977249	6.028356	-10.59369	6.028356	137753.25	-4.202329E-10	-2.379633E+9	16.661159	0.483692	0	0
0	0	0	1.777599	6.028183	-10.829484	6.028183	123660.125	2.050541E-9	4.876761E+8	16.636499	0.482026	0	0
0	0	0	1.595958	6.028256	-11.04449	6.028256	112094.875	-1.078939E-9	-9.268361E+8	16.637706	0.48048	0	0
0	0	0	1.429834	6.028104	-11.240667	6.028104	102467.25	4.27958E-10	2.336678E+9	16.655254	0.478616	0	0
0	0	0	1.281271	6.028203	-11.416604	6.028203	94559.75	6.091061E-9	1.64175E+8	16.640237	0.476732	0	0
0	0	0	1.147245	6.02823	-11.575191	6.02823	87951.125	-1.990537E-9	-5.02377E+8	16.590605	0.475225	0	0
0	0	0	1.031269	6.02827	-11.712456	6.02827	82606.375	-6.176267E-10	-1.619101E+9	16.531596	0.473857	0	0
0	0	0	0.923134	6.028064	-11.839928	6.028064	77916	2.368293E-10	4.22245E+9	16.506616	0.47243	0	0
0	0	0	0.829822	6.02813	-11.950441	6.02813	74083.125	4.12205E-10	2.425978E+9	16.509555	0.470586	0	0
0	0	0	0.744188	6.028223	-12.05193	6.028223	70731.875	-2.417573E-9	-4.136379E+8	16.51585	0.4689	0	0
0	0	0	0.67301	6.028164	-12.135996	6.028164	68062	6.47668E-10	1.544001E+9	16.482857	0.467314	0	0
0	0	0	0.608121	6.028084	-12.21258	6.028084	65715.875	2.312191E-10	4.324901E+9	16.433854	0.465728	0	0
0	0	0	0.551276	6.028104	-12.27986	6.028104	63727.25	2.661591E-10	3.757152E+9	16.389113	0.464439	0	0
0	0	0	0.498556	6.02811	-12.342234	6.02811	61936.75	2.758805E-10	3.624758E+9	16.364076	0.463071	0	0
0	0	0	0.448531	6.02815	-12.40149	6.02815	60284.25	4.467411E-10	2.238433E+9	16.37145	0.461227	0	0
0	0	0	0.418843	6.02821	-12.436734	6.02821	59324.5	9.935566E-8	1.006485E+7	16.382421	0.459522	0	0
0	0	0	0.374903	6.028343	-12.488992	6.028343	57931.875	-1.944364E-10	-5.143071E+9	16.364146	0.457936	0	0
0	0	0	0.352688	6.02823	-12.515028	6.02823	57240.375	-1.295482E-9	-7.719138E+8	16.318708	0.456548	0	0
0	0	0	0.329819	6.028183	-12.541978	6.028183	56537.125	9.375032E-10	1.066663E+9	16.266731	0.45516	0	0
0	0	0	0.294291	6.02823	-12.584102	6.02823	55461.625	-1.255224E-9	-7.966704E+8	16.237484	0.453573	0	0
0	0	0	0.280652	6.028203	-12.600178	6.028203	55054.25	3.54632E-9	2.819825E+8	16.238499	0.452106	0	0
0	0	0	0.267584	6.028383	-12.616018	6.028383	54666.75	-1.410714E-10	-7.088609E+9	16.228243	0.450441	0	0
0	0	0	0.241898	6.028004	-12.645592	6.028004	53912.875	1.163567E-10	8.594266E+9	16.213319	0.448735	0	0
0	0	0	0.2205	6.028164	-12.671244	6.028164	53292.75	5.07126E-10	1.971896E+9	16.162486	0.447407	0	0
0	0	0	0.208902	6.028077	-12.684777	6.028077	52959.75	1.770389E-10	5.648477E+9	16.114018	0.44592	0	0
0	0	0	0.202981	6.028144	-12.691923	6.028144	52790.5	3.522431E-10	2.838948E+9	16.084308	0.444631	0	0
0	0	0	0.189995	6.028117	-12.707227	6.028117	52421.25	2.501271E-10	3.997968E+9	16.078484	0.443025	0	0
0	0	0	0.172394	6.027984	-12.727761	6.027984	51924.75	1.021893E-10	9.785763E+9	16.084369	0.44136	0	0
0	0	0	0.156141	6.02813	-12.747298	6.02813	51470.625	2.863871E-10	3.491778E+9	16.080307	0.439635	0	0
0	0	0	0.143278	6.028124	-12.7625	6.028124	51113.875	2.625921E-10	3.808188E+9	16.027067	0.438326	0	0
0	0	0	0.135805	6.02821	-12.771524	6.02821	50907.875	8.525995E-8	1.172884E+7	15.975442	0.436859	0	0
0	0	0	0.132619	6.028144	-12.775149	6.028144	50820.25	3.390967E-10	2.949012E+9	15.941452	0.435629	0	0
0	0	0	0.127556	6.02819	-12.781239	6.02819	50681.375	1.116851E-9	8.953746E+8	15.930964	0.434202	0	0
0	0	0	0.120328	6.02813	-12.78966	6.02813	50483.75	2.80896E-10	3.560036E+9	15.934133	0.432417	0	0
0	0	0	0.109547	6.02821	-12.802583	6.02821	50190.375	8.405825E-8	1.189651E+7	15.926334	0.431029	0	0
0	0	0	0.097418	6.028137	-12.816773	6.028137	49862.375	3.025689E-10	3.305032E+9	15.882046	0.429602	0	0
0	0	0	0.084146	6.028296	-12.832813	6.028296	49505.875	-2.559011E-10	-3.907759E+9	15.812842	0.428392	0	0
0	0	0	0.075121	6.02809	-12.843046	6.02809	49265	1.829458E-10	5.4661E+9	15.770961	0.427103	0	0
0	0	0	0.068873	6.028197	-12.850665	6.028197	49098.875	1.612359E-9	6.202092E+8	15.755523	0.425696	0	0
0	0	0	0.063279	6.028183	-12.857254	6.028183	48950.5	8.117012E-10	1.23198E+9	15.766963	0.424209	0	0
0	0	0	0.060869	6.02817	-12.860075	6.02817	48886.875	5.422203E-10	1.844269E+9	15.768528	0.422603	0	0
0	0	0	0.05944	6.028124	-12.861666	6.028124	48849.125	2.509572E-10	3.984743E+9	15.741365	0.421155	0	0
0	0	0	0.057521	6.028256	-12.864221	6.028256	48798.5	-4.696969E-10	-2.129033E+9	15.678215	0.419847	0	0
0	0	0	0.054336	6.02827	-12.868017	6.02827	48714.5	-3.642258E-10	-2.74555E+9	15.635274	0.418677	0	0
0	0	0	0.04968	6.02817	-12.87331	6.02817	48592	5.389497E-10	1.855461E+9	15.619341	0.417309	0	0
0	0	0	0.044943	6.028084	-12.878728	6.028084	48467.75	1.705322E-10	5.863996E+9	15.61427	0.415802	0	0
0	0	0	0.038491	6.02821	-12.886631	6.02821	48299	8.089062E-8	1.236237E+7	15.611043	0.414275	0	0
0	0	0	0.029711	6.028183	-12.896959	6.028183	48070.375	7.971069E-10	1.254537E+9	15.590032	0.412847	0	0
0	0	0	0.02138	6.02829	-12.907041	6.02829	47854.375	-2.68047E-10	-3.730689E+9	15.530246	0.411519	0	0
0	0	0	0.013377	6.02811	-12.916123	6.02811	47647.75	2.12234E-10	4.71178E+9	15.486235	0.410409	0	0
0	0	0	0.007374	6.027971	-12.922925	6.027971	47493.375	8.828129E-11	1.132743E+10	15.449681	0.40912	0	0
0	0	0	0.00231	6.028197	-12.929399	6.028197	47363.5	1.555371E-9	6.429333E+8	15.438601	0.407811	0	0
0	0	0	-0.000181	6.028137	-12.932217	6.028137	47299.75	2.870187E-10	3.484093E+9	15.458234	0.406126	0	0
0	0	0	-0.004673	6.02815	-12.937559	6.02815	47185	3.496681E-10	2.859855E+9	15.439286	0.404678	0	0
0	0	0	-0.004837	6.028369	-12.938222	6.028369	47180.875	-1.319167E-10	-7.580544E+9	15.389131	0.40331	0	0
0	0	0	-0.006633	6.028217	-12.94002	6.028217	47135.125	-3.289227E-9	-3.040228E+8	15.320255	0.40224	0	0
0	0	0	-0.007899	6.028197	-12.941475	6.028197	47102.875	1.546813E-9	6.464907E+8	15.275039	0.40099	0	0
0	0	0	-0.009288	6.028157	-12.943031	6.028157	47067.5	3.921801E-10	2.549849E+9	15.2619	0.399682	0	0
0	0	0	-0.009492	6.028303	-12.943586	6.028303	47062.375	-2.258442E-10	-4.427832E+9	15.265556	0.398234	0	0
0	0	0	-0.010513	6.028197	-12.944566	6.028197	47036.375	1.544629E-9	6.474048E+8	15.269452	0.396668	0	0
0	0	0	-0.01088	6.028124	-12.944844	6.028124	47027	2.415962E-10	4.139138E+9	15.230403	0.395379	0	0
0	0	0	-0.011615	6.028409	-12.946326	6.028409	47008.375	-1.051124E-10	-9.513627E+9	15.171164	0.39413	0	0
0	0	0	-0.012269	6.028097	-12.946429	6.028097	46991.75	1.847449E-10	5.412869E+9	15.110378	0.39302	0	0
0	0	0	-0.012065	6.028183	-12.946373	6.028183	46996.875	7.793061E-10	1.283193E+9	15.07925	0.39183	0	0
0	0	0	-0.012555	6.028217	-12.947024	6.028217	46984.5	-3.278716E-9	-3.049974E+8	15.080825	0.390224	0	0
0	0	0	-0.013535	6.02831	-12.948383	6.02831	46959.625	-2.102875E-10	-4.755394E+9	15.084714	0.388915	0	0
0	0	0	-0.014147	6.028237	-12.948951	6.028237	46944	-7.941551E-10	-1.2592E+9	15.061813	0.387587	0	0
0	0	0	-0.013821	6.028343	-12.948792	6.028343	46952.375	-1.575859E-10	-6.345744E+9	15.031978	0.3861	0	0
0	0	0	-0.01427	6.02817	-12.948953	6.02817	46941	5.20638E-10	1.92072E+9	14.968995	0.385188	0	0
0	0	0	-0.014474	6.02821	-12.94928	6.02821	46935.75	7.860754E-8	1.272143E+7	14.932497	0.383879	0	0
0	0	0	-0.013943	6.028177	-12.948581	6.028177	46949.25	6.240488E-10	1.602439E+9	14.906099	0.38261	0	0
0	0	0	-0.015781	6.028409	-12.951253	6.028409	46902.625	-1.048759E-10	-9.535077E+9	14.90344	0.381222	0	0
0	0	0	-0.015658	6.028316	-12.950909	6.028316	46905.75	-1.968855E-10	-5.079095E+9	14.895641	0.379854	0	0
0	0	0	-0.016434	6.028343	-12.951883	6.028343	46886	-1.573632E-10	-6.354727E+9	14.869207	0.378565	0	0
0	0	0	-0.015862	6.02817	-12.950837	6.02817	46900.5	5.201888E-10	1.922379E+9	14.832028	0.377316	0	0
0	0	0	-0.016312	6.028389	-12.951838	6.028389	46889.125	-1.165125E-10	-8.582767E+9	14.772748	0.376246	0	0
0	0	0	-0.017373	6.028283	-12.952866	6.028283	46862.25	-2.864396E-10	-3.491138E+9	14.731464	0.375175	0	0
0	0	0	-0.018884	6.02831	-12.95471	6.02831	46824	-2.096802E-10	-4.769168E+9	14.731924	0.373946	0	0
0	0	0	-0.019334	6.028343	-12.955313	6.028343	46812.625	-1.571169E-10	-6.364688E+9	14.72501	0.372597	0	0
0	0	0	-0.02207	6.028217	-12.958279	6.028217	46743.375	-3.26189E-9	-3.065708E+8	14.715461	0.371388	0	0
0	0	0	-0.023213	6.028223	-12.959645	6.028223	46714.5	-1.596673E-9	-6.263022E+8	14.678352	0.369802	0	0
0	0	0	-0.025255	6.02815	-12.961904	6.02815	46663	3.457997E-10	2.891847E+9	14.617979	0.36887	0	0
0	0	0	-0.0255	6.028303	-12.962521	6.028303	46656.875	-2.238982E-10	-4.466315E+9	14.561786	0.367839	0	0
0	0	0	-0.027991	6.028117	-12.965069	6.028117	46594	2.223225E-10	4.497971E+9	14.533822	0.366629	0	0
0	0	0	-0.030114	6.02821	-12.96778	6.02821	46540.625	7.794577E-8	1.282943E+7	14.525849	0.36538	0	0
0	0	0	-0.033422	6.02825	-12.971778	6.02825	46457.5	-5.221918E-10	-1.915005E+9	14.524698	0.363972	0	0
0	0	0	-0.034198	6.028217	-12.972625	6.028217	46438	-3.24058E-9	-3.085868E+8	14.495923	0.362763	0	0
0	0	0	-0.037873	6.028263	-12.977072	6.028263	46345.75	-3.900473E-10	-2.563792E+9	14.470598	0.361494	0	0
0	0	0	-0.040242	6.02817	-12.979674	6.02817	46286.5	5.133787E-10	1.94788E+9	14.40933	0.360443	0	0
0	0	0	-0.04114	6.028363	-12.98115	6.028363	46264	-1.349869E-10	-7.408124E+9	14.362311	0.359451	0	0
0	0	0	-0.044121	6.02821	-12.984348	6.02821	46189.5	7.73577E-8	1.292696E+7	14.329723	0.35842	0	0
0	0	0	-0.046	6.028097	-12.986328	6.028097	46142.625	1.814066E-10	5.512478E+9	14.329033	0.357112	0	0
0	0	0	-0.048532	6.028203	-12.989551	6.028203	46079.5	2.968212E-9	3.369032E+8	14.314852	0.355843	0	0
0	0	0	-0.05237	6.028256	-12.994205	6.028256	45984	-4.426067E-10	-2.259342E+9	14.289061	0.354614	0	0
0	0	0	-0.055801	6.02815	-12.998035	6.02815	45898.875	3.401371E-10	2.939991E+9	14.24252	0.353483	0	0
0	0	0	-0.060089	6.028276	-13.003377	6.028276	45792.5	-3.080034E-10	-3.246718E+9	14.195466	0.352432	0	0
0	0	0	-0.062947	6.02815	-13.006488	6.02815	45721.875	3.388255E-10	2.951372E+9	14.134402	0.351481	0	0
0	0	0	-0.064866	6.02809	-13.00863	6.02809	45674.375	1.69612E-10	5.89581E+9	14.118603	0.350251	0	0
0	0	0	-0.064744	6.028164	-13.008641	6.028164	45677.5	4.346604E-10	2.300647E+9	14.107739	0.349002	0	0
0	0	0	-0.067807	6.028243	-13.012435	6.028243	45601.875	-6.15916E-10	-1.623598E+9	14.096848	0.347872	0	0
0	0	0	-0.067929	6.028057	-13.012181	6.028057	45598.875	1.325843E-10	7.542371E+9	14.082904	0.346583	0	0
0	0	0	-0.068583	6.02815	-13.013153	6.02815	45582.75	3.377945E-10	2.96038E+9	14.02665	0.345632	0	0
0	0	0	-0.068338	6.02827	-13.01312	6.02827	45588.75	-3.408553E-10	-2.933796E+9	13.97869	0.344501	0	0
0	0	0	-0.069563	6.028449	-13.014954	6.028449	45558.625	-8.487335E-11	-1.178226E+10	13.925652	0.34347	0	0
0	0	0	-0.068338	6.028164	-13.012892	6.028164	45588.75	4.338159E-10	2.305125E+9	13.898819	0.34238	0	0
0	0	0	-0.068297	6.028283	-13.0131	6.028283	45589.75	-2.786616E-10	-3.588582E+9	13.895728	0.34127	0	0
0	0	0	-0.067521	6.028217	-13.01204	6.028217	45608.875	-3.182721E-9	-3.141966E+8	13.861396	0.340278	0	0
0	0	0	-0.06846	6.02815	-13.013009	6.02815	45585.75	3.378167E-10	2.960185E+9	13.852043	0.338811	0	0
0	0	0	-0.066663	6.028084	-13.010741	6.028084	45630.125	1.605481E-10	6.228663E+9	13.81277	0.33774	0	0
0	0	0	-0.065969	6.028363	-13.010518	6.028363	45647.25	-1.331874E-10	-7.508217E+9	13.751155	0.336808	0	0
0	0	0	-0.066622	6.02823	-13.011006	6.02823	45631.125	-1.032737E-9	-9.683004E+8	13.701987	0.335718	0	0
0	0	0	-0.067153	6.028376	-13.011948	6.028376	45618	-1.224368E-10	-8.167477E+9	13.6484	0.334905	0	0
0	0	0	-0.06699	6.02829	-13.011569	6.02829	45622	-2.555428E-10	-3.913239E+9	13.638625	0.333775	0	0
0	0	0	-0.066214	6.028383	-13.010851	6.028383	45641.125	-1.177801E-10	-8.490395E+9	13.638343	0.332466	0	0
0	0	0	-0.064662	6.028084	-13.008374	6.028084	45679.5	1.607218E-10	6.221931E+9	13.628929	0.331157	0	0
0	0	0	-0.063805	6.028237	-13.007687	6.028237	45700.625	-7.731209E-10	-1.293459E+9	13.592164	0.330206	0	0
0	0	0	-0.064295	6.02833	-13.008467	6.02833	45688.5	-1.704202E-10	-5.86785E+9	13.556206	0.329254	0	0
0	0	0	-0.066418	6.028336	-13.010993	6.028336	45636.125	-1.612467E-10	-6.201677E+9	13.486478	0.328322	0	0
0	0	0	-0.065111	6.028104	-13.008948	6.028104	45668.375	1.907355E-10	5.242861E+9	13.444895	0.32743	0	0
0	0	0	-0.065111	6.028243	-13.009247	6.028243	45668.375	-6.168141E-10	-1.621234E+9	13.421465	0.326359	0	0
0	0	0	-0.063478	6.028256	-13.007344	6.028256	45708.75	-4.399573E-10	-2.272948E+9	13.409067	0.325269	0	0
0	0	0	-0.062947	6.028237	-13.006673	6.028237	45721.875	-7.734804E-10	-1.292858E+9	13.409098	0.32398	0	0
0	0	0	-0.064703	6.028263	-13.008807	6.028263	45678.5	-3.844317E-10	-2.601242E+9	13.379608	0.322909	0	0
0	0	0	-0.066173	6.028144	-13.010289	6.028144	45642.125	3.045458E-10	3.283579E+9	13.339413	0.321938	0	0
0	0	0	-0.067888	6.028164	-13.012361	6.028164	45599.875	4.339218E-10	2.304563E+9	13.282923	0.320867	0	0
0	0	0	-0.069767	6.02813	-13.014511	6.02813	45553.625	2.534644E-10	3.945328E+9	13.225296	0.320193	0	0
0	0	0	-0.072094	6.02833	-13.017693	6.02833	45496.375	-1.697035E-10	-5.892629E+9	13.188867	0.319003	0	0
0	0	0	-0.071849	6.028203	-13.017132	6.028203	45502.25	2.931028E-9	3.411772E+8	13.171363	0.317992	0	0
0	0	0	-0.072339	6.028336	-13.017997	6.028336	45490.25	-1.607313E-10	-6.221564E+9	13.163377	0.316822	0	0
0	0	0	-0.075157	6.02827	-13.021187	6.02827	45421	-3.396011E-10	-2.944631E+9	13.132	0.315771	0	0
0	0	0	-0.074463	6.02817	-13.020152	6.02817	45438.125	5.039691E-10	1.984249E+9	13.104862	0.31476	0	0
0	0	0	-0.075892	6.027998	-13.021472	6.027998	45403	9.493197E-11	1.053386E+10	13.059825	0.313788	0	0
0	0	0	-0.07773	6.028137	-13.023945	6.028137	45357.875	2.752353E-10	3.633255E+9	13.009855	0.312916	0	0
0	0	0	-0.078628	6.02815	-13.025036	6.02815	45335.875	3.35965E-10	2.976501E+9	12.962415	0.312044	0	0
0	0	0	-0.079445	6.028164	-13.026031	6.028164	45315.875	4.312193E-10	2.319006E+9	12.929068	0.311012	0	0
0	0	0	-0.079731	6.02819	-13.026426	6.02819	45308.875	9.984588E-10	1.001544E+9	12.909779	0.309902	0	0
0	0	0	-0.080343	6.028097	-13.026951	6.028097	45293.875	1.780698E-10	5.615775E+9	12.900856	0.308732	0	0
0	0	0	-0.080017	6.028164	-13.026707	6.028164	45301.875	4.31086E-10	2.319723E+9	12.875023	0.30782	0	0
0	0	0	-0.081936	6.028323	-13.029319	6.028323	45254.875	-1.787557E-10	-5.594226E+9	12.843807	0.30669	0	0
0	0	0	-0.083325	6.028144	-13.030577	6.028144	45220.875	3.01735E-10	3.314166E+9	12.774508	0.305897	0	0
0	0	0	-0.083855	6.028256	-13.031447	6.028256	45208	-4.351375E-10	-2.298124E+9	12.718259	0.304985	0	0
0	0	0	-0.084509	6.02819	-13.032077	6.02819	45192	9.958832E-10	1.004134E+9	12.691516	0.303954	0	0
0	0	0	-0.084223	6.02819	-13.031739	6.02819	45199	9.960375E-10	1.003978E+9	12.656097	0.303141	0	0
0	0	0	-0.084876	6.028177	-13.032483	6.028177	45183	6.005718E-10	1.66508E+9	12.638927	0.301971	0	0
0	0	0	-0.085203	6.028117	-13.032742	6.028117	45175	2.155517E-10	4.639258E+9	12.613469	0.301079	0	0
0	0	0	-0.085652	6.028197	-13.033444	6.028197	45164	1.483142E-9	6.742444E+8	12.583459	0.300167	0	0
0	0	0	-0.085203	6.02829	-13.033112	6.02829	45175	-2.53039E-10	-3.95196E+9	12.554229	0.298997	0	0
0	0	0	-0.086101	6.028177	-13.033933	6.028177	45153.125	6.001747E-10	1.666181E+9	12.496822	0.298144	0	0
0	0	0	-0.085816	6.02817	-13.03358	6.02817	45160.125	5.008857E-10	1.996463E+9	12.456236	0.297232	0	0
0	0	0	-0.085775	6.028051	-13.033275	6.028051	45161.125	1.258493E-10	7.946013E+9	12.390065	0.296459	0	0
0	0	0	-0.085285	6.028164	-13.032938	6.028164	45173.125	4.298609E-10	2.326334E+9	12.359141	0.295547	0	0
0	0	0	-0.08553	6.028336	-13.033599	6.028336	45167.125	-1.595896E-10	-6.266073E+9	12.325468	0.294536	0	0
0	0	0	-0.085162	6.028084	-13.032622	6.028084	45176	1.589503E-10	6.291276E+9	12.332973	0.293544	0	0
0	0	0	-0.084631	6.02831	-13.032479	6.02831	45189	-2.023586E-10	-4.941723E+9	12.307101	0.292474	0	0
0	0	0	-0.084141	6.028303	-13.031885	6.028303	45201	-2.169117E-10	-4.61017E+9	12.267933	0.291581	0	0
0	0	0	-0.084672	6.028296	-13.032499	6.028296	45188	-2.335816E-10	-4.28116E+9	12.218033	0.290649	0	0
0	0	0	-0.08459	6.028243	-13.032288	6.028243	45190	-6.10353E-10	-1.638396E+9	12.152005	0.289856	0	0
0	0	0	-0.08459	6.02829	-13.032388	6.02829	45190	-2.53123E-10	-3.950649E+9	12.113632	0.289004	0	0
0	0	0	-0.083202	6.028117	-13.030375	6.028117	45224	2.157855E-10	4.634231E+9	12.075623	0.288072	0	0
0	0	0	-0.083815	6.028349	-13.031598	6.028349	45209	-1.444954E-10	-6.920635E+9	12.052834	0.287219	0	0
0	0	0	-0.083161	6.02827	-13.030654	6.02827	45224.875	-3.381347E-10	-2.957401E+9	12.031047	0.286268	0	0
0	0	0	-0.083733	6.028422	-13.031659	6.028422	45211	-9.476714E-11	-1.055218E+10	12.019822	0.285078	0	0
0	0	0	-0.083937	6.028144	-13.031301	6.028144	45206	3.016357E-10	3.315257E+9	11.975037	0.284324	0	0
0	0	0	-0.083202	6.028263	-13.030688	6.028263	45224	-3.806066E-10	-2.627385E+9	11.91436	0.283432	0	0
0	0	0	-0.082099	6.028323	-13.029513	6.028323	45250.875	-1.787399E-10	-5.594721E+9	11.876001	0.282599	0	0
0	0	0	-0.081242	6.028203	-13.028242	6.028203	45271.875	2.916188E-9	3.429134E+8	11.825661	0.281806	0	0
0	0	0	-0.081446	6.02813	-13.028326	6.02813	45266.875	2.518689E-10	3.97032E+9	11.773647	0.280934	0	0
0	0	0	-0.080548	6.028044	-13.027078	6.028044	45288.875	1.211651E-10	8.2532E+9	11.746955	0.279943	0	0
0	0	0	-0.082222	6.028422	-13.029871	6.028422	45247.875	-9.484444E-11	-1.054358E+10	11.715553	0.27907	0	0
0	0	0	-0.081569	6.02815	-13.028514	6.02815	45263.875	3.354314E-10	2.981235E+9	11.704379	0.27798	0	0
0	0	0	-0.081364	6.028363	-13.028729	6.028363	45268.875	-1.320834E-10	-7.570974E+9	11.695954	0.277048	0	0
0	0	0	-0.082018	6.02829	-13.029345	6.02829	45252.875	-2.534752E-10	-3.945159E+9	11.658573	0.276175	0	0
0	0	0	-0.082998	6.028283	-13.03049	6.028283	45229	-2.764565E-10	-3.617205E+9	11.60502	0.275442	0	0
0	0	0	-0.084019	6.028223	-13.031569	6.028223	45204	-1.545045E-9	-6.472302E+8	11.565216	0.274569	0	0
0	0	0	-0.083774	6.028183	-13.031194	6.028183	45210	7.49676E-10	1.33391E+9	11.505839	0.273677	0	0
0	0	0	-0.084019	6.02821	-13.03154	6.02821	45204	7.570722E-8	1.320878E+7	11.467168	0.272864	0	0
0	0	0	-0.085203	6.027951	-13.032385	6.027951	45175	7.751911E-11	1.290004E+10	11.407658	0.272071	0	0
0	0	0	-0.085326	6.028217	-13.0331	6.028217	45172.125	-3.152243E-9	-3.172344E+8	11.384937	0.27106	0	0
0	0	0	-0.085285	6.028197	-13.033009	6.028197	45173.125	1.483441E-9	6.741082E+8	11.378419	0.270088	0	0
0	0	0	-0.08602	6.02829	-13.034078	6.02829	45155.125	-2.529276E-10	-3.9537E+9	11.338929	0.269236	0	0
0	0	0	-0.086224	6.028037	-13.033778	6.028037	45150.125	1.161551E-10	8.609176E+9	11.300114	0.268462	0	0
0	0	0	-0.08651	6.027918	-13.033859	6.027918	45143.125	6.866964E-11	1.456248E+10	11.253798	0.26755	0	0
0	0	0	-0.086836	6.028237	-13.03493	6.028237	45135.125	-7.635543E-10	-1.309665E+9	11.199577	0.266836	0	0
0	0	0	-0.086836	6.028376	-13.03523	6.028376	45135.125	-1.211408E-10	-8.254856E+9	11.156295	0.266182	0	0
0	0	0	-0.087327	6.028097	-13.03521	6.028097	45123.25	1.77399E-10	5.63701E+9	11.127904	0.265349	0	0
0	0	0	-0.087776	6.028064	-13.035671	6.028064	45112.25	1.371208E-10	7.29284E+9	11.076891	0.264576	0	0
0	0	0	-0.088552	6.028296	-13.037087	6.028296	45093.375	-2.330924E-10	-4.290144E+9	11.052785	0.263723	0	0
0	0	0	-0.08847	6.028256	-13.036905	6.028256	45095.375	-4.340534E-10	-2.303864E+9	11.04407	0.262712	0	0
0	0	0	-0.089246	6.028369	-13.038066	6.028369	45076.5	-1.260329E-10	-7.934438E+9	11.007232	0.26178	0	0
0	0	0	-0.089818	6.028183	-13.038342	6.028183	45062.5	7.472301E-10	1.338276E+9	10.955354	0.261086	0	0
0	0	0	-0.090063	6.028223	-13.038718	6.028223	45056.5	-1.540004E-9	-6.49349E+8	10.917046	0.260373	0	0
0	0	0	-0.090961	6.028064	-13.039438	6.028064	45034.625	1.368849E-10	7.30541E+9	10.877988	0.259461	0	0
0	0	0	-0.089818	6.028197	-13.038371	6.028197	45062.5	1.479809E-9	6.757631E+8	10.832201	0.258687	0	0
0	0	0	-0.091451	6.02823	-13.040374	6.02823	45022.75	-1.018968E-9	-9.813846E+8	10.793084	0.257815	0	0
0	0	0	-0.090512	6.02827	-13.039349	6.02827	45045.625	-3.367945E-10	-2.969169E+9	10.739848	0.257299	0	0
0	0	0	-0.090961	6.028084	-13.039481	6.028084	45034.625	1.584528E-10	6.311026E+9	10.692869	0.256407	0	0
0	0	0	-0.090757	6.02831	-13.039724	6.02831	45039.625	-2.016896E-10	-4.958113E+9	10.663331	0.255654	0	0
0	0	0	-0.089573	6.028117	-13.03791	6.028117	45068.5	2.150436E-10	4.650221E+9	10.638035	0.254801	0	0
0	0	0	-0.089246	6.028237	-13.03778	6.028237	45076.5	-7.625625E-10	-1.311368E+9	10.621236	0.253948	0	0
0	0	0	-0.089287	6.027964	-13.037244	6.027964	45075.375	8.152462E-11	1.226623E+10	10.591379	0.253195	0	0
0	0	0	-0.088756	6.02821	-13.037144	6.02821	45088.375	7.551358E-8	1.324265E+7	10.573347	0.252283	0	0
0	0	0	-0.088797	6.02811	-13.036978	6.02811	45087.375	2.008295E-10	4.979348E+9	10.517682	0.251549	0	0
0	0	0	-0.087939	6.028144	-13.036035	6.028144	45108.25	3.009835E-10	3.322441E+9	0	0	0	0
0	0	0	-0.087939	6.028183	-13.03612	6.028183	45108.25	7.479887E-10	1.336919E+9	0	0	0	0
0	0	0	-0.088184	6.028323	-13.03671	6.028323	45102.25	-1.781529E-10	-5.613157E+9	0	0	0	0
0	0	0	-0.087572	6.028217	-13.035757	6.028217	45117.25	-3.148414E-9	-3.176202E+8	0	0	0	0
0	0	0	-0.088021	6.028137	-13.036117	6.028137	45106.25	2.737084E-10	3.653524E+9	0	0	0	0
0	0	0	-0.086877	6.02819	-13.034879	6.02819	45134.125	9.946079E-10	1.005421E+9	0	0	0	0
0	0	0	-0.087204	6.02829	-13.035479	6.02829	45126.25	-2.527659E-10	-3.95623E+9	0	0	0	0
0	0	0	-0.086061	6.028223	-13.033984	6.028223	45154.125	-1.543341E-9	-6.479451E+8	0	0	0	0
0	0	0	-0.086224	6.028462	-13.034691	6.028462	45150.125	-7.968071E-11	-1.255009E+10	0	0	0	0
0	0	0	-0.086346	6.028276	-13.034436	6.028276	45147.125	-3.036625E-10	-3.293129E+9	0	0	0	0
0	0	0	-0.086346	6.028422	-13.03475	6.028422	45147.125	-9.463325E-11	-1.056711E+10	0	0	0	0
0	0	0	-0.085938	6.02811	-13.033597	6.02811	45157.125	2.011402E-10	4.971656E+9	0	0	0	0
0	0	0	-0.086755	6.02829	-13.034948	6.02829	45137.125	-2.528268E-10	-3.955276E+9	0	0	0	0
0	0	0	-0.086428	6.028237	-13.034447	6.028237	45145.125	-7.637234E-10	-1.309375E+9	0	0	0	0
0	0	0	-0.086673	6.028137	-13.034523	6.028137	45139.125	2.739079E-10	3.650863E+9	0	0	0	0
0	0	0	-0.085734	6.028436	-13.034054	6.028436	45162.125	-8.908962E-11	-1.122465E+10	0	0	0	0
0	0	0	-0.086551	6.028164	-13.034435	6.028164	45142.125	4.295659E-10	2.327932E+9	0	0	0	0
0	0	0	-0.08651	6.028323	-13.034729	6.028323	45143.125	-1.783143E-10	-5.608075E+9	0	0	0	0
0	0	0	-0.087204	6.02813	-13.035137	6.02813	45126.25	2.510864E-10	3.982693E+9	0	0	0	0
0	0	0	-0.087694	6.028283	-13.036045	6.028283	45114.25	-2.757551E-10	-3.626406E+9	0	0	0	0
0	0	0	-0.088266	6.02815	-13.036436	6.02815	45100.25	3.342189E-10	2.992051E+9	0	0	0	0
0	0	0	-0.088102	6.02823	-13.036414	6.02823	45104.375	-1.020816E-9	-9.796086E+8	0	0	0	0
0	0	0	-0.089287	6.028177	-13.0377	6.028177	45075.375	5.991413E-10	1.669055E+9	0	0	0	0
0	0	0	-0.088592	6.028263	-13.037064	6.028263	45092.375	-3.794989E-10	-2.635054E+9	0	0	0	0
0	0	0	-0.089491	6.02833	-13.03827	6.02833	45070.5	-1.68115E-10	-5.948309E+9	0	0	0	0
0	0	0	-0.089695	6.028164	-13.038155	6.028164	45065.5	4.288367E-10	2.33189E+9	0	0	0	0
0	0	0	-0.089613	6.028316	-13.038386	6.028316	45067.5	-1.891695E-10	-5.286266E+9	0	0	0	0
0	0	0	-0.08994	6.028157	-13.03843	6.028157	45059.5	3.754488E-10	2.663479E+9	0	0	0	0
0	0	0	-0.090716	6.028409	-13.03989	6.028409	45040.625	-1.007124E-10	-9.929262E+9	0	0	0	0
0	0	0	-0.091533	6.028177	-13.040357	6.028177	45020.75	5.984152E-10	1.671081E+9	0	0	0	0
0	0	0	-0.092758	6.028303	-13.042077	6.028303	44991	-2.15904E-10	-4.631688E+9	0	0	0	0
0	0	0	-0.093125	6.02821	-13.042312	6.02821	44982	7.533541E-8	1.327397E+7	0	0	0	0
0	0	0	-0.095167	0	-0.095167	0	44932.375	0	0	0	0	0	0
0	0	0	-0.0948	0	-0.0948	0	44941.25	0	0	0	0	0	0
