Vload_(V)	ILoad_(A)	RsLoad (ohm)	SunsVoc_Voltage_(V)	SunsVoc_Current_(A)	Model_Voltage_(V)	Model_Current_(A)	Carrier_Density_(cm-3)	Lifetime_(s)	Inverse_Lifetime_(s-1)	Efficiency_(%)	Intensity_(suns)	Dark_IV_Voltage_(V)	Dark_IV_Current_(A)
3.138382	6.027091	0	51.944792	-0.777049	52.404616	-0.777049	1.001104E+16	0.000655	1361.500902	18.917505	1.205823	0	0
3.095604	6.026609	2.827958	52.429522	-0.971891	52.992231	-0.971891	1.151443E+16	0.000732	1146.334155	18.938016	1.20505	0	0
3.159938	6.027551	-0.544886	52.537004	-0.794225	52.994597	-0.794225	1.187544E+16	0.000774	1057.147075	18.887779	1.204812	0	0
3.695748	6.025035	3.987925	52.494248	-0.448548	52.753185	-0.448548	1.173057E+16	0.000806	1012.527176	18.816435	1.204415	0	0
5.610184	6.02415	3.930074	52.408491	-0.084551	52.457491	-0.084551	1.144502E+16	0.000833	982.97983	18.806418	1.20273	0	0
8.062785	6.017877	4.325246	52.30105	0.285981	52.134503	0.285981	1.109651E+16	0.00086	958.657615	18.853574	1.200152	0	0
10.650087	5.996673	4.686241	52.183849	0.639629	51.809374	0.639629	1.072776E+16	0.000886	937.88879	18.856367	1.196464	0	0
12.60484	5.981647	4.583531	52.068241	0.964223	51.500791	0.964223	1.037535E+16	0.000912	918.252412	18.777305	1.193768	0	0
14.66605	5.977665	4.286749	51.942872	1.279109	51.185885	1.279109	1.000548E+16	0.000937	900.569484	18.695273	1.191567	0	0
16.791214	5.979154	3.913611	51.826896	1.570447	50.892693	1.570447	9.674356E+15	0.000966	880.201241	18.688389	1.189921	0	0
18.965369	5.978638	3.556121	51.701365	1.852233	50.59341	1.852233	9.327524E+15	0.000994	861.735997	18.730205	1.18774	0	0
21.187542	5.977575	3.196797	51.570402	2.109301	50.301396	2.109301	8.978084E+15	0.001019	847.149794	18.722227	1.185698	0	0
23.367629	5.980258	2.800933	51.449485	2.338176	50.035332	2.338176	8.666316E+15	0.001045	832.202392	18.68486	1.18316	0	0
25.554181	5.974654	2.496303	51.331385	2.550907	49.780632	2.550907	8.371559E+15	0.001071	817.106478	18.675272	1.18078	0	0
27.687795	5.976561	2.119775	51.213204	2.752027	49.531614	2.752027	8.085934E+15	0.001098	801.968604	18.731249	1.17743	0	0
29.855435	5.972192	1.80027	51.091715	2.940927	49.285285	2.940927	7.801743E+15	0.001125	788.201044	18.760071	1.174178	0	0
32.059034	5.968312	1.467251	50.973493	3.117129	49.049122	3.117129	7.534082E+15	0.001152	774.032487	18.727661	1.17043	0	0
32.759371	5.966268	1.367862	50.855761	3.280639	48.820268	3.280639	7.27597E+15	0.001178	760.661522	18.667637	1.167298	0	0
33.47869	5.968806	1.224906	50.74097	3.433749	48.600091	3.433749	7.032161E+15	0.001206	746.926612	18.677539	1.163451	0	0
34.182957	5.963608	1.15155	50.624055	3.576345	48.383251	3.576345	6.791573E+15	0.001233	734.616649	18.723931	1.159763	0	0
34.889131	5.960018	1.062242	50.508936	3.710244	48.172981	3.710244	6.562073E+15	0.00126	722.20432	18.726865	1.156392	0	0
35.59344	5.957664	0.962643	50.392879	3.834527	47.966948	3.834527	6.337896E+15	0.001286	710.996293	18.673881	1.153636	0	0
36.307903	5.952283	0.881306	50.279435	3.946461	47.77089	3.946461	6.125539E+15	0.00131	701.271838	18.640979	1.150761	0	0
37.008526	5.939258	0.847057	50.163908	4.056745	47.572911	4.056745	5.915956E+15	0.001336	690.605214	18.689285	1.147073	0	0
37.714267	5.920684	0.829435	50.051526	4.157207	47.384053	4.157207	5.718344E+15	0.00136	680.80152	18.74687	1.142989	0	0
38.416929	5.90149	0.798148	49.93604	4.256201	47.192095	4.256201	5.521521E+15	0.001387	670.373975	18.739992	1.139043	0	0
39.10928	5.870536	0.79538	49.817287	4.347797	47.000685	4.347797	5.325531E+15	0.001411	661.772605	18.676523	1.135653	0	0
39.816948	5.836029	0.777264	49.70858	4.432771	46.82423	4.432771	5.151641E+15	0.001437	651.644048	18.658067	1.132361	0	0
40.518474	5.790147	0.767172	49.589827	4.517339	46.636314	4.517339	4.967529E+15	0.001464	642.251798	18.708085	1.128634	0	0
41.223661	5.733017	0.75638	49.481039	4.592167	46.465436	4.592167	4.804066E+15	0.001489	633.135975	18.755261	1.124906	0	0
41.92098	5.661981	0.746375	49.365226	4.664334	46.287997	4.664334	4.635353E+15	0.001513	625.22005	18.734382	1.121357	0	0
42.626627	5.575368	0.731588	49.25366	4.73049	46.118878	4.73049	4.477845E+15	0.001536	617.637543	18.686672	1.118184	0	0
43.314445	5.470552	0.716943	49.143647	4.790309	45.955335	4.790309	4.32721E+15	0.001556	611.422453	18.692403	1.115151	0	0
44.002796	5.341606	0.702204	49.03302	4.849462	45.791201	4.849462	4.180289E+15	0.001579	604.269302	18.753491	1.111364	0	0
44.671908	5.194914	0.682526	48.924558	4.902682	45.633149	4.902682	4.040548E+15	0.001599	598.468639	18.782793	1.107656	0	0
45.340421	5.007534	0.669746	48.816831	4.956279	45.475369	4.956279	3.905854E+15	0.001623	590.970885	18.751381	1.10375	0	0
46.00951	4.792507	0.650968	48.703183	5.007309	45.312321	5.007309	3.768059E+15	0.001644	584.820177	18.715138	1.099784	0	0
46.657335	4.533919	0.637991	48.600888	5.052814	45.165589	5.052814	3.6477E+15	0.001666	578.332638	18.734757	1.09574	0	0
47.294886	4.235222	0.626671	48.486504	5.099137	45.004341	5.099137	3.517121E+15	0.001686	572.569847	18.776393	1.091715	0	0
47.927576	3.892168	0.615219	48.38233	5.140701	44.85767	5.140701	3.401771E+15	0.001707	566.539179	18.775355	1.08759	0	0
48.550863	3.503305	0.6027	48.273337	5.179442	44.707238	5.179442	3.284631E+15	0.001724	562.215056	18.72537	1.083744	0	0
49.139555	3.076978	0.600113	48.165161	5.217655	44.557878	5.217655	3.171853E+15	0.001743	556.968017	18.700086	1.080036	0	0
49.70229	2.628269	0.596551	48.057393	5.252916	44.410814	5.252916	3.062857E+15	0.00176	552.631608	18.740971	1.07615	0	0
50.257234	2.151158	0.601837	47.952443	5.286167	44.268161	5.286167	2.959841E+15	0.001777	548.183631	18.787929	1.071847	0	0
50.776273	1.667493	0.61899	47.840102	5.318481	44.117553	5.318481	2.852898E+15	0.001791	544.847607	18.771672	1.067882	0	0
51.254017	1.192745	0.627125	47.737725	5.347231	43.980626	5.347231	2.758355E+15	0.001805	541.435434	18.719407	1.064233	0	0
51.680627	0.752666	0.616885	47.629467	5.376755	43.836285	5.376755	2.661322E+15	0.00182	537.571319	18.712456	1.060446	0	0
42.318504	5.616697	0.736417	47.520392	5.405318	43.691523	5.405318	2.56653E+15	0.001836	533.665119	18.764683	1.056243	0	0
52.321842	0	0	47.413523	5.431541	43.550781	5.431541	2.476469E+15	0.00185	530.420274	18.804015	1.052079	0	0
0	0	0	47.304612	5.456432	43.408508	5.456432	2.387475E+15	0.001861	527.853678	18.776838	1.048014	0	0
0	0	0	47.199417	5.480084	43.271232	5.480084	2.304116E+15	0.001874	524.866219	18.73128	1.044148	0	0
0	0	0	47.092425	5.502524	43.132641	5.502524	2.221881E+15	0.001884	522.53291	18.739722	1.04042	0	0
0	0	0	46.98482	5.524598	42.993485	5.524598	2.141697E+15	0.001896	519.814167	18.789152	1.036336	0	0
0	0	0	46.876277	5.545098	42.85427	5.545098	2.063305E+15	0.001904	518.065157	18.811628	1.032291	0	0
0	0	0	46.77345	5.563908	42.722723	5.563908	1.99129E+15	0.001912	516.306762	18.775224	1.028623	0	0
0	0	0	46.660129	5.584323	42.577862	5.584323	1.914387E+15	0.001923	513.838348	18.74253	1.024836	0	0
0	0	0	46.558527	5.601075	42.449017	5.601075	1.847575E+15	0.001929	512.673928	18.760518	1.021267	0	0
0	0	0	46.447533	5.61909	42.30837	5.61909	1.776834E+15	0.001937	510.944703	18.814982	1.017024	0	0
0	0	0	46.340297	5.635015	42.173478	5.635015	1.710656E+15	0.001941	510.369835	18.824102	1.013098	0	0
0	0	0	46.236572	5.650679	42.042725	5.650679	1.648619E+15	0.001948	508.745655	18.777421	1.00943	0	0
0	0	0	46.12762	5.665351	41.906617	5.665351	1.585489E+15	0.00195	508.718084	18.746193	1.006079	0	0
0	0	0	46.020954	5.679798	41.773223	5.679798	1.52565E+15	0.001954	507.856708	18.774991	1.002371	0	0
0	0	0	45.914738	5.692394	41.641653	5.692394	1.467944E+15	0.001951	508.969882	18.832081	0.998425	0	0
0	0	0	45.809135	5.706024	41.509939	5.706024	1.412382E+15	0.001957	507.704937	18.836193	0.994777	0	0
0	0	0	45.69908	5.718385	41.373986	5.718385	1.356349E+15	0.001954	508.587379	18.793136	0.991545	0	0
0	0	0	45.595274	5.730054	41.245679	5.730054	1.3052E+15	0.001955	508.76546	18.76406	0.988571	0	0
0	0	0	45.482687	5.741884	41.107076	5.741884	1.251545E+15	0.001952	509.676387	18.811634	0.984724	0	0
0	0	0	45.382107	5.751913	40.983607	5.751913	1.205171E+15	0.001948	510.871823	18.859652	0.980838	0	0
0	0	0	45.272787	5.76279	40.849368	5.76279	1.156391E+15	0.001946	511.570439	18.850933	0.977071	0	0
0	0	0	45.166122	5.77209	40.71934	5.77209	1.110384E+15	0.001937	514.203584	18.796681	0.973839	0	0
0	0	0	45.060886	5.78199	40.590442	5.78199	1.06649E+15	0.001936	514.741487	18.78119	0.970389	0	0
0	0	0	44.951158	5.791143	40.456891	5.791143	1.022263E+15	0.001927	517.118593	18.817855	0.96688	0	0
0	0	0	44.847352	5.799861	40.330453	5.799861	9.818329E+14	0.001922	518.658628	18.856515	0.963132	0	0
0	0	0	44.739911	5.808551	40.199798	5.808551	9.413922E+14	0.001916	520.385838	18.839179	0.959761	0	0
0	0	0	44.634103	5.816056	40.071907	5.816056	9.029264E+14	0.001903	524.050188	18.792229	0.956748	0	0
0	0	0	44.526009	5.82472	39.940425	5.82472	8.649858E+14	0.001901	524.691099	18.786907	0.953417	0	0
0	0	0	44.422406	5.831123	39.815861	5.831123	8.298745E+14	0.001884	529.697348	18.837539	0.949828	0	0
0	0	0	44.312556	5.839277	39.682666	5.839277	7.93949E+14	0.00188	530.728183	18.874928	0.946199	0	0
0	0	0	44.210383	5.845509	39.559812	5.845509	7.617062E+14	0.001866	534.928006	18.846255	0.942809	0	0
0	0	0	44.103513	5.852556	39.430854	5.852556	7.291575E+14	0.001858	537.205075	18.808287	0.939379	0	0
0	0	0	43.995174	5.858882	39.300736	5.858882	6.973555E+14	0.001844	541.424512	18.801619	0.936206	0	0
0	0	0	43.897166	5.86381	39.183634	5.86381	6.695944E+14	0.001824	547.424599	18.8506	0.932459	0	0
0	0	0	43.787397	5.870555	39.051463	5.870555	6.396081E+14	0.001818	549.485245	18.880029	0.928731	0	0
0	0	0	43.684203	5.875439	38.92835	5.875439	6.12455E+14	0.001797	556.003681	18.845082	0.925202	0	0
0	0	0	43.578436	5.88107	38.801634	5.88107	5.85639E+14	0.001784	559.933184	18.796743	0.921871	0	0
0	0	0	43.47124	5.886873	38.673094	5.886873	5.594788E+14	0.001775	562.873276	18.797193	0.918619	0	0
0	0	0	43.363718	5.891237	38.545322	5.891237	5.342394E+14	0.001749	571.173595	18.842946	0.914931	0	0
0	0	0	43.258727	5.895824	38.420266	5.895824	5.105334E+14	0.00173	577.558242	18.865747	0.911164	0	0
0	0	0	43.149611	5.901172	38.289794	5.901172	4.868508E+14	0.00172	581.023098	18.826375	0.907575	0	0
0	0	0	43.043028	5.905177	38.163325	5.905177	4.646296E+14	0.001695	589.484516	18.77072	0.904482	0	0
0	0	0	42.937506	5.909214	38.038035	5.909214	4.434911E+14	0.001674	597.166907	18.780831	0.901032	0	0
0	0	0	42.824879	5.914075	37.903825	5.914075	4.218459E+14	0.00166	601.953603	18.829387	0.897522	0	0
0	0	0	42.722175	5.91814	37.781721	5.91814	4.029078E+14	0.001645	607.610547	18.849721	0.893795	0	0
0	0	0	42.608404	5.921031	37.647784	5.921031	3.827916E+14	0.001606	622.600661	18.816112	0.890325	0	0
0	0	0	42.503127	5.923961	37.523617	5.923961	3.649598E+14	0.001574	635.006007	18.774531	0.887192	0	0
0	0	0	42.392787	5.927911	37.39272	5.927911	3.47051E+14	0.001557	642.223289	18.777723	0.884079	0	0
0	0	0	42.28016	5.932743	37.258408	5.932743	3.295681E+14	0.001554	643.360424	18.829716	0.88053	0	0
0	0	0	42.160427	5.936349	37.116892	5.936349	3.118345E+14	0.001529	653.983696	18.85281	0.876941	0	0
0	0	0	42.051597	5.938739	36.989	5.938739	2.964507E+14	0.001493	669.824032	18.814957	0.873868	0	0
0	0	0	41.938398	5.941814	36.855455	5.941814	2.811652E+14	0.001467	681.673575	18.770374	0.870695	0	0
0	0	0	41.834387	5.945096	36.732341	5.945096	2.677415E+14	0.001453	688.30969	18.773695	0.867801	0	0
0	0	0	41.718902	5.948991	36.595408	5.948991	2.535085E+14	0.001444	692.442454	18.831802	0.864351	0	0
0	0	0	41.602599	5.95167	36.458556	5.95167	2.398628E+14	0.001415	706.739685	18.854958	0.860821	0	0
0	0	0	41.492993	5.953677	36.33002	5.953677	2.276106E+14	0.001379	724.979183	18.815548	0.857689	0	0
0	0	0	41.381591	5.955952	36.199159	5.955952	2.157384E+14	0.001349	741.177936	18.767583	0.854853	0	0
0	0	0	41.273252	5.958744	36.071378	5.958744	2.047331E+14	0.001333	750.374227	18.775687	0.851701	0	0
0	0	0	41.161278	5.961421	35.939477	5.961421	1.938967E+14	0.001313	761.295274	18.824201	0.848389	0	0
0	0	0	41.049508	5.964025	35.807859	5.964025	1.836039E+14	0.001295	772.098806	18.845148	0.844979	0	0
0	0	0	40.939944	5.966319	35.679052	5.966319	1.740017E+14	0.001274	785.081521	18.810181	0.841866	0	0
0	0	0	40.826663	5.968381	35.546136	5.968381	1.645605E+14	0.001247	801.959123	18.756697	0.839051	0	0
0	0	0	40.713954	5.970196	35.414088	5.970196	1.556374E+14	0.001217	821.7245	18.758298	0.836076	0	0
0	0	0	40.604308	5.971703	35.285849	5.971703	1.473879E+14	0.001184	844.745141	18.80742	0.832765	0	0
0	0	0	40.485024	5.973879	35.145849	5.973879	1.388751E+14	0.001161	861.312992	18.824056	0.829494	0	0
0	0	0	40.375868	5.976145	35.017477	5.976145	1.314883E+14	0.001148	870.961351	18.79256	0.826301	0	0
0	0	0	40.260382	5.978417	34.881759	5.978417	1.240735E+14	0.001134	881.840041	18.732161	0.823724	0	0
0	0	0	40.150205	5.98043	34.752407	5.98043	1.173661E+14	0.001119	893.696698	18.72422	0.820948	0	0
0	0	0	40.035903	5.982013	34.618657	5.982013	1.107686E+14	0.001093	914.791245	18.773394	0.817716	0	0
0	0	0	39.922582	5.983732	34.485911	5.983732	1.045737E+14	0.001073	932.054775	18.797847	0.814385	0	0
0	0	0	39.80779	5.984924	34.351931	5.984924	9.863307E+13	0.001041	961.024047	18.767298	0.811153	0	0
0	0	0	39.696592	5.985986	34.222223	5.985986	9.318436E+13	0.001008	991.588012	18.713277	0.808417	0	0
0	0	0	39.579391	5.987218	34.085404	5.987218	8.775152E+13	0.000979	1021.421613	18.700737	0.80576	0	0
0	0	0	39.466192	5.988435	33.953224	5.988435	8.27915E+13	0.000953	1049.588801	18.748302	0.802488	0	0
0	0	0	39.350134	5.989933	33.817468	5.989933	7.798466E+13	0.000934	1071.095459	18.778236	0.799276	0	0
0	0	0	39.233138	5.991244	33.680788	5.991244	7.340983E+13	0.000911	1097.697328	18.750835	0.796401	0	0
0	0	0	39.121164	5.9929	33.549595	5.9929	6.92732E+13	0.000901	1109.514986	18.701254	0.793546	0	0
0	0	0	38.999756	5.99438	33.407633	5.99438	6.504139E+13	0.000885	1130.53836	18.683257	0.790691	0	0
0	0	0	38.888232	5.995737	33.277222	5.995737	6.137429E+13	0.000871	1148.407905	18.719035	0.787717	0	0
0	0	0	38.767274	5.996975	33.135989	5.996975	5.762266E+13	0.000851	1174.84733	18.755192	0.784445	0	0
0	0	0	38.647459	5.998191	32.996093	5.998191	5.412558E+13	0.000833	1200.259482	18.738031	0.78155	0	0
0	0	0	38.531442	5.999008	32.860966	5.999008	5.093575E+13	0.000807	1239.37083	18.680467	0.778973	0	0
0	0	0	38.408198	5.999772	32.717513	5.999772	4.774714E+13	0.000777	1286.177128	18.658691	0.776276	0	0
0	0	0	38.288546	6.000797	32.577968	6.000797	4.483756E+13	0.000759	1318.267748	18.691096	0.773342	0	0
0	0	0	38.168405	6.001442	32.438212	6.001442	4.209002E+13	0.00073	1369.874187	18.73414	0.770249	0	0
0	0	0	38.043649	6.002075	32.293119	6.002075	3.941084E+13	0.000701	1426.878009	18.715484	0.767255	0	0
0	0	0	37.92114	6.002775	32.150559	6.002775	3.694227E+13	0.000676	1479.648225	18.652854	0.764617	0	0
0	0	0	37.79765	6.003243	32.007083	6.003243	3.460717E+13	0.000646	1549.05093	18.622319	0.76202	0	0
0	0	0	37.673139	6.004304	31.861847	6.004304	3.239927E+13	0.000633	1580.986386	18.6455	0.759403	0	0
0	0	0	37.545075	6.005265	31.712587	6.005265	3.027255E+13	0.000617	1620.702604	18.693163	0.756131	0	0
0	0	0	37.423301	6.006139	31.570689	6.006139	2.837767E+13	0.000603	1659.685411	18.695898	0.753177	0	0
0	0	0	37.291848	6.006982	31.417606	6.006982	2.646295E+13	0.000585	1708.179964	18.63979	0.750718	0	0
0	0	0	37.162682	6.008001	31.266993	6.008001	2.470554E+13	0.000576	1736.998119	18.597736	0.748141	0	0
0	0	0	37.032454	6.008991	31.115172	6.008991	2.305015E+13	0.000567	1765.199787	18.611819	0.745484	0	0
0	0	0	36.901164	6.009689	30.962402	6.009689	2.149204E+13	0.000549	1820.174216	18.659973	0.74243	0	0
0	0	0	36.772039	6.010415	30.812107	6.010415	2.006112E+13	0.000535	1868.631225	18.662992	0.739416	0	0
0	0	0	36.636502	6.010945	30.654575	6.010945	1.866035E+13	0.000514	1944.989776	18.620591	0.73674	0	0
0	0	0	36.501578	6.011552	30.497672	6.011552	1.736202E+13	0.000497	2011.895738	18.569081	0.734222	0	0
0	0	0	36.361223	6.012466	30.334165	6.012466	1.610624E+13	0.00049	2041.187655	18.570776	0.731743	0	0
0	0	0	36.225564	6.012977	30.176498	6.012977	1.497806E+13	0.000472	2118.265055	18.610929	0.728789	0	0
0	0	0	36.082554	6.013639	30.010158	6.013639	1.387348E+13	0.000459	2179.612171	18.632582	0.725815	0	0
0	0	0	35.94228	6.013832	29.847459	6.013832	1.286856E+13	0.000432	2316.099694	18.585651	0.723237	0	0
0	0	0	35.796085	6.014326	29.677593	6.014326	1.189804E+13	0.000415	2411.751467	18.535481	0.720699	0	0
0	0	0	35.649319	6.014551	29.507335	6.014551	1.099683E+13	0.00039	2563.386348	18.530262	0.718141	0	0
0	0	0	35.498877	6.014999	29.332588	6.014999	1.01434E+13	0.000373	2679.679842	18.561823	0.715385	0	0
0	0	0	35.351211	6.015346	29.161159	6.015346	9.369789E+12	0.000355	2817.656257	18.581161	0.712471	0	0
0	0	0	35.197625	6.015501	28.983066	6.015501	8.627349E+12	0.000331	3019.708072	18.551745	0.709834	0	0
0	0	0	35.045795	6.016007	28.806642	6.016007	7.95095E+12	0.000319	3133.735097	18.503945	0.707335	0	0
0	0	0	34.886409	6.016315	28.621667	6.016315	7.297611E+12	0.000301	3319.339478	18.469019	0.705095	0	0
0	0	0	34.728372	6.016698	28.438173	6.016698	6.702591E+12	0.000287	3485.639415	18.500697	0.702478	0	0
0	0	0	34.565556	6.017032	28.249191	6.017032	6.140081E+12	0.000272	3682.438406	18.53986	0.699503	0	0
0	0	0	34.405763	6.017261	28.063819	6.017261	5.633774E+12	0.000255	3922.353042	18.51444	0.696985	0	0
0	0	0	34.240456	6.017431	27.87212	6.017431	5.153749E+12	0.000237	4213.436136	18.467843	0.694408	0	0
0	0	0	34.06931	6.018025	27.673202	6.018025	4.699687E+12	0.000231	4336.079189	18.414354	0.692465	0	0
0	0	0	33.897429	6.018037	27.47405	6.018037	4.283823E+12	0.00021	4751.064529	18.441651	0.689808	0	0
0	0	0	33.722362	6.01868	27.27053	6.01868	3.897966E+12	0.000206	4850.382957	18.484939	0.68725	0	0
0	0	0	33.543907	6.018798	27.063643	6.018798	3.540307E+12	0.00019	5265.725241	18.492048	0.684593	0	0
0	0	0	33.361939	6.019208	26.852369	6.019208	3.209313E+12	0.000181	5521.714763	18.436267	0.682313	0	0
0	0	0	33.174335	6.019467	26.634726	6.019467	2.900374E+12	0.000169	5908.881665	18.391143	0.679973	0	0
0	0	0	32.989999	6.01996	26.420611	6.01996	2.62575E+12	0.000164	6105.020988	18.388919	0.677733	0	0
0	0	0	32.786592	6.020126	26.184752	6.020126	2.352747E+12	0.00015	6654.318914	18.434323	0.675056	0	0
0	0	0	32.588943	6.020334	25.955518	6.020334	2.114653E+12	0.000139	7183.061965	18.451298	0.672399	0	0
0	0	0	32.39207	6.020685	25.727022	6.020685	1.901421E+12	0.000132	7573.61923	18.414659	0.670079	0	0
0	0	0	32.181884	6.020764	25.4834	6.020764	1.69742E+12	0.000119	8379.256561	18.361073	0.667938	0	0
0	0	0	31.975782	6.021554	25.243713	6.021554	1.518631E+12	0.000122	8195.18776	18.339967	0.665717	0	0
0	0	0	31.768495	6.021533	25.003557	6.021533	1.357788E+12	0.000109	9201.05419	18.366919	0.663239	0	0
0	0	0	31.556226	6.021963	24.75712	6.021963	1.210706E+12	0.000105	9521.058208	18.401567	0.660364	0	0
0	0	0	31.338118	6.022073	24.504274	6.022073	1.076144E+12	9.541047E-5	10481.030162	18.386852	0.657826	0	0
0	0	0	31.115395	6.022421	24.245809	6.022421	9.541478E+11	9.089352E-5	11001.884065	18.322224	0.655664	0	0
0	0	0	30.888957	6.022748	23.983057	6.022748	8.44277E+11	8.648154E-5	11563.161423	18.279446	0.653582	0	0
0	0	0	30.659006	6.023013	23.716304	6.023013	7.456357E+11	8.135339E-5	12292.051116	18.296646	0.651322	0	0
0	0	0	30.425584	6.023212	23.445603	6.023212	6.572803E+11	7.537786E-5	13266.495045	18.331394	0.648844	0	0
0	0	0	30.184403	6.023416	23.165902	6.023416	5.769667E+11	6.984089E-5	14318.260104	18.333553	0.646464	0	0
0	0	0	29.944406	6.023612	22.88758	6.023612	5.067877E+11	6.479958E-5	15432.19932	18.295033	0.643887	0	0
0	0	0	29.695466	6.02382	22.598878	6.02382	4.429963E+11	6.025265E-5	16596.779361	18.236093	0.641963	0	0
0	0	0	29.444526	6.023788	22.30814	6.023788	3.86814E+11	5.21082E-5	19190.839027	18.229938	0.639663	0	0
0	0	0	29.187459	6.024281	22.009679	6.024281	3.36639E+11	5.329531E-5	18763.377251	18.266152	0.637007	0	0
0	0	0	28.926309	6.0246	21.706688	6.0246	2.923253E+11	5.220749E-5	19154.340647	18.285513	0.634488	0	0
0	0	0	28.655767	6.024752	21.393009	6.024752	2.525586E+11	4.804972E-5	20811.776747	18.254434	0.632149	0	0
0	0	0	28.382897	6.024851	21.076696	6.024851	2.179264E+11	4.328966E-5	23100.203464	18.190598	0.629988	0	0
0	0	0	28.105167	6.024823	20.754905	6.024823	1.875494E+11	3.67945E-5	27177.977905	18.161932	0.628005	0	0
0	0	0	27.82168	6.02512	20.426044	6.02512	1.609046E+11	3.631971E-5	27533.259468	18.182124	0.625645	0	0
0	0	0	27.533945	6.025057	20.0927	6.025057	1.377283E+11	3.013449E-5	33184.56974	18.213416	0.623048	0	0
0	0	0	27.243515	6.025194	19.755987	6.025194	1.177184E+11	2.760713E-5	36222.523067	18.202753	0.620688	0	0
0	0	0	26.943652	6.025336	19.408333	6.025336	1.001037E+11	2.53855E-5	39392.565151	18.151278	0.618488	0	0
0	0	0	26.639379	6.025379	19.055693	6.025379	8.492198E+10	2.207301E-5	45304.206459	18.100719	0.616287	0	0
0	0	0	26.328	6.025627	18.694557	6.025627	7.17664E+10	2.181831E-5	45833.055333	18.089707	0.614165	0	0
0	0	0	26.010699	6.025703	18.326776	6.025703	6.04549E+10	1.937645E-5	51609.039971	18.124408	0.611825	0	0
0	0	0	25.689152	6.025612	17.954286	6.025612	5.080944E+10	1.528289E-5	65432.660028	18.141565	0.609228	0	0
0	0	0	25.363358	6.026018	17.576233	6.026018	4.260492E+10	1.767506E-5	56576.880918	18.097786	0.607087	0	0
0	0	0	25.03495	6.025794	17.195965	6.025794	3.567477E+10	1.223968E-5	81701.476068	18.042803	0.605223	0	0
0	0	0	24.698661	6.025795	16.806272	6.025795	2.974486E+10	1.021478E-5	97897.364834	18.004371	0.60324	0	0
0	0	0	24.357308	6.026095	16.410318	6.026095	2.473283E+10	1.105148E-5	90485.612708	18.026563	0.60094	0	0
0	0	0	24.010646	6.026069	16.008639	6.026069	2.050638E+10	8.933043E-6	111943.939279	18.068665	0.598541	0	0
0	0	0	23.657899	6.026157	15.599759	6.026157	1.694632E+10	8.070901E-6	123901.902631	18.056756	0.59638	0	0
0	0	0	23.290656	6.026303	15.173998	6.026303	1.389499E+10	7.851674E-6	127361.38134	18.010355	0.594337	0	0
0	0	0	22.923535	6.026151	14.748781	6.026151	1.139383E+10	5.395788E-6	185329.739359	17.953933	0.592454	0	0
0	0	0	22.555066	6.026484	14.321343	6.026484	9.336086E+9	6.84317E-6	146131.112992	17.940955	0.59055	0	0
0	0	0	22.186475	6.026398	13.894333	6.026398	7.649464E+9	4.911659E-6	203597.212048	17.980434	0.588211	0	0
0	0	0	21.813311	6.026212	13.462162	6.026212	6.252062E+9	3.166349E-6	315821.119098	17.994947	0.585871	0	0
0	0	0	21.432673	6.026525	13.02064	6.026525	5.089335E+9	3.999673E-6	250020.445326	17.955314	0.583829	0	0
0	0	0	21.052198	6.026465	12.579824	6.026465	4.143212E+9	2.946321E-6	339406.386591	17.900704	0.581826	0	0
0	0	0	20.665108	6.026611	12.131052	6.026611	3.360934E+9	3.119326E-6	320582.044225	17.861171	0.579943	0	0
0	0	0	20.275568	6.026565	11.679712	6.026565	2.722749E+9	2.304363E-6	433959.397405	17.877072	0.57788	0	0
0	0	0	19.88272	6.026572	11.224464	6.026572	2.201804E+9	1.887794E-6	529718.918933	17.907836	0.575541	0	0
0	0	0	19.484931	6.026857	10.763086	6.026857	1.775781E+9	3.386749E-6	295268.434957	17.896044	0.573499	0	0
0	0	0	19.081098	6.026731	10.295298	6.026731	1.427518E+9	1.76741E-6	565799.788182	17.851039	0.571496	0	0
0	0	0	18.678163	6.026731	9.828369	6.026731	1.148112E+9	1.421769E-6	703349.031439	17.794893	0.569771	0	0
0	0	0	18.270206	6.026725	9.355629	6.026725	9.208906E+8	1.119879E-6	892953.398223	17.789705	0.567867	0	0
0	0	0	17.864658	6.026698	8.885711	6.026698	7.396007E+8	8.386431E-7	1192402.414675	17.8216	0.565786	0	0
0	0	0	17.452861	6.026864	8.408264	6.026864	5.919973E+8	1.163747E-6	859293.101219	17.834683	0.563624	0	0
0	0	0	17.036573	6.026917	7.925779	6.026917	4.727022E+8	1.214457E-6	823413.233943	17.796913	0.561741	0	0
0	0	0	16.619101	6.026798	7.442183	6.026798	3.772049E+8	5.734252E-7	1743906.524857	17.744147	0.559817	0	0
0	0	0	16.199056	6.026858	6.955334	6.026858	3.005821E+8	5.742411E-7	1741428.736602	17.701176	0.558291	0	0
0	0	0	15.780276	6.026884	6.470001	6.026884	2.396879E+8	5.168954E-7	1934627.386992	17.721587	0.556367	0	0
0	0	0	15.360027	6.026725	5.983254	6.026725	1.909783E+8	2.323721E-7	4303442.3794	17.751112	0.554246	0	0
0	0	0	14.937246	6.026864	5.493108	6.026864	1.519593E+8	2.988821E-7	3345800.818686	17.745655	0.552283	0	0
0	0	0	14.510544	6.026851	4.998657	6.026851	1.206564E+8	2.241625E-7	4461050.254429	17.701574	0.5503	0	0
0	0	0	14.08225	6.026957	4.50217	6.026957	9.571933E+7	3.196541E-7	3128381.916393	17.641217	0.548674	0	0
0	0	0	13.64685	6.026878	3.997745	6.026878	7.564507E+7	1.58079E-7	6325952.363152	17.618813	0.546969	0	0
0	0	0	13.215249	6.026851	3.497637	6.026851	5.990364E+7	1.113006E-7	8984675.75628	17.643353	0.544927	0	0
0	0	0	12.790058	6.02709	3.004528	6.02709	4.760263E+7	5.14108E-5	19451.165394	17.674763	0.542845	0	0
0	0	0	12.362295	6.026924	2.509094	6.026924	3.777502E+7	1.009943E-7	9901549.371796	17.661478	0.540803	0	0
0	0	0	11.933919	6.02717	2.012277	6.02717	2.996641E+7	-1.681814E-7	-5945962.20419	17.599678	0.539177	0	0
0	0	0	11.509014	6.026971	1.520214	6.026971	2.381659E+7	8.835653E-8	1.131778E+7	17.55365	0.537373	0	0
0	0	0	11.086151	6.027004	1.030133	6.027004	1.894977E+7	9.721539E-8	1.028644E+7	17.54177	0.535766	0	0
0	0	0	10.664432	6.027037	0.541377	6.027037	1.508678E+7	1.254088E-7	7973919.814991	17.565449	0.533685	0	0
0	0	0	10.24308	6.027017	0.053136	6.027017	1.201367E+7	7.277825E-8	1.374037E+7	17.576038	0.531662	0	0
0	0	0	9.819972	6.026944	-0.437049	6.026944	9557454.625	2.902886E-8	3.444848E+7	17.544906	0.52962	0	0
0	0	0	9.398212	6.02723	-0.926285	6.02723	7608960.875	-2.434761E-8	-4.107179E+7	17.474938	0.528034	0	0
0	0	0	8.978943	6.02713	-1.411977	6.02713	6065872.5	-6.842683E-8	-1.461415E+7	17.443335	0.526368	0	0
0	0	0	8.565186	6.02721	-1.891589	6.02721	4850153.375	-1.811503E-8	-5.520278E+7	17.455124	0.524544	0	0
0	0	0	8.149429	6.027123	-2.373231	6.027123	3873895.5	-5.254556E-8	-1.90311E+7	17.470734	0.52274	0	0
0	0	0	7.735999	6.026951	-2.852023	6.026951	3098038.375	9.856596E-9	1.014549E+8	17.469745	0.520559	0	0
0	0	0	7.323019	6.02715	-3.330948	6.02715	2478170.25	-1.857375E-8	-5.383944E+7	17.42461	0.518754	0	0
0	0	0	6.917838	6.026904	-3.800047	6.026904	1990703.875	4.753559E-9	2.103687E+8	17.364521	0.517089	0	0
0	0	0	6.51666	6.027084	-4.265264	6.027084	1602587.5	1.01296E-7	9872060.802138	17.344138	0.515344	0	0
0	0	0	6.12961	6.027011	-4.713657	6.027011	1300031.75	7.222807E-9	1.384503E+8	17.350877	0.513639	0	0
0	0	0	5.747462	6.02721	-5.156862	6.02721	1057393.625	-3.949265E-9	-2.532117E+8	17.381161	0.511636	0	0
0	0	0	5.374909	6.02705	-5.588298	6.02705	864514.75	9.5587E-9	1.046167E+8	17.366364	0.509753	0	0
0	0	0	5.015547	6.02709	-6.00481	6.02709	711876.75	7.946774E-7	1258372.267608	17.311334	0.508008	0	0
0	0	0	4.664557	6.027084	-6.411536	6.027084	588847.125	3.722121E-8	2.68664E+7	17.249631	0.50654	0	0
0	0	0	4.348033	6.027183	-6.778518	6.027183	496240.25	-2.385233E-9	-4.192463E+8	17.222923	0.504855	0	0
0	0	0	4.041962	6.027263	-7.13335	6.027263	420567.5	-1.086343E-9	-9.205194E+8	17.2434	0.50317	0	0
0	0	0	3.746714	6.026971	-7.47495	6.026971	358525.5	1.330158E-9	7.517905E+8	17.264021	0.501108	0	0
0	0	0	3.464778	6.02717	-7.802037	6.02717	307843.375	-1.727535E-9	-5.788594E+8	17.243112	0.499323	0	0
0	0	0	3.189131	6.02711	-8.121354	6.02711	265226	-6.044646E-9	-1.654357E+8	17.186333	0.497796	0	0
0	0	0	2.92014	6.027256	-8.433344	6.027256	229332.125	-6.161262E-10	-1.623044E+9	17.128295	0.49627	0	0
0	0	0	2.661196	6.027044	-8.733016	6.027044	199375.75	1.892206E-9	5.284836E+8	17.122251	0.494485	0	0
0	0	0	2.412542	6.027064	-9.021201	6.027064	174299.25	2.876539E-9	3.4764E+8	17.149188	0.492721	0	0
0	0	0	2.176179	6.02719	-9.295345	6.02719	153392.75	-6.879477E-10	-1.453599E+9	17.168659	0.490817	0	0
0	0	0	1.955499	6.02723	-9.551153	6.02723	136143	-4.35632E-10	-2.295515E+9	17.13456	0.489251	0	0
0	0	0	1.750785	6.02721	-9.788345	6.02721	121880.625	-4.552117E-10	-2.19678E+9	17.076285	0.487665	0	0
0	0	0	1.564652	6.027097	-10.003825	6.027097	110213.75	-7.85615E-9	-1.272888E+8	17.02869	0.486078	0	0
0	0	0	1.397997	6.02723	-10.197205	6.02723	100718.75	-3.222811E-10	-3.102882E+9	17.010432	0.484651	0	0
0	0	0	1.249679	6.02719	-10.369004	6.02719	92958.625	-4.16908E-10	-2.398611E+9	17.032437	0.482767	0	0
0	0	0	1.114265	6.027057	-10.52567	6.027057	86397	1.144061E-9	8.740793E+8	17.044057	0.480943	0	0
0	0	0	0.995594	6.027097	-10.663267	6.027097	81028.5	-5.77579E-9	-1.731365E+8	17.004359	0.479416	0	0
0	0	0	0.891991	6.027296	-10.78371	6.027296	76615.25	-1.65919E-10	-6.027039E+9	16.933952	0.477909	0	0
0	0	0	0.793616	6.027303	-10.897724	6.027303	72647.25	-1.524001E-10	-6.561673E+9	16.888313	0.476402	0	0
0	0	0	0.712065	6.027183	-10.991996	6.027183	69514.25	-3.341275E-10	-2.99287E+9	16.879762	0.474915	0	0
0	0	0	0.640601	6.027143	-11.074733	6.027143	66880	-5.643869E-10	-1.771834E+9	16.9198	0.472853	0	0
0	0	0	0.574528	6.027402	-11.151805	6.027402	64533.375	-9.211756E-11	-1.085569E+10	16.92074	0.471267	0	0
0	0	0	0.514988	6.027356	-11.220712	6.027356	62489.375	-1.048333E-10	-9.538954E+9	16.884566	0.469602	0	0
0	0	0	0.462104	6.027223	-11.281736	6.027223	60728.25	-2.040642E-10	-4.90042E+9	16.817781	0.468253	0	0
0	0	0	0.426903	6.027296	-11.322671	6.027296	59583.5	-1.290348E-10	-7.749848E+9	16.777663	0.466766	0	0
0	0	0	0.379451	6.027223	-11.377517	6.027223	58074.5	-1.951468E-10	-5.124347E+9	16.780105	0.465279	0	0
0	0	0	0.3594	6.02717	-11.400649	6.02717	57448.5	-3.223855E-10	-3.101877E+9	16.809936	0.463455	0	0
0	0	0	0.325343	6.027303	-11.440376	6.027303	56400.5	-1.183175E-10	-8.451832E+9	16.819812	0.46167	0	0
0	0	0	0.296716	6.027163	-11.473277	6.027163	55534.375	-3.401306E-10	-2.940047E+9	16.780021	0.460104	0	0
0	0	0	0.28275	6.027103	-11.489344	6.027103	55116.625	-1.903628E-9	-5.253128E+8	16.705182	0.458756	0	0
0	0	0	0.25637	6.027269	-11.520239	6.027269	54336.25	-1.351429E-10	-7.399576E+9	16.662263	0.457328	0	0
0	0	0	0.230357	6.027263	-11.550371	6.027263	53577.5	-1.383928E-10	-7.225808E+9	16.662928	0.455782	0	0
0	0	0	0.219004	6.027303	-11.563604	6.027303	53249.75	-1.117079E-10	-8.951921E+9	16.684599	0.454156	0	0
0	0	0	0.209734	6.02717	-11.574087	6.02717	52983.625	-2.973298E-10	-3.363269E+9	16.687532	0.452371	0	0
0	0	0	0.19099	6.027183	-11.595834	6.027183	52449.5	-2.52104E-10	-3.966617E+9	16.642244	0.450944	0	0
0	0	0	0.169102	6.027323	-11.621472	6.027323	51832.5	-9.939862E-11	-1.00605E+10	16.577812	0.449397	0	0
0	0	0	0.15338	6.027263	-11.639574	6.027263	51393.75	-1.327521E-10	-7.532837E+9	16.525081	0.448168	0	0
0	0	0	0.147132	6.027356	-11.646997	6.027356	51220.5	-8.592843E-11	-1.163759E+10	16.516894	0.44672	0	0
0	0	0	0.142109	6.027303	-11.652714	6.027303	51081.625	-1.071596E-10	-9.331879E+9	16.532991	0.444976	0	0
0	0	0	0.133492	6.02725	-11.662595	6.02725	50844.25	-1.423046E-10	-7.027182E+9	16.543675	0.44327	0	0
0	0	0	0.118138	6.027382	-11.680648	6.027382	50424	-7.68915E-11	-1.300534E+10	16.497974	0.441882	0	0
0	0	0	0.101313	6.02703	-11.699456	6.02703	49967.5	3.695392E-10	2.706073E+9	16.453051	0.440177	0	0
0	0	0	0.088409	6.027004	-11.714358	6.027004	49620.125	2.54575E-10	3.928115E+9	16.393245	0.438928	0	0
0	0	0	0.079057	6.02721	-11.725598	6.02721	49369.875	-1.843914E-10	-5.423246E+9	16.38069	0.437441	0	0
0	0	0	0.073953	6.027117	-11.731331	6.027117	49233.875	-8.372765E-10	-1.194349E+9	16.386996	0.436033	0	0
0	0	0	0.070767	6.027329	-11.735439	6.027329	49149.125	-9.163024E-11	-1.091343E+10	16.392181	0.434447	0	0
0	0	0	0.068481	6.027163	-11.737764	6.027163	49088.375	-3.006509E-10	-3.326117E+9	16.36988	0.432801	0	0
0	0	0	0.063172	6.027084	-11.743759	6.027084	48947.75	3.094055E-9	3.232005E+8	16.30661	0.431572	0	0
0	0	0	0.05623	6.027236	-11.752104	6.027236	48764.375	-1.489248E-10	-6.714796E+9	16.254833	0.430184	0	0
0	0	0	0.047368	6.027263	-11.762425	6.027263	48531.375	-1.253585E-10	-7.977123E+9	16.22034	0.428895	0	0
0	0	0	0.036138	6.027243	-11.775399	6.027243	48237.625	-1.408944E-10	-7.097516E+9	16.242713	0.427369	0	0
0	0	0	0.027767	6.027196	-11.785009	6.027196	48019.75	-2.018518E-10	-4.954129E+9	16.247531	0.425743	0	0
0	0	0	0.018537	6.027137	-11.795587	6.027137	47780.875	-4.613131E-10	-2.167725E+9	16.225773	0.424176	0	0
0	0	0	0.012208	6.02711	-11.80287	6.02711	47617.625	-1.085229E-9	-9.214642E+8	16.180187	0.422749	0	0
0	0	0	0.006286	6.02717	-11.809849	6.02717	47465.5	-2.663636E-10	-3.754267E+9	16.111358	0.42144	0	0
0	0	0	0.002652	6.02703	-11.813788	6.02703	47372.25	3.503458E-10	2.854323E+9	16.088866	0.420211	0	0
0	0	0	0.001794	6.027057	-11.814833	6.027057	47350.375	6.270093E-10	1.594873E+9	16.086766	0.418803	0	0
0	0	0	-0.000411	6.027123	-11.817519	6.027123	47293.875	-6.41474E-10	-1.55891E+9	16.101342	0.417217	0	0
0	0	0	-0.002248	6.027276	-11.819948	6.027276	47247	-1.13305E-10	-8.825738E+9	16.083571	0.415611	0	0
0	0	0	-0.004127	6.027024	-11.82163	6.027024	47199	3.143663E-10	3.181003E+9	16.036093	0.414183	0	0
0	0	0	-0.005515	6.027143	-11.823473	6.027143	47163.625	-3.980043E-10	-2.512536E+9	15.977176	0.412835	0	0
0	0	0	-0.006781	6.027044	-11.824745	6.027044	47131.375	4.473078E-10	2.235597E+9	15.926161	0.411665	0	0
0	0	0	-0.008741	6.027303	-11.827524	6.027303	47081.375	-9.876779E-11	-1.012476E+10	15.928872	0.410277	0	0
0	0	0	-0.009027	6.02719	-11.827634	6.02719	47074.125	-2.111216E-10	-4.736606E+9	15.936504	0.408889	0	0
0	0	0	-0.0116	6.027283	-11.830798	6.027283	47008.75	-1.088382E-10	-9.187952E+9	15.947133	0.407204	0	0
0	0	0	-0.014867	6.027216	-11.834453	6.027216	46925.75	-1.660093E-10	-6.02376E+9	15.904892	0.405935	0	0
0	0	0	-0.0165	6.02707	-11.83606	6.02707	46884.375	1.026615E-9	9.740745E+8	15.844	0.404507	0	0
0	0	0	-0.017195	6.027216	-11.837151	6.027216	46866.75	-1.658006E-10	-6.031343E+9	15.790443	0.403377	0	0
0	0	0	-0.018093	6.02715	-11.838062	6.02715	46844	-3.510893E-10	-2.848278E+9	15.762759	0.402108	0	0
0	0	0	-0.020257	6.027216	-11.8407	6.027216	46789.25	-1.655264E-10	-6.041333E+9	15.761151	0.400661	0	0
0	0	0	-0.021523	6.027256	-11.842245	6.027256	46757.25	-1.256185E-10	-7.960611E+9	15.778311	0.399134	0	0
0	0	0	-0.023851	6.027289	-11.845008	6.027289	46698.375	-1.045084E-10	-9.568611E+9	15.740793	0.397667	0	0
0	0	0	-0.025158	6.027283	-11.846509	6.027283	46665.5	-1.080435E-10	-9.255534E+9	15.695975	0.396398	0	0
0	0	0	-0.026709	6.027256	-11.848255	6.027256	46626.375	-1.252669E-10	-7.982955E+9	15.630022	0.395208	0	0
0	0	0	-0.028343	6.027289	-11.850213	6.027289	46585.125	-1.042549E-10	-9.591873E+9	15.589674	0.394038	0	0
0	0	0	-0.030793	6.027342	-11.853157	6.027342	46523.5	-8.216298E-11	-1.217093E+10	15.598046	0.39265	0	0
0	0	0	-0.031365	6.027243	-11.853624	6.027243	46509.125	-1.358457E-10	-7.361293E+9	15.612616	0.391124	0	0
0	0	0	-0.033243	6.027077	-11.855475	6.027077	46461.875	1.51123E-9	6.617126E+8	15.608941	0.389756	0	0
0	0	0	-0.03357	6.027336	-11.856362	6.027336	46453.75	-8.426069E-11	-1.186793E+10	15.572505	0.388249	0	0
0	0	0	-0.03553	6.027263	-11.85849	6.027263	46404.5	-1.198647E-10	-8.342741E+9	15.524618	0.38696	0	0
0	0	0	-0.036919	6.027196	-11.859969	6.027196	46369.75	-1.94916E-10	-5.130414E+9	15.462028	0.386008	0	0
0	0	0	-0.03745	6.027177	-11.860545	6.027177	46356.375	-2.40036E-10	-4.166043E+9	15.447295	0.384779	0	0
0	0	0	-0.039246	6.02711	-11.862497	6.02711	46311.375	-1.055459E-9	-9.474549E+8	15.464941	0.38345	0	0
0	0	0	-0.043207	6.026957	-11.866788	6.026957	46212.375	1.543578E-10	6.478456E+9	15.475053	0.381745	0	0
0	0	0	-0.04578	6.027177	-11.870199	6.027177	46148.125	-2.389576E-10	-4.184842E+9	15.436761	0.380516	0	0
0	0	0	-0.04774	6.027203	-11.872522	6.027203	46099.25	-1.823398E-10	-5.484265E+9	15.382987	0.379128	0	0
0	0	0	-0.049782	6.027289	-11.875058	6.027289	46048.375	-1.030537E-10	-9.703678E+9	15.328429	0.378196	0	0
0	0	0	-0.054723	6.02725	-11.880706	6.02725	45925.625	-1.285381E-10	-7.779792E+9	15.287177	0.377026	0	0
0	0	0	-0.05554	6.027177	-11.881509	6.027177	45905.25	-2.377E-10	-4.206983E+9	15.280289	0.375797	0	0
0	0	0	-0.058235	6.027084	-11.88445	6.027084	45838.5	2.897515E-9	3.451234E+8	15.291294	0.374349	0	0
0	0	0	-0.061216	6.027137	-11.888009	6.027137	45764.625	-4.418466E-10	-2.263229E+9	15.28296	0.373061	0	0
0	0	0	-0.062237	6.027203	-11.889322	6.027203	45739.375	-1.809164E-10	-5.527415E+9	15.245421	0.371851	0	0
0	0	0	-0.064034	6.027137	-11.891274	6.027137	45695	-4.411744E-10	-2.266677E+9	15.178757	0.370642	0	0
0	0	0	-0.065749	6.02707	-11.893131	6.02707	45652.625	9.996442E-10	1.000356E+9	15.127568	0.369511	0	0
0	0	0	-0.067097	6.02707	-11.894693	6.02707	45619.375	9.989161E-10	1.001085E+9	15.091729	0.36852	0	0
0	0	0	-0.067138	6.02715	-11.894896	6.02715	45618.375	-3.419034E-10	-2.924803E+9	15.097624	0.367211	0	0
0	0	0	-0.068199	6.02705	-11.895931	6.02705	45592.25	5.041033E-10	1.983721E+9	15.107115	0.365883	0	0
0	0	0	-0.069547	6.027117	-11.897623	6.027117	45559	-7.747812E-10	-1.290687E+9	15.091698	0.364555	0	0
0	0	0	-0.070895	6.02717	-11.899289	6.02717	45525.875	-2.554789E-10	-3.914217E+9	15.053254	0.363504	0	0
0	0	0	-0.071752	6.027289	-11.900517	6.027289	45504.75	-1.018371E-10	-9.819603E+9	14.986884	0.362532	0	0
0	0	0	-0.072365	6.027177	-11.901006	6.027177	45489.625	-2.355479E-10	-4.245421E+9	14.930868	0.36158	0	0
0	0	0	-0.072691	6.02715	-11.901332	6.02715	45481.625	-3.408785E-10	-2.933597E+9	14.917595	0.360371	0	0
0	0	0	-0.074611	6.027157	-11.903569	6.027157	45434.5	-3.062672E-10	-3.265123E+9	14.935004	0.358983	0	0
0	0	0	-0.074529	6.027216	-11.903592	6.027216	45436.5	-1.607408E-10	-6.221198E+9	14.938063	0.357892	0	0
0	0	0	-0.075019	6.027057	-11.903847	6.027057	45424.375	6.015054E-10	1.662495E+9	14.915254	0.356524	0	0
0	0	0	-0.075346	6.02719	-11.904486	6.02719	45416.375	-2.036868E-10	-4.909497E+9	14.860904	0.355573	0	0
0	0	0	-0.07555	6.027084	-11.904515	6.027084	45411.375	2.870516E-9	3.483695E+8	14.795195	0.354522	0	0
0	0	0	-0.075836	6.027203	-11.90508	6.027203	45404.375	-1.795913E-10	-5.568197E+9	14.762534	0.353471	0	0
0	0	0	-0.076653	6.02711	-11.905844	6.02711	45384.375	-1.034332E-9	-9.668072E+8	14.750409	0.352499	0	0
0	0	0	-0.075918	6.02721	-11.905188	6.02721	45402.375	-1.695732E-10	-5.897158E+9	14.751605	0.351191	0	0
0	0	0	-0.076693	6.02717	-11.906009	6.02717	45383.375	-2.546793E-10	-3.926507E+9	14.755444	0.349981	0	0
0	0	0	-0.075999	6.02721	-11.905283	6.02721	45400.375	-1.695657E-10	-5.897418E+9	14.720096	0.348871	0	0
0	0	0	-0.075632	6.026957	-11.904362	6.026957	45409.375	1.516756E-10	6.593018E+9	14.665319	0.347681	0	0
0	0	0	-0.075877	6.02713	-11.904984	6.02713	45403.375	-5.121566E-10	-1.952528E+9	14.6076	0.34671	0	0
0	0	0	-0.075795	6.027077	-11.904785	6.027077	45405.375	1.476866E-9	6.771094E+8	14.559605	0.345877	0	0
0	0	0	-0.075877	6.027143	-11.90501	6.027143	45403.375	-3.831499E-10	-2.609944E+9	14.5559	0.344687	0	0
0	0	0	-0.076448	6.027103	-11.905595	6.027103	45389.375	-1.567666E-9	-6.378909E+8	14.560885	0.343458	0	0
0	0	0	-0.074815	6.027296	-11.90408	6.027296	45429.5	-9.83827E-11	-1.016439E+10	14.547637	0.342209	0	0
0	0	0	-0.075591	6.02707	-11.904536	6.02707	45410.375	9.943397E-10	1.005693E+9	14.503869	0.341198	0	0
0	0	0	-0.075019	6.027123	-11.903978	6.027123	45424.375	-6.161169E-10	-1.623069E+9	14.447374	0.340147	0	0
0	0	0	-0.07555	6.027064	-11.904475	6.027064	45411.375	7.494449E-10	1.334321E+9	14.378861	0.339175	0	0
0	0	0	-0.075223	6.027044	-11.904058	6.027044	45419.375	4.310598E-10	2.319864E+9	14.33697	0.338223	0	0
0	0	0	-0.075019	6.027309	-11.904342	6.027309	45424.375	-9.239883E-11	-1.082265E+10	14.33313	0.337093	0	0
0	0	0	-0.074938	6.027137	-11.903909	6.027137	45426.5	-4.385821E-10	-2.280075E+9	14.335433	0.336042	0	0
0	0	0	-0.074611	6.02721	-11.903674	6.02721	45434.5	-1.696932E-10	-5.892988E+9	14.327213	0.334833	0	0
0	0	0	-0.074652	6.027236	-11.903773	6.027236	45433.5	-1.387525E-10	-7.20708E+9	14.305042	0.333623	0	0
0	0	0	-0.074488	6.027243	-11.903597	6.027243	45437.5	-1.327156E-10	-7.534907E+9	14.26452	0.332513	0	0
0	0	0	-0.074733	6.027163	-11.903724	6.027163	45431.5	-2.782536E-10	-3.593843E+9	14.200812	0.33174	0	0
0	0	0	-0.074162	6.027289	-11.90331	6.027289	45445.5	-1.017045E-10	-9.832406E+9	14.142708	0.330887	0	0
0	0	0	-0.075142	6.027157	-11.904185	6.027157	45421.375	-3.061787E-10	-3.266066E+9	14.129925	0.329856	0	0
0	0	0	-0.074692	6.02717	-11.90369	6.02717	45432.5	-2.549549E-10	-3.922262E+9	14.146269	0.328726	0	0
0	0	0	-0.07555	6.02703	-11.90441	6.02703	45411.375	3.35844E-10	2.977573E+9	14.146197	0.327477	0	0
0	0	0	-0.076734	6.027137	-11.905991	6.027137	45382.375	-4.381561E-10	-2.282292E+9	14.132855	0.326287	0	0
0	0	0	-0.075918	6.027183	-11.905136	6.027183	45402.375	-2.182312E-10	-4.582295E+9	14.083748	0.325375	0	0
0	0	0	-0.077102	6.027183	-11.906508	6.027183	45373.375	-2.180918E-10	-4.585224E+9	14.024857	0.324582	0	0
0	0	0	-0.077388	6.02721	-11.906892	6.02721	45366.25	-1.694383E-10	-5.901854E+9	13.969278	0.323769	0	0
0	0	0	-0.077469	6.027183	-11.906934	6.027183	45364.375	-2.180486E-10	-4.586134E+9	13.937503	0.322698	0	0
0	0	0	-0.077837	6.027057	-11.907113	6.027057	45355.25	6.005901E-10	1.665029E+9	13.945644	0.321489	0	0
0	0	0	-0.078082	6.02703	-11.907344	6.02703	45349.25	3.353845E-10	2.981652E+9	13.940287	0.320458	0	0
0	0	0	-0.079389	6.027064	-11.908924	6.027064	45317.25	7.478915E-10	1.337092E+9	13.915334	0.319288	0	0
0	0	0	-0.08045	6.027349	-11.910715	6.027349	45291.25	-7.793265E-11	-1.283159E+10	13.88235	0.318217	0	0
0	0	0	-0.080532	6.027289	-11.910692	6.027289	45289.25	-1.013548E-10	-9.866328E+9	13.822693	0.317385	0	0
0	0	0	-0.081594	6.02711	-11.91157	6.02711	45263.25	-1.031572E-9	-9.693944E+8	13.762458	0.316532	0	0
0	0	0	-0.0809	6.027157	-11.910857	6.027157	45280.25	-3.052274E-10	-3.276246E+9	13.718183	0.31558	0	0
0	0	0	-0.0809	6.02723	-11.911001	6.02723	45280.25	-1.448883E-10	-6.90187E+9	13.715204	0.31441	0	0
0	0	0	-0.082451	6.027163	-11.912668	6.027163	45242.25	-2.770946E-10	-3.608876E+9	13.699034	0.313617	0	0
0	0	0	-0.084044	6.027163	-11.914514	6.027163	45203.375	-2.768565E-10	-3.61198E+9	13.70477	0.312388	0	0
0	0	0	-0.085187	6.027057	-11.915631	6.027057	45175.375	5.982082E-10	1.671659E+9	13.675177	0.311258	0	0
0	0	0	-0.088699	6.02717	-11.919922	6.02717	45089.75	-2.530315E-10	-3.952077E+9	13.61033	0.310385	0	0
0	0	0	-0.088454	6.027044	-11.91939	6.027044	45095.75	4.279884E-10	2.336512E+9	13.551844	0.309592	0	0
0	0	0	-0.090455	6.027183	-11.921983	6.027183	45047	-2.165231E-10	-4.618445E+9	13.502577	0.3087	0	0
0	0	0	-0.090986	6.02707	-11.922376	6.02707	45034	9.860983E-10	1.014098E+9	13.470137	0.307788	0	0
0	0	0	-0.090864	6.027256	-11.922599	6.027256	45037	-1.209969E-10	-8.264677E+9	13.479152	0.306519	0	0
0	0	0	-0.092211	6.02723	-11.924109	6.02723	45004.25	-1.440051E-10	-6.944197E+9	13.454771	0.305726	0	0
0	0	0	-0.091558	6.027283	-11.923456	6.027283	45020.125	-1.04234E-10	-9.593801E+9	13.440112	0.304497	0	0
0	0	0	-0.08874	6.02725	-11.920126	6.02725	45088.75	-1.261959E-10	-7.924189E+9	13.397098	0.303525	0	0
0	0	0	-0.089067	6.027203	-11.920413	6.027203	45080.75	-1.783113E-10	-5.60817E+9	13.337695	0.302791	0	0
0	0	0	-0.088699	6.027044	-11.919674	6.027044	45089.75	4.279315E-10	2.336823E+9	13.293203	0.30182	0	0
0	0	0	-0.086984	6.02725	-11.918091	6.02725	45131.5	-1.263155E-10	-7.916683E+9	13.246748	0.300928	0	0
0	0	0	-0.088128	6.027289	-11.919494	6.027289	45103.625	-1.009394E-10	-9.906933E+9	13.227811	0.300075	0	0
0	0	0	-0.087515	6.027037	-11.918289	6.027037	45118.625	3.750783E-10	2.66611E+9	13.226026	0.298965	0	0
0	0	0	-0.085351	6.02723	-11.916159	6.02723	45171.5	-1.445403E-10	-6.918486E+9	13.215513	0.297993	0	0
0	0	0	-0.086617	6.027296	-11.917756	6.027296	45140.5	-9.775684E-11	-1.022946E+10	13.19813	0.296942	0	0
0	0	0	-0.083758	6.027309	-11.91447	6.027309	45210.375	-9.196353E-11	-1.087388E+10	13.146926	0.296149	0	0
0	0	0	-0.083717	6.027296	-11.914396	6.027296	45211.375	-9.791033E-11	-1.021343E+10	13.086226	0.295197	0	0
0	0	0	-0.082696	6.026957	-11.912548	6.026957	45236.375	1.510977E-10	6.618233E+9	13.038584	0.294226	0	0
0	0	0	-0.083677	6.027376	-11.914505	6.027376	45212.375	-7.05499E-11	-1.417436E+10	12.993979	0.293532	0	0
0	0	0	-0.083268	6.02705	-11.913393	6.02705	45222.375	5.000136E-10	1.999945E+9	12.959458	0.292679	0	0
0	0	0	-0.082247	6.027223	-11.912549	6.027223	45247.25	-1.520436E-10	-6.577061E+9	12.964864	0.291569	0	0
0	0	0	-0.082901	6.02707	-11.913007	6.02707	45231.375	9.904202E-10	1.009672E+9	12.937633	0.290815	0	0
0	0	0	-0.080777	6.027123	-11.91065	6.027123	45283.25	-6.142027E-10	-1.628127E+9	12.922655	0.289665	0	0
0	0	0	-0.081349	6.02717	-11.911404	6.02717	45269.25	-2.540388E-10	-3.936406E+9	12.878927	0.288773	0	0
0	0	0	-0.082941	6.02725	-11.913406	6.02725	45230.25	-1.265919E-10	-7.899399E+9	12.805014	0.28798	0	0
0	0	0	-0.082656	6.027196	-11.91297	6.027196	45237.25	-1.901555E-10	-5.258853E+9	12.743187	0.287127	0	0
0	0	0	-0.082615	6.027256	-11.91304	6.027256	45238.25	-1.215375E-10	-8.22791E+9	12.710828	0.286473	0	0
0	0	0	-0.081635	6.02723	-11.911852	6.02723	45262.25	-1.448307E-10	-6.904614E+9	12.698411	0.285502	0	0
0	0	0	-0.082125	6.027336	-11.912629	6.027336	45250.25	-8.20777E-11	-1.218358E+10	12.689297	0.28451	0	0
0	0	0	-0.08237	6.027097	-11.912444	6.027097	45244.25	-3.225051E-9	-3.100726E+8	12.68261	0.283499	0	0
0	0	0	-0.082002	6.02703	-11.911887	6.02703	45253.25	3.346746E-10	2.987977E+9	12.647041	0.282666	0	0
0	0	0	-0.083922	6.027196	-11.914437	6.027196	45206.375	-1.900258E-10	-5.262444E+9	12.597519	0.281794	0	0
0	0	0	-0.084861	6.02719	-11.915513	6.02719	45183.375	-2.026419E-10	-4.934814E+9	12.560417	0.280882	0	0
0	0	0	-0.085187	6.027256	-11.916022	6.027256	45175.375	-1.213686E-10	-8.239362E+9	12.504917	0.280089	0	0
0	0	0	-0.086127	6.027196	-11.916993	6.027196	45152.5	-1.897993E-10	-5.268723E+9	12.463384	0.279395	0	0
0	0	0	-0.086698	6.027097	-11.91746	6.027097	45138.5	-3.217514E-9	-3.10799E+8	12.434993	0.278443	0	0
0	0	0	-0.086821	6.027243	-11.917888	6.027243	45135.5	-1.318336E-10	-7.585322E+9	12.43268	0.277571	0	0
0	0	0	-0.088169	6.027183	-11.919333	6.027183	45102.75	-2.167911E-10	-4.612736E+9	12.426713	0.276559	0	0
0	0	0	-0.088046	6.027309	-11.919438	6.027309	45105.625	-9.175045E-11	-1.089913E+10	12.393656	0.275707	0	0
0	0	0	-0.088904	6.027223	-11.920263	6.027223	45084.75	-1.514976E-10	-6.600767E+9	12.370652	0.274735	0	0
0	0	0	-0.090251	6.02713	-11.921642	6.02713	45052	-5.081931E-10	-1.967756E+9	12.318568	0.273764	0	0
0	0	0	-0.091803	6.027177	-11.923531	6.027177	45014.125	-2.330857E-10	-4.290267E+9	12.236434	0.273169	0	0
0	0	0	-0.090292	6.02711	-11.92165	6.02711	45050.875	-1.026732E-9	-9.739642E+8	12.18577	0.272396	0	0
0	0	0	-0.093722	6.027057	-11.925521	6.027057	44967.5	5.954555E-10	1.679387E+9	12.152157	0.271583	0	0
0	0	0	-0.094662	6.027309	-11.927105	6.027309	44944.625	-9.142296E-11	-1.093817E+10	12.139555	0.270829	0	0
0	0	0	-0.097643	6.027163	-11.930273	6.027163	44872.25	-2.748284E-10	-3.638634E+9	12.115818	0.270056	0	0
0	0	0	-0.098378	6.02713	-11.931059	6.02713	44854.5	-5.059652E-10	-1.97642E+9	12.108835	0.268985	0	0
0	0	0	-0.101195	6.027077	-11.93422	6.027077	44786.25	1.456728E-9	6.864698E+8	12.078198	0.268073	0	0
0	0	0	-0.102625	6.027177	-11.936072	6.027177	44751.625	-2.317265E-10	-4.315433E+9	12.057857	0.267161	0	0
0	0	0	-0.102176	6.027143	-11.935486	6.027143	44762.5	-3.777417E-10	-2.647312E+9	11.995007	0.266328	0	0
0	0	0	-0.103727	6.02721	-11.937415	6.02721	44724.875	-1.670428E-10	-5.986489E+9	11.911934	0.265694	0	0
0	0	0	-0.104871	6.027243	-11.938805	6.027243	44697.25	-1.305535E-10	-7.659695E+9	11.866504	0.26492	0	0
0	0	0	-0.104217	6.027017	-11.937605	6.027017	44713.125	2.708825E-10	3.691637E+9	11.845535	0.264147	0	0
0	0	0	-0.104748	6.027143	-11.938468	6.027143	44700.25	-3.772164E-10	-2.650998E+9	11.822471	0.263215	0	0
0	0	0	-0.103156	6.027103	-11.936544	6.027103	44738.75	-1.545195E-9	-6.471676E+8	11.79382	0.262442	0	0
0	0	0	-0.09993	6.027137	-11.93287	6.027137	44816.875	-4.326963E-10	-2.31109E+9	11.795518	0.26149	0	0
0	0	0	-0.100542	6.027289	-11.93388	6.027289	44802	-1.002644E-10	-9.973631E+9	11.742271	0.260717	0	0
0	0	0	-0.098868	6.027157	-11.931679	6.027157	44842.5	-3.022766E-10	-3.308228E+9	11.705375	0.259904	0	0
0	0	0	-0.099562	6.027243	-11.932653	6.027243	44825.75	-1.309288E-10	-7.637738E+9	11.648727	0.259071	0	0
0	0	0	-0.096744	6.027057	-11.929023	6.027057	44894.125	5.944839E-10	1.682131E+9	11.586073	0.258457	0	0
0	0	0	-0.097357	6.027269	-11.93015	6.027269	44879.25	-1.116218E-10	-8.958822E+9	11.550933	0.257604	0	0
0	0	0	-0.096336	6.027157	-11.928745	6.027157	44904	-3.026912E-10	-3.303697E+9	11.51328	0.256831	0	0
0	0	0	-0.096173	6.027256	-11.928751	6.027256	44908	-1.206503E-10	-8.288418E+9	11.473444	0.256216	0	0
0	0	0	-0.094049	6.027309	-11.926395	6.027309	44959.5	-9.145322E-11	-1.093455E+10	11.463039	0.255284	0	0
0	0	0	-0.093927	6.02719	-11.926018	6.02719	44962.5	-2.016513E-10	-4.959056E+9	11.440443	0.254412	0	0
0	0	0	-0.093722	6.027223	-11.925847	6.027223	44967.5	-1.511036E-10	-6.617978E+9	11.422645	0.25342	0	0
0	0	0	-0.092293	6.02717	-11.924086	6.02717	45002.25	-2.525405E-10	-3.959761E+9	11.382174	0.252865	0	0
0	0	0	-0.090374	6.027223	-11.921966	6.027223	45049	-1.513774E-10	-6.606005E+9	11.33194	0.251933	0	0
0	0	0	-0.090251	6.026997	-11.921381	6.026997	45052	2.146989E-10	4.657685E+9	0	0	0	0
0	0	0	-0.088822	6.027084	-11.919894	6.027084	45086.75	2.849996E-9	3.508777E+8	0	0	0	0
0	0	0	-0.087352	6.027183	-11.918386	6.027183	45122.625	-2.168866E-10	-4.610705E+9	0	0	0	0
0	0	0	-0.087148	6.027157	-11.918098	6.027157	45127.625	-3.041986E-10	-3.287326E+9	0	0	0	0
0	0	0	-0.086249	6.02723	-11.9172	6.02723	45149.5	-1.444699E-10	-6.921857E+9	0	0	0	0
0	0	0	-0.086331	6.02703	-11.916904	6.02703	45147.5	3.338925E-10	2.994976E+9	0	0	0	0
0	0	0	-0.088128	6.026991	-11.918908	6.026991	45103.625	2.006724E-10	4.983247E+9	0	0	0	0
0	0	0	-0.087883	6.02711	-11.918858	6.02711	45109.625	-1.028071E-9	-9.726957E+8	0	0	0	0
0	0	0	-0.090619	6.02707	-11.921951	6.02707	45043	9.862954E-10	1.013895E+9	0	0	0	0
0	0	0	-0.090333	6.02715	-11.921776	6.02715	45049.875	-3.376426E-10	-2.961712E+9	0	0	0	0
0	0	0	-0.091844	6.02717	-11.923566	6.02717	45013.125	-2.526015E-10	-3.958804E+9	0	0	0	0
0	0	0	-0.092048	6.02723	-11.92392	6.02723	45008.25	-1.440179E-10	-6.94358E+9	0	0	0	0
0	0	0	-0.092007	6.027323	-11.924055	6.027323	45009.125	-8.631351E-11	-1.158567E+10	0	0	0	0
0	0	0	-0.094049	6.027143	-11.926069	6.027143	44959.5	-3.794042E-10	-2.635712E+9	0	0	0	0
0	0	0	-0.095356	6.02715	-11.927596	6.02715	44927.75	-3.367272E-10	-2.969763E+9	0	0	0	0
0	0	0	-0.097193	6.02725	-11.929921	6.02725	44883.125	-1.256204E-10	-7.960493E+9	0	0	0	0
0	0	0	-0.09752	6.02719	-11.930183	6.02719	44875.25	-2.0126E-10	-4.968698E+9	0	0	0	0
0	0	0	-0.098541	6.027117	-11.931222	6.027117	44850.5	-7.627324E-10	-1.311076E+9	0	0	0	0
0	0	0	-0.100256	6.027077	-11.933132	6.027077	44808.875	1.457464E-9	6.861231E+8	0	0	0	0
0	0	0	-0.100869	6.027203	-11.934089	6.027203	44794.125	-1.771776E-10	-5.644055E+9	0	0	0	0
0	0	0	-0.101685	6.027123	-11.934879	6.027123	44774.25	-6.072989E-10	-1.646636E+9	0	0	0	0
0	0	0	-0.103237	6.027044	-11.936521	6.027044	44736.75	4.245813E-10	2.355262E+9	0	0	0	0
0	0	0	-0.10434	6.026944	-11.937603	6.026944	44710.125	1.358005E-10	7.363741E+9	0	0	0	0
0	0	0	-0.10777	6.027077	-11.941839	6.027077	44627.25	1.451557E-9	6.889155E+8	0	0	0	0
0	0	0	-0.110751	6.026997	-11.945137	6.026997	44555.5	2.123328E-10	4.709588E+9	0	0	0	0
0	0	0	-0.111323	6.027024	-11.945852	6.027024	44541.625	2.96667E-10	3.370783E+9	0	0	0	0
0	0	0	-0.114917	6.027077	-11.950121	6.027077	44455.25	1.445962E-9	6.91581E+8	0	0	0	0
0	0	0	-0.114998	6.02713	-11.95032	6.02713	44453.25	-5.014391E-10	-1.99426E+9	0	0	0	0
0	0	0	-0.11753	6.02707	-11.953136	6.02707	44392.5	9.720515E-10	1.028752E+9	0	0	0	0
0	0	0	-0.116999	6.027064	-11.952508	6.027064	44405.25	7.328404E-10	1.364554E+9	0	0	0	0
0	0	0	-0.115692	6.027309	-11.951476	6.027309	44436.625	-9.038962E-11	-1.106322E+10	0	0	0	0
0	0	0	-0.112548	0	-0.112548	0	44512.125	0	0	0	0	0	0
0	0	0	-0.110833	0	-0.110833	0	44553.5	0	0	0	0	0	0
