Vload_(V)	ILoad_(A)	RsLoad (ohm)	SunsVoc_Voltage_(V)	SunsVoc_Current_(A)	Model_Voltage_(V)	Model_Current_(A)	Carrier_Density_(cm-3)	Lifetime_(s)	Inverse_Lifetime_(s-1)	Efficiency_(%)	Intensity_(suns)	Dark_IV_Voltage_(V)	Dark_IV_Current_(A)
2.966026	6.033189	0	51.890162	-0.689161	52.274853	-0.689161	9.85369E+15	0.000652	1372.429524	19.108802	1.192442	0	0
2.96357	6.033471	-0.511123	52.396903	-0.899906	52.884065	-0.899906	1.140694E+16	0.000732	1150.31646	19.10966	1.191471	0	0
3.028843	6.034	-0.523003	52.51733	-0.752627	52.921749	-0.752627	1.180857E+16	0.000774	1060.33027	19.095301	1.191015	0	0
3.612194	6.030759	4.046411	52.4807	-0.425019	52.709598	-0.425019	1.168501E+16	0.000805	1015.782781	19.036776	1.189569	0	0
5.604479	6.029258	4.075086	52.401109	-0.064513	52.436024	-0.064513	1.142075E+16	0.000833	983.708437	18.948723	1.188856	0	0
8.083805	6.02211	4.500206	52.290442	0.315238	52.118672	0.315238	1.106265E+16	0.000861	958.757228	18.940407	1.185984	0	0
10.635949	6.000474	4.725468	52.176386	0.669233	51.809189	0.669233	1.070468E+16	0.000888	936.208857	18.952136	1.183349	0	0
12.674869	5.981894	4.636632	52.056081	0.985533	51.511392	0.985533	1.033892E+16	0.000911	920.062739	18.936399	1.18018	0	0
14.696669	5.984224	4.273132	51.939084	1.287578	51.22245	1.287578	9.994495E+15	0.000937	901.572992	18.853971	1.178456	0	0
16.808588	5.984035	3.922415	51.822006	1.574028	50.939811	1.574028	9.660621E+15	0.000964	882.700575	18.791891	1.176991	0	0
18.989153	5.980744	3.592744	51.69921	1.852994	50.653095	1.852994	9.321673E+15	0.000992	863.835964	18.788349	1.175584	0	0
21.212957	5.97985	3.230306	51.56841	2.107493	50.369448	2.107493	8.972866E+15	0.001017	849.856668	18.837502	1.173425	0	0
23.406007	5.979039	2.871919	51.449862	2.335667	50.111881	2.335667	8.667273E+15	0.001043	834.301971	18.855729	1.170711	0	0
25.606751	5.976848	2.524779	51.32629	2.555441	49.851909	2.555441	8.359054E+15	0.001069	819.270764	18.810682	1.168453	0	0
27.705032	5.975503	2.186524	51.213867	2.751326	49.61618	2.751326	8.08751E+15	0.001096	803.638777	18.786133	1.165818	0	0
29.871306	5.973222	1.844691	51.091888	2.945155	49.369696	2.945155	7.802141E+15	0.001124	788.684354	18.806298	1.163124	0	0
32.053292	5.968426	1.519897	50.968317	3.123288	49.129124	3.123288	7.522558E+15	0.00115	775.632644	18.851623	1.159836	0	0
32.784045	5.971158	1.374785	50.856751	3.282482	48.911634	3.282482	7.278105E+15	0.001177	761.675502	18.840455	1.156567	0	0
33.491966	5.971367	1.254418	50.736202	3.435987	48.686344	3.435987	7.022198E+15	0.001203	749.571293	18.791469	1.153517	0	0
34.181212	5.96657	1.178145	50.627699	3.572745	48.48336	3.572745	6.798956E+15	0.001229	736.775869	18.761066	1.150605	0	0
34.891294	5.965261	1.069463	50.509722	3.70962	48.268675	3.70962	6.563614E+15	0.001257	724.286671	18.790272	1.147752	0	0
35.596092	5.963101	0.967617	50.395951	3.833127	48.065786	3.833127	6.343739E+15	0.001283	712.814254	18.829488	1.144127	0	0
36.315351	5.958383	0.880137	50.282303	3.946895	47.868058	3.946895	6.130827E+15	0.001307	702.582717	18.813733	1.140899	0	0
37.01769	5.941708	0.866669	50.164898	4.055469	47.668404	4.055469	5.917723E+15	0.001331	693.148338	18.777877	1.137689	0	0
37.717247	5.924591	0.839111	50.056967	4.157065	47.483008	4.157065	5.727772E+15	0.001358	681.862062	18.76904	1.134381	0	0
38.422289	5.904667	0.808904	49.940337	4.256171	47.288504	4.256171	5.528734E+15	0.001384	671.792711	18.812684	1.130301	0	0
39.11376	5.874007	0.80176	49.82379	4.350285	47.096454	4.350285	5.336098E+15	0.00141	661.702806	18.833928	1.126299	0	0
39.82405	5.836452	0.788954	49.709651	4.433306	46.913437	4.433306	5.153329E+15	0.001433	653.814394	18.806037	1.122377	0	0
40.527411	5.791463	0.774385	49.599352	4.514298	46.735492	4.514298	4.982074E+15	0.001459	644.140685	18.75228	1.11899	0	0
41.224313	5.734813	0.762327	49.485091	4.588675	46.556608	4.588675	4.810068E+15	0.001481	636.684656	18.7415	1.115919	0	0
41.930527	5.664831	0.748048	49.377732	4.659027	46.387713	4.659027	4.653312E+15	0.001506	627.902303	18.795334	1.112096	0	0
42.634392	5.580172	0.730474	49.260898	4.726496	46.209213	4.726496	4.487917E+15	0.001528	621.082447	18.821604	1.108412	0	0
43.328082	5.475812	0.714023	49.157949	4.786743	46.050974	4.786743	4.346535E+15	0.001551	613.286072	18.793215	1.104787	0	0
44.012012	5.34607	0.700417	49.042463	4.846722	45.877939	4.846722	4.192655E+15	0.001572	606.968514	18.755932	1.101696	0	0
44.688399	5.197533	0.680159	48.93686	4.903219	45.718226	4.903219	4.056187E+15	0.001597	598.92898	18.767018	1.09827	0	0
45.35154	5.009786	0.667861	48.826152	4.955311	45.555076	4.955311	3.917349E+15	0.001617	593.068903	18.829447	1.093971	0	0
46.016062	4.796584	0.648654	48.716546	5.00696	45.393123	5.00696	3.784036E+15	0.00164	585.881536	18.852503	1.089217	0	0
46.674594	4.540501	0.632118	48.606451	5.05274	45.234138	5.05274	3.654158E+15	0.001658	580.990584	18.807469	1.085136	0	0
47.315907	4.234553	0.622686	48.503543	5.096714	45.084435	5.096714	3.536309E+15	0.00168	574.54398	18.761233	1.081135	0	0
47.943706	3.889826	0.61094	48.388629	5.141352	44.919925	5.141352	3.40865E+15	0.0017	568.872256	18.770562	1.077074	0	0
48.570373	3.502715	0.597687	48.28813	5.179584	44.776318	5.179584	3.30032E+15	0.00172	563.343482	18.809349	1.073211	0	0
49.16473	3.078628	0.591229	48.174073	5.218919	44.615794	5.218919	3.181015E+15	0.001738	558.636278	18.818052	1.069348	0	0
49.717756	2.626505	0.591403	48.067816	5.254678	44.466585	5.254678	3.073255E+15	0.001756	553.775271	18.781721	1.065743	0	0
50.27179	2.149253	0.596316	47.961682	5.288327	44.318721	5.288327	2.968788E+15	0.001773	549.381784	18.755092	1.062177	0	0
50.794361	1.662112	0.610348	47.853302	5.320574	44.168947	5.320574	2.865288E+15	0.001789	545.457884	18.781415	1.058315	0	0
51.267332	1.186983	0.616825	47.744676	5.351535	44.019547	5.351535	2.764689E+15	0.001804	541.567622	18.830742	1.053937	0	0
51.683761	0.753035	0.60198	47.638583	5.379468	43.875027	5.379468	2.669378E+15	0.001816	538.693767	18.837169	1.049737	0	0
42.331997	5.615038	0.742777	47.531305	5.408391	43.728216	5.408391	2.575882E+15	0.001834	534.248804	18.790372	1.045875	0	0
52.304471	0	0	47.421904	5.434645	43.580577	5.434645	2.483433E+15	0.001846	531.557945	18.763883	1.042051	0	0
0	0	0	47.318342	5.45941	43.440706	5.45941	2.398542E+15	0.00186	528.210929	18.784734	1.038268	0	0
0	0	0	47.206164	5.484053	43.290563	5.484053	2.309388E+15	0.001871	525.680722	18.832324	1.03395	0	0
0	0	0	47.107054	5.505375	43.15808	5.505375	2.232976E+15	0.001882	523.083859	18.829612	1.030146	0	0
0	0	0	46.995162	5.527675	43.00962	5.527675	2.149295E+15	0.001891	521.056606	18.782738	1.026917	0	0
0	0	0	46.891641	5.548025	42.872323	5.548025	2.074252E+15	0.001902	518.656684	18.759536	1.023748	0	0
0	0	0	46.78567	5.567796	42.732404	5.567796	1.999735E+15	0.001911	516.527689	18.797526	1.020063	0	0
0	0	0	46.677576	5.586351	42.590717	5.586351	1.926061E+15	0.001917	515.363515	18.848133	1.015844	0	0
0	0	0	46.572054	5.605107	42.451801	5.605107	1.856355E+15	0.001929	512.670953	18.858954	1.011565	0	0
0	0	0	46.46641	5.622178	42.313853	5.622178	1.788702E+15	0.001936	511.23329	18.815661	1.007742	0	0
0	0	0	46.359458	5.638563	42.174742	5.638563	1.722327E+15	0.001941	510.141698	18.786567	1.004335	0	0
0	0	0	46.251977	5.653795	42.035743	5.653795	1.657712E+15	0.001944	509.925271	18.807614	1.000532	0	0
0	0	0	46.15258	5.667216	41.907602	5.667216	1.599771E+15	0.001945	510.013191	18.852877	0.996412	0	0
0	0	0	46.042362	5.682781	41.764893	5.682781	1.537507E+15	0.001952	508.405648	18.842369	0.992668	0	0
0	0	0	45.940475	5.69508	41.634447	5.69508	1.481757E+15	0.00195	509.301509	18.798163	0.989023	0	0
0	0	0	45.832585	5.708817	41.495684	5.708817	1.424566E+15	0.001954	508.49319	18.770541	0.985616	0	0
0	0	0	45.72547	5.720912	41.359	5.720912	1.369614E+15	0.001951	509.434442	18.800914	0.981931	0	0
0	0	0	45.624114	5.732559	41.229428	5.732559	1.319247E+15	0.001952	509.379907	18.842089	0.978128	0	0
0	0	0	45.513488	5.744079	41.088835	5.744079	1.266038E+15	0.001948	510.684148	18.834972	0.974701	0	0
0	0	0	45.41111	5.754753	40.958639	5.754753	1.218395E+15	0.001947	511.260691	18.795483	0.971432	0	0
0	0	0	45.303465	5.7652	40.822269	5.7652	1.169912E+15	0.001942	512.668787	18.785862	0.967887	0	0
0	0	0	45.197943	5.775203	40.688703	5.775203	1.123948E+15	0.001938	513.895315	18.81457	0.964341	0	0
0	0	0	45.089073	5.785186	40.551088	5.785186	1.078103E+15	0.001934	515.187802	18.858977	0.960458	0	0
0	0	0	44.984736	5.793984	40.419742	5.793984	1.035632E+15	0.001926	517.446704	18.849559	0.956873	0	0
0	0	0	44.87513	5.803783	40.281259	5.803783	9.925198E+14	0.001925	517.952636	18.808901	0.953406	0	0
0	0	0	44.770139	5.811551	40.149824	5.811551	9.526279E+14	0.001912	521.508778	18.793058	0.9499	0	0
0	0	0	44.665067	5.820016	40.017682	5.820016	9.140455E+14	0.001907	522.885564	18.815891	0.946414	0	0
0	0	0	44.554236	5.827764	39.879181	5.827764	8.747633E+14	0.001894	526.635105	18.852942	0.942769	0	0
0	0	0	44.453982	5.834777	39.753845	5.834777	8.404479E+14	0.001884	529.529173	18.847514	0.939163	0	0
0	0	0	44.341437	5.842377	39.613307	5.842377	8.032663E+14	0.001873	532.927564	18.808546	0.936093	0	0
0	0	0	44.237263	5.849684	39.482951	5.849684	7.700809E+14	0.001867	534.695309	18.782932	0.932904	0	0
0	0	0	44.129617	5.856402	39.348877	5.856402	7.369987E+14	0.001854	538.330299	18.807812	0.929675	0	0
0	0	0	44.023116	5.863084	39.216151	5.863084	7.054443E+14	0.001845	541.2338	18.853614	0.92603	0	0
0	0	0	43.915307	5.868919	39.082514	5.868919	6.746618E+14	0.001827	546.593734	18.846056	0.922821	0	0
0	0	0	43.812358	5.87453	38.954829	5.87453	6.463258E+14	0.001812	551.139657	18.8075	0.91979	0	0
0	0	0	43.702753	5.880977	38.818453	5.880977	6.17263E+14	0.001804	553.703269	18.78192	0.917057	0	0
0	0	0	43.597027	5.886269	38.687632	5.886269	5.902793E+14	0.001787	558.941458	18.805724	0.914085	0	0
0	0	0	43.48979	5.892011	38.55459	5.892011	5.639336E+14	0.001777	562.243032	18.851012	0.91044	0	0
0	0	0	43.378633	5.896738	38.417673	5.896738	5.376817E+14	0.001753	570.007659	18.853957	0.907311	0	0
0	0	0	43.27895	5.901215	38.294658	5.901215	5.150288E+14	0.001736	575.598257	18.81271	0.904438	0	0
0	0	0	43.165629	5.906335	38.15475	5.906335	4.902674E+14	0.001719	581.257136	18.778334	0.901764	0	0
0	0	0	43.061863	5.91098	38.026643	5.91098	4.684921E+14	0.001705	586.038156	18.810658	0.898535	0	0
0	0	0	42.952299	5.914448	37.89257	5.914448	4.464037E+14	0.001672	597.620081	18.859008	0.895049	0	0
0	0	0	42.847471	5.91923	37.763013	5.91923	4.261133E+14	0.001663	600.893949	18.861596	0.89182	0	0
0	0	0	42.735987	5.923706	37.625719	5.923706	4.054111E+14	0.001647	606.805366	18.820104	0.888769	0	0
0	0	0	42.630547	5.926762	37.496857	5.926762	3.866371E+14	0.001616	618.539755	18.787917	0.885798	0	0
0	0	0	42.518001	5.930077	37.359241	5.930077	3.674344E+14	0.001585	630.621455	18.795939	0.883005	0	0
0	0	0	42.415379	5.933154	37.23369	5.933154	3.50654E+14	0.001559	641.103781	18.837404	0.879479	0	0
0	0	0	42.305202	5.937425	37.098025	5.937425	3.333872E+14	0.001549	645.541181	18.850416	0.876151	0	0
0	0	0	42.18453	5.94172	36.949737	5.94172	3.153353E+14	0.001534	651.904955	18.817797	0.873001	0	0
0	0	0	42.072474	5.944718	36.812884	5.944718	2.993487E+14	0.001505	664.232717	18.775453	0.86999	0	0
0	0	0	41.964298	5.947481	36.680864	5.947481	2.845994E+14	0.001477	676.854699	18.784274	0.866979	0	0
0	0	0	41.852773	5.950673	36.54443	5.950673	2.70072E+14	0.001456	686.715914	18.818699	0.863315	0	0
0	0	0	41.747252	5.953899	36.415134	5.953899	2.569385E+14	0.001442	693.610701	18.823859	0.859987	0	0
0	0	0	41.62658	5.957246	36.267554	5.957246	2.426213E+14	0.001421	703.546195	18.788047	0.856698	0	0
0	0	0	41.520813	5.959901	36.138432	5.959901	2.306658E+14	0.0014	714.153942	18.74114	0.854103	0	0
0	0	0	41.40647	5.96231	35.999238	5.96231	2.183402E+14	0.00137	729.677601	18.739594	0.851033	0	0
0	0	0	41.299683	5.964378	35.869391	5.964378	2.0737E+14	0.001341	745.876063	18.775907	0.847626	0	0
0	0	0	41.188975	5.966879	35.734434	5.966879	1.965273E+14	0.001318	758.427725	18.793022	0.844397	0	0
0	0	0	41.080431	5.969464	35.601976	5.969464	1.864004E+14	0.001301	768.471747	18.769542	0.841287	0	0
0	0	0	40.966374	5.971936	35.462995	5.971936	1.76275E+14	0.00128	781.090788	18.716339	0.838573	0	0
0	0	0	40.862404	5.97395	35.33651	5.97395	1.674872E+14	0.001258	795.046799	18.708728	0.835463	0	0
0	0	0	40.746061	5.976022	35.195124	5.976022	1.581327E+14	0.00123	812.636433	18.734596	0.832234	0	0
0	0	0	40.642132	5.977691	35.068981	5.977691	1.501868E+14	0.001204	830.65017	18.765715	0.828906	0	0
0	0	0	40.526728	5.979793	34.928664	5.979793	1.41798E+14	0.001181	846.483301	18.739107	0.825975	0	0
0	0	0	40.414835	5.981767	34.792662	5.981767	1.340822E+14	0.00116	862.105531	18.683148	0.823439	0	0
0	0	0	40.302698	5.983689	34.6564	5.983689	1.267438E+14	0.001139	877.935445	18.664771	0.820666	0	0
0	0	0	40.194195	5.98575	34.52435	5.98575	1.200023E+14	0.001125	888.642863	18.698737	0.817734	0	0
0	0	0	40.080016	5.987237	34.386024	5.987237	1.132723E+14	0.001097	911.932621	18.734588	0.814525	0	0
0	0	0	39.971473	5.989023	34.25416	5.989023	1.072052E+14	0.00108	926.099999	18.713956	0.811772	0	0
0	0	0	39.855333	5.99056	34.113413	5.99056	1.010537E+14	0.001055	948.286377	18.665512	0.8088	0	0
0	0	0	39.74973	5.99177	33.985604	5.99177	9.57515E+13	0.001028	972.405198	18.644554	0.806126	0	0
0	0	0	39.63208	5.993211	33.843115	5.993211	9.015554E+13	0.001003	996.831562	18.661667	0.803373	0	0
0	0	0	39.522148	5.994417	33.710099	5.994417	8.520892E+13	0.000978	1022.873289	18.713759	0.799906	0	0
0	0	0	39.407519	5.995689	33.571379	5.995689	8.032708E+13	0.000953	1049.460923	18.709269	0.796895	0	0
0	0	0	39.292483	5.996766	33.432348	5.996766	7.569724E+13	0.000925	1081.645143	18.659619	0.79426	0	0
0	0	0	39.182836	5.998428	33.299202	5.998428	7.152305E+13	0.000915	1092.557764	18.624301	0.791626	0	0
0	0	0	39.06486	5.999784	33.156351	5.999784	6.727872E+13	0.000896	1116.163927	18.630523	0.788932	0	0
0	0	0	38.95211	6.001039	33.019861	6.001039	6.344956E+13	0.000878	1139.0808	18.676998	0.785624	0	0
0	0	0	38.835113	6.002231	32.878328	6.002231	5.969858E+13	0.000858	1165.761339	18.687987	0.782633	0	0
0	0	0	38.719954	6.003287	32.739126	6.003287	5.621614E+13	0.000836	1195.727387	18.646694	0.77982	0	0
0	0	0	38.602263	6.004357	32.596865	6.004357	5.286054E+13	0.000816	1226.121959	18.605187	0.777145	0	0
0	0	0	38.486328	6.005468	32.456661	6.005468	4.974525E+13	0.000798	1252.743375	18.597067	0.774471	0	0
0	0	0	38.367738	6.006422	32.313422	6.006422	4.674331E+13	0.000777	1287.296456	18.634196	0.771282	0	0
0	0	0	38.247474	6.007039	32.168507	6.007039	4.387917E+13	0.000746	1339.719671	18.648485	0.768132	0	0
0	0	0	38.127946	6.008195	32.023923	6.008195	4.120223E+13	0.000733	1363.710991	18.607044	0.765458	0	0
0	0	0	38.005477	6.008992	31.876166	6.008992	3.862486E+13	0.00071	1408.30311	18.5602	0.762804	0	0
0	0	0	37.881987	6.009771	31.727197	6.009771	3.618571E+13	0.000687	1454.834513	18.544539	0.760149	0	0
0	0	0	37.761151	6.010562	31.581395	6.010562	3.394512E+13	0.000667	1498.497123	18.575268	0.757317	0	0
0	0	0	37.638192	6.011263	31.43313	6.011263	3.18048E+13	0.000645	1549.738934	18.601885	0.754088	0	0
0	0	0	37.510006	6.012088	31.278459	6.012088	2.971447E+13	0.000626	1596.394118	18.578372	0.751354	0	0
0	0	0	37.389334	6.012877	31.132835	6.012877	2.787025E+13	0.00061	1638.345542	18.525913	0.748819	0	0
0	0	0	37.261965	6.013561	30.979278	6.013561	2.604574E+13	0.00059	1694.072844	18.50015	0.746323	0	0
0	0	0	37.133656	6.014333	30.824496	6.014333	2.432673E+13	0.000574	1742.456385	18.51092	0.743648	0	0
0	0	0	37.003674	6.014933	30.667878	6.014933	2.269933E+13	0.000553	1807.952781	18.546386	0.740459	0	0
0	0	0	36.87561	6.015827	30.513249	6.015827	2.120108E+13	0.000543	1841.017079	18.539472	0.737448	0	0
0	0	0	36.746566	6.016704	30.357454	6.016704	1.979016E+13	0.000534	1872.640396	18.489379	0.735051	0	0
0	0	0	36.612908	6.017501	30.196197	6.017501	1.842658E+13	0.000522	1913.939615	18.448293	0.732694	0	0
0	0	0	36.480679	6.018151	30.036807	6.018151	1.716907E+13	0.000508	1969.059286	18.460412	0.729901	0	0
0	0	0	36.343101	6.018465	29.871351	6.018465	1.595079E+13	0.000482	2075.095432	18.485469	0.727207	0	0
0	0	0	36.210137	6.018924	29.711276	6.018924	1.485484E+13	0.000463	2158.850075	18.50119	0.724275	0	0
0	0	0	36.068965	6.019572	29.541138	6.019572	1.377282E+13	0.00045	2222.545492	18.452703	0.7217	0	0
0	0	0	35.929875	6.020091	29.373636	6.020091	1.278325E+13	0.000434	2303.426455	18.408243	0.719462	0	0
0	0	0	35.785559	6.020705	29.19975	6.020705	1.183103E+13	0.000422	2372.145963	18.400129	0.716966	0	0
0	0	0	35.643774	6.020835	29.029429	6.020835	1.096415E+13	0.000395	2532.984301	18.434683	0.714212	0	0
0	0	0	35.49517	6.021262	28.850594	6.021262	1.012323E+13	0.000378	2648.586728	18.457665	0.7113	0	0
0	0	0	35.350568	6.021643	28.67661	6.021643	9.366548E+12	0.000361	2771.282917	18.430757	0.708527	0	0
0	0	0	35.19841	6.021937	28.49365	6.021937	8.630993E+12	0.000341	2930.743734	18.371623	0.706289	0	0
0	0	0	35.049316	6.022395	28.314181	6.022395	7.966023E+12	0.000328	3046.138174	18.338892	0.703911	0	0
0	0	0	34.892585	6.022952	28.125429	6.022952	7.321902E+12	0.000318	3143.0676	18.358008	0.701416	0	0
0	0	0	34.739326	6.023214	27.941171	6.023214	6.742227E+12	0.000301	3326.07706	18.402974	0.698484	0	0
0	0	0	34.578715	6.023468	27.748096	6.023468	6.183742E+12	0.000283	3534.136404	18.393159	0.695869	0	0
0	0	0	34.423577	6.023827	27.561467	6.023827	5.688093E+12	0.00027	3700.134278	18.340031	0.693432	0	0
0	0	0	34.260027	6.02433	27.364573	6.02433	5.20838E+12	0.000262	3823.958046	18.295864	0.691135	0	0
0	0	0	34.095373	6.024377	27.166873	6.024377	4.766169E+12	0.000241	4156.661621	18.297593	0.688777	0	0
0	0	0	33.92582	6.024622	26.963062	6.024622	4.349893E+12	0.000226	4427.760169	18.324611	0.686262	0	0
0	0	0	33.756266	6.02495	26.759151	6.02495	3.969883E+12	0.000214	4665.757731	18.333991	0.683568	0	0
0	0	0	33.582874	6.025234	26.550679	6.025234	3.615502E+12	0.000202	4946.235299	18.304393	0.680893	0	0
0	0	0	33.405153	6.025641	26.336865	6.025641	3.285009E+12	0.000194	5165.518261	18.246552	0.678675	0	0
0	0	0	33.225309	6.025863	26.120715	6.025863	2.981252E+12	0.000181	5524.467787	18.215829	0.676634	0	0
0	0	0	33.043505	6.026291	25.901964	6.026291	2.702674E+12	0.000174	5737.75108	18.246188	0.674039	0	0
0	0	0	32.851654	6.026515	25.671393	6.026515	2.436837E+12	0.000162	6157.123052	18.275452	0.671306	0	0
0	0	0	32.652984	6.026691	25.432688	6.026691	2.189039E+12	0.00015	6673.308566	18.259476	0.668711	0	0
0	0	0	32.460072	6.026988	25.200749	6.026988	1.972529E+12	0.000141	7067.952466	18.198702	0.666472	0	0
0	0	0	32.262709	6.027204	24.96356	6.027204	1.773143E+12	0.000132	7588.908389	18.161215	0.664135	0	0
0	0	0	32.060364	6.027637	24.720122	6.027637	1.589608E+12	0.000127	7851.925648	18.164213	0.662035	0	0
0	0	0	31.85761	6.027768	24.476559	6.027768	1.424738E+12	0.000117	8553.504556	18.204598	0.659242	0	0
0	0	0	31.650323	6.027799	24.227675	6.027799	1.273832E+12	0.000105	9512.121282	18.212951	0.656568	0	0
0	0	0	31.440791	6.028221	23.975611	6.028221	1.137517E+12	0.000102	9818.664033	18.165332	0.654429	0	0
0	0	0	31.226889	6.028164	23.718892	6.028164	1.013385E+12	8.969835E-5	11148.476497	18.105098	0.65217	0	0
0	0	0	31.003472	6.028577	23.450161	6.028577	8.981623E+11	8.662815E-5	11543.591206	18.084376	0.650229	0	0
0	0	0	30.781117	6.02861	23.183178	6.02861	7.964905E+11	7.737642E-5	12923.833776	18.126002	0.647495	0	0
0	0	0	30.555372	6.028961	22.911722	6.028961	7.050303E+11	7.417303E-5	13481.989727	18.141339	0.645019	0	0
0	0	0	30.323298	6.029065	22.632977	6.029065	6.219374E+11	6.708529E-5	14906.396475	18.126526	0.642484	0	0
0	0	0	30.086854	6.029268	22.348858	6.029268	5.473402E+11	6.209504E-5	16104.346352	18.069981	0.640364	0	0
0	0	0	29.847225	6.029537	22.060827	6.029537	4.808592E+11	5.855797E-5	17077.094243	18.02961	0.638383	0	0
0	0	0	29.602777	6.029678	21.767172	6.029678	4.213523E+11	5.337403E-5	18735.702668	18.039385	0.636066	0	0
0	0	0	29.351795	6.030011	21.465419	6.030011	3.679062E+11	5.148949E-5	19421.439498	18.070479	0.633391	0	0
0	0	0	29.098404	6.030324	21.160795	6.030324	3.2082E+11	4.979603E-5	20081.92084	18.071708	0.630895	0	0
0	0	0	28.836356	6.030251	20.846283	6.030251	2.78453E+11	4.214711E-5	23726.421299	18.03553	0.628657	0	0
0	0	0	28.568019	6.030469	20.523833	6.030469	2.4086E+11	3.938626E-5	25389.564774	17.97633	0.626696	0	0
0	0	0	28.29715	6.030568	20.198501	6.030568	2.080567E+11	3.5299E-5	28329.417309	17.956563	0.624636	0	0
0	0	0	28.020727	6.030692	19.866464	6.030692	1.791817E+11	3.191359E-5	31334.610304	17.981112	0.622259	0	0
0	0	0	27.738301	6.030935	19.527056	6.030935	1.538139E+11	3.035318E-5	32945.477199	17.997732	0.619703	0	0
0	0	0	27.45175	6.031098	19.182801	6.031098	1.317432E+11	2.802572E-5	35681.503336	17.972111	0.617425	0	0
0	0	0	27.161974	6.031128	18.834854	6.031128	1.126425E+11	2.430978E-5	41135.706926	17.916293	0.615385	0	0
0	0	0	26.862601	6.031437	18.474997	6.031437	9.581271E+10	2.431754E-5	41122.578964	17.870577	0.613523	0	0
0	0	0	26.560247	6.03136	18.112095	6.03136	8.136606E+10	1.978238E-5	50550.036312	17.868194	0.611443	0	0
0	0	0	26.247275	6.031535	17.736091	6.031535	6.870215E+10	1.847166E-5	54136.987263	17.9027	0.608927	0	0
0	0	0	25.929648	6.031683	17.354532	6.031683	5.786339E+10	1.70883E-5	58519.571193	17.907367	0.606669	0	0
0	0	0	25.610388	6.031678	16.971228	6.031678	4.869153E+10	1.433371E-5	69765.619666	17.872225	0.60445	0	0
0	0	0	25.283123	6.031627	16.578382	6.031627	4.079656E+10	1.161361E-5	86105.854488	17.81193	0.602469	0	0
0	0	0	24.955532	6.031801	16.184817	6.031801	3.417564E+10	1.094763E-5	91343.940088	17.786509	0.600489	0	0
0	0	0	24.617242	6.031848	15.778588	6.031848	2.846411E+10	9.441881E-6	105911.098643	17.795608	0.598409	0	0
0	0	0	24.27303	6.031976	15.36513	6.031976	2.363133E+10	8.659973E-6	115473.803392	17.823709	0.595972	0	0
0	0	0	23.922734	6.032036	14.944464	6.032036	1.955465E+10	7.543017E-6	132572.942926	17.807065	0.593793	0	0
0	0	0	23.565904	6.032117	14.515921	6.032117	1.612419E+10	6.686428E-6	149556.686476	17.76343	0.591674	0	0
0	0	0	23.188819	6.032244	14.062988	6.032244	1.315074E+10	6.184957E-6	161682.601311	17.709031	0.589831	0	0
0	0	0	22.814919	6.032244	13.614068	6.032244	1.074411E+10	5.056176E-6	197777.914036	17.693019	0.587811	0	0
0	0	0	22.442163	6.032251	13.166511	6.032251	8.783317E+9	4.164748E-6	240110.537579	17.720602	0.585513	0	0
0	0	0	22.066507	6.032292	12.715422	6.032292	7.169124E+9	3.551652E-6	281559.155348	17.730486	0.583235	0	0
0	0	0	21.684481	6.032245	12.256817	6.032245	5.831469E+9	2.747756E-6	363933.338768	17.697687	0.581234	0	0
0	0	0	21.297146	6.032199	11.791841	6.032199	4.729807E+9	2.124683E-6	470658.375233	17.639346	0.579432	0	0
0	0	0	20.906462	6.032266	11.322665	6.032266	3.829328E+9	1.844253E-6	542224.864425	17.60405	0.57749	0	0
0	0	0	20.512103	6.032359	10.849033	6.032359	3.094133E+9	1.657293E-6	603393.56903	17.607482	0.575549	0	0
0	0	0	20.113375	6.032585	10.369937	6.032585	2.494189E+9	1.835091E-6	544931.969471	17.628101	0.573429	0	0
0	0	0	19.710154	6.032359	9.886178	6.032359	2.005697E+9	1.074668E-6	930520.249072	17.635927	0.571151	0	0
0	0	0	19.301625	6.032486	9.395473	6.032486	1.608254E+9	1.016265E-6	983995.585594	17.595907	0.56919	0	0
0	0	0	18.887501	6.032499	8.898234	6.032499	1.285674E+9	8.281488E-7	1207512.434168	17.532137	0.567427	0	0
0	0	0	18.471254	6.032572	8.398345	6.032572	1.026616E+9	7.395685E-7	1352139.818176	17.505151	0.565744	0	0
0	0	0	18.052924	6.032572	7.896077	6.032572	8.188355E+8	5.899383E-7	1695092.513764	17.529014	0.563644	0	0
0	0	0	17.633981	6.032878	7.392555	6.032878	6.52892E+8	9.309402E-7	1074182.847903	17.559732	0.561405	0	0
0	0	0	17.208913	6.032559	6.882738	6.032559	5.188573E+8	3.659943E-7	2732282.921487	17.544258	0.559266	0	0
0	0	0	16.776985	6.032751	6.363811	6.032751	4.108127E+8	4.171723E-7	2397091.169009	17.484693	0.557602	0	0
0	0	0	16.344239	6.032692	5.844337	6.032692	3.251232E+8	2.905402E-7	3441864.580418	17.435832	0.55576	0	0
0	0	0	15.90937	6.032751	5.322105	6.032751	2.570121E+8	2.61017E-7	3831168.770279	17.418148	0.554076	0	0
0	0	0	15.477156	6.032678	4.803293	6.032678	2.034616E+8	1.771074E-7	5646292.431315	17.442423	0.551877	0	0
0	0	0	15.037673	6.032771	4.27546	6.032771	1.60437E+8	1.707107E-7	5857864.519729	17.456233	0.549777	0	0
0	0	0	14.597903	6.032957	3.747113	6.032957	1.264911E+8	2.423751E-7	4125836.49296	17.41826	0.547836	0	0
0	0	0	14.153275	6.032752	3.213637	6.032752	9.946587E+7	1.010263E-7	9898413.688847	17.374196	0.546034	0	0
0	0	0	13.702357	6.032698	2.672337	6.032698	7.794924E+7	7.060979E-8	1.416234E+7	17.330109	0.544488	0	0
0	0	0	13.250378	6.032825	2.129434	6.032825	6.105208E+7	7.442222E-8	1.343685E+7	17.327684	0.542547	0	0
0	0	0	12.806851	6.032971	1.596639	6.032971	4.803674E+7	9.764017E-8	1.024169E+7	17.351322	0.540546	0	0
0	0	0	12.360548	6.03301	1.060705	6.03301	3.773938E+7	9.378173E-8	1.066306E+7	17.35512	0.538546	0	0
0	0	0	11.913347	6.032984	0.523816	6.032984	2.9635E+7	6.412924E-8	1.559351E+7	17.314495	0.536803	0	0
0	0	0	11.469821	6.032891	-0.008533	6.032891	2.331729E+7	3.47466E-8	2.877979E+7	17.260237	0.535099	0	0
0	0	0	11.027479	6.032805	-0.539471	6.032805	1.835816E+7	2.122097E-8	4.712319E+7	17.214264	0.533455	0	0
0	0	0	10.587832	6.032811	-1.067349	6.032811	1.447482E+7	1.702585E-8	5.873421E+7	17.2253	0.531514	0	0
0	0	0	10.149737	6.032951	-1.593622	6.032951	1.142251E+7	2.12817E-8	4.698873E+7	17.242883	0.529493	0	0
0	0	0	9.711479	6.03325	-2.120409	6.03325	9013038.5	-6.680228E-8	-1.496955E+7	17.2427	0.527492	0	0
0	0	0	9.279142	6.033137	-2.639281	6.033137	7134626.375	6.004999E-8	1.665279E+7	17.190185	0.525809	0	0
0	0	0	8.855952	6.033064	-3.147246	6.033064	5675691.5	2.005607E-8	4.986022E+7	17.131401	0.524125	0	0
0	0	0	8.453344	6.03309	-3.630697	6.03309	4565604.625	2.044712E-8	4.890665E+7	17.09987	0.52256	0	0
0	0	0	8.060701	6.03309	-4.102132	6.03309	3692471	1.653682E-8	6.047112E+7	17.107253	0.520797	0	0
0	0	0	7.671977	6.033084	-4.568846	6.033084	2992652.375	1.256293E-8	7.959928E+7	17.128219	0.518618	0	0
0	0	0	7.291911	6.033157	-5.025328	6.033157	2436845.125	3.291615E-8	3.038022E+7	17.119602	0.516637	0	0
0	0	0	6.920706	6.03303	-5.470763	6.03303	1993792.75	5.575225E-9	1.793649E+8	17.072184	0.515092	0	0
0	0	0	6.559058	6.03301	-5.904941	6.03301	1639742	4.074978E-9	2.454001E+8	17.020827	0.513646	0	0
0	0	0	6.204841	6.032957	-6.330126	6.032957	1353991.375	2.594863E-9	3.853768E+8	16.997125	0.511903	0	0
0	0	0	5.861038	6.032838	-6.742668	6.032838	1124348.625	1.422405E-9	7.030347E+8	16.997774	0.510278	0	0
0	0	0	5.525933	6.033057	-7.145475	6.033057	938054.75	3.148745E-9	3.175868E+8	17.014944	0.50806	0	0
0	0	0	5.194462	6.033157	-7.543671	6.033157	784167.25	1.059242E-8	9.440709E+7	16.985605	0.506356	0	0
0	0	0	4.869485	6.033223	-7.934003	6.033223	657829.75	-8.744907E-9	-1.143523E+8	16.940175	0.504593	0	0
0	0	0	4.544629	6.03315	-8.323891	6.03315	551883.125	6.203977E-9	1.611869E+8	16.88948	0.503266	0	0
0	0	0	4.24395	6.033064	-8.684723	6.033064	469090.125	1.657632E-9	6.032702E+8	16.866833	0.501721	0	0
0	0	0	3.943678	6.032997	-9.045106	6.032997	398805.75	9.226419E-10	1.083844E+9	16.879568	0.499839	0	0
0	0	0	3.658353	6.03305	-9.387801	6.03305	341802.625	1.092583E-9	9.152623E+8	16.892344	0.497977	0	0
0	0	0	3.380297	6.033037	-9.721625	6.033037	294100.625	8.582117E-10	1.165214E+9	16.873672	0.496194	0	0
0	0	0	3.108407	6.032851	-10.047669	6.032851	253900.875	3.338145E-10	2.995676E+9	16.822589	0.494451	0	0
0	0	0	2.844521	6.033243	-10.365364	6.033243	220146.375	-1.834536E-9	-5.450969E+8	16.759415	0.493064	0	0
0	0	0	2.585494	6.03303	-10.675903	6.03303	191381.5	5.351599E-10	1.8686E+9	16.749447	0.491499	0	0
0	0	0	2.344722	6.033196	-10.965356	6.033196	168024.875	-1.082461E-8	-9.238209E+7	16.745017	0.489895	0	0
0	0	0	2.112647	6.03319	-11.243986	6.03319	148214	-2.482735E-7	-4027815.360419	16.761959	0.487953	0	0
0	0	0	1.894294	6.033077	-11.505906	6.033077	131712.25	5.203203E-10	1.921893E+9	16.744355	0.486151	0	0
0	0	0	1.69591	6.033176	-11.744321	6.033176	118318.25	4.044509E-9	2.472488E+8	16.689302	0.484427	0	0
0	0	0	1.516719	6.033117	-11.959337	6.033117	107394.75	6.565124E-10	1.5232E+9	16.626943	0.483001	0	0
0	0	0	1.353209	6.032918	-12.155212	6.032918	98309.5	1.608074E-10	6.218619E+9	16.588913	0.481674	0	0
0	0	0	1.210812	6.03313	-12.326659	6.03313	91025.875	6.806554E-10	1.469172E+9	16.593226	0.479852	0	0
0	0	0	1.081238	6.03301	-12.481967	6.03301	84868.125	2.10909E-10	4.74138E+9	16.607888	0.47791	0	0
0	0	0	0.966446	6.03313	-12.620062	6.03313	79761.75	5.964268E-10	1.676652E+9	16.58392	0.476187	0	0
0	0	0	0.867009	6.033057	-12.739288	6.033057	75587.5	2.537231E-10	3.941305E+9	16.540066	0.474582	0	0
0	0	0	0.772758	6.033057	-12.852452	6.033057	71832.75	2.411196E-10	4.14732E+9	16.479489	0.473037	0	0
0	0	0	0.694515	6.033216	-12.946756	6.033216	68857.875	-1.141939E-9	-8.757037E+8	16.447831	0.471789	0	0
0	0	0	0.624562	6.03319	-13.030687	6.03319	66302.625	-1.110568E-7	-9004402.987564	16.454474	0.470086	0	0
0	0	0	0.558897	6.033283	-13.10974	6.033283	63990.25	-3.053636E-10	-3.274785E+9	16.473651	0.468105	0	0
0	0	0	0.50095	6.033263	-13.17927	6.033263	62016.875	-3.763668E-10	-2.656982E+9	16.458616	0.466362	0	0
0	0	0	0.456519	6.03309	-13.232225	6.03309	60545.125	2.711553E-10	3.687924E+9	16.413898	0.464698	0	0
0	0	0	0.41066	6.03307	-13.287241	6.03307	59062.625	2.203317E-10	4.538612E+9	16.347566	0.46345	0	0
0	0	0	0.377215	6.032957	-13.327141	6.032957	58004.375	1.111629E-10	8.995808E+9	16.31655	0.461964	0	0
0	0	0	0.339237	6.03309	-13.373042	6.03309	56825.625	2.544973E-10	3.929315E+9	16.318907	0.46026	0	0
0	0	0	0.323841	6.033137	-13.391632	6.033137	56354.75	4.74338E-10	2.108201E+9	16.328357	0.458676	0	0
0	0	0	0.288109	6.033263	-13.434822	6.033263	55276.625	-3.354617E-10	-2.980966E+9	16.325082	0.456834	0	0
0	0	0	0.26471	6.03321	-13.462796	6.03321	54581.875	-1.202944E-9	-8.312939E+8	16.273899	0.455328	0	0
0	0	0	0.255154	6.03307	-13.473952	6.03307	54300.625	2.025671E-10	4.936635E+9	16.224946	0.453803	0	0
0	0	0	0.234164	6.033176	-13.499396	6.033176	53687.875	1.835231E-9	5.448907E+8	16.182744	0.452555	0	0
0	0	0	0.206681	6.033183	-13.532409	6.033183	52896.25	3.691681E-9	2.708793E+8	16.178705	0.451049	0	0
0	0	0	0.192429	6.03313	-13.5494	6.03313	52490.25	3.925013E-10	2.547762E+9	16.184065	0.449366	0	0
0	0	0	0.186712	6.033077	-13.556143	6.033077	52328.25	2.067192E-10	4.837479E+9	16.175915	0.447662	0	0
0	0	0	0.177565	6.03307	-13.567111	6.03307	52070.125	1.942463E-10	5.148103E+9	16.136412	0.446156	0	0
0	0	0	0.159842	6.03305	-13.588345	6.03305	51573.625	1.648568E-10	6.06587E+9	16.073301	0.444908	0	0
0	0	0	0.136238	6.033203	-13.617033	6.033203	50919.75	-1.672348E-9	-5.979617E+8	16.029557	0.443383	0	0
0	0	0	0.123048	6.033044	-13.632507	6.033044	50558	1.54251E-10	6.482939E+9	16.013942	0.441917	0	0
0	0	0	0.116555	6.033269	-13.640818	6.033269	50380.875	-2.803559E-10	-3.566895E+9	16.019492	0.440451	0	0
0	0	0	0.113778	6.033276	-13.644167	6.033276	50305.25	-2.584677E-10	-3.868956E+9	16.032324	0.438589	0	0
0	0	0	0.108388	6.033183	-13.650427	6.033183	50158.875	3.500637E-9	2.856623E+8	15.98369	0.437322	0	0
0	0	0	0.101159	6.033143	-13.659015	6.033143	49963.25	4.809633E-10	2.079161E+9	15.922119	0.436074	0	0
0	0	0	0.086295	6.03311	-13.676786	6.03311	49563.5	2.776523E-10	3.601627E+9	15.876876	0.434687	0	0
0	0	0	0.072247	6.03323	-13.693926	6.03323	49188.5	-5.456286E-10	-1.832748E+9	15.855338	0.433261	0	0
0	0	0	0.058159	6.033037	-13.710402	6.033037	48815.25	1.424473E-10	7.020141E+9	15.868812	0.431815	0	0
0	0	0	0.050195	6.033084	-13.720069	6.033084	48605.625	2.040442E-10	4.9009E+9	15.87475	0.430151	0	0
0	0	0	0.044152	6.032884	-13.726871	6.032884	48447	7.062482E-11	1.415933E+10	15.853195	0.428566	0	0
0	0	0	0.042518	6.033176	-13.729499	6.033176	48404.25	1.654619E-9	6.043689E+8	15.788032	0.427259	0	0
0	0	0	0.040435	6.033183	-13.732015	6.033183	48349.875	3.374385E-9	2.963503E+8	15.733505	0.425971	0	0
0	0	0	0.038475	6.03323	-13.734475	6.03323	48298.625	-5.357576E-10	-1.866516E+9	15.693807	0.424783	0	0
0	0	0	0.034555	6.03301	-13.738682	6.03301	48196.375	1.197747E-10	8.349011E+9	15.694699	0.423237	0	0
0	0	0	0.029369	6.032858	-13.74456	6.032858	48061.375	6.445317E-11	1.551514E+10	15.710209	0.421554	0	0
0	0	0	0.021896	6.03313	-13.754154	6.03313	47867.625	3.579352E-10	2.793802E+9	15.684405	0.420108	0	0
0	0	0	0.013524	6.033044	-13.764008	6.033044	47651.5	1.453834E-10	6.878366E+9	15.633204	0.418701	0	0
0	0	0	0.004499	6.033323	-13.775481	6.033323	47419.625	-1.585371E-10	-6.307672E+9	15.570045	0.417354	0	0
0	0	0	-0.004158	6.033097	-13.78536	6.033097	47198.25	2.265223E-10	4.414576E+9	15.519017	0.416146	0	0
0	0	0	-0.012979	6.033183	-13.796148	6.033183	46973.625	3.278335E-9	3.050329E+8	15.501734	0.414858	0	0
0	0	0	-0.018083	6.032931	-13.801701	6.032931	46844.25	8.055785E-11	1.241344E+10	15.512781	0.413412	0	0
0	0	0	-0.021024	6.033203	-13.805853	6.033203	46769.875	-1.536054E-9	-6.510187E+8	15.524527	0.411748	0	0
0	0	0	-0.024168	6.03325	-13.809734	6.03325	46690.5	-3.460434E-10	-2.889811E+9	15.496141	0.410322	0	0
0	0	0	-0.026169	6.033137	-13.811879	6.033137	46639.875	3.925679E-10	2.54733E+9	15.43669	0.409074	0	0
0	0	0	-0.027435	6.033024	-13.813141	6.033024	46608	1.251084E-10	7.99307E+9	15.385434	0.407866	0	0
0	0	0	-0.028619	6.033084	-13.8147	6.033084	46578.25	1.955333E-10	5.114218E+9	15.337858	0.406657	0	0
0	0	0	-0.030049	6.033236	-13.816765	6.033236	46542.25	-4.429403E-10	-2.25764E+9	15.340369	0.405132	0	0
0	0	0	-0.030171	6.032977	-13.81632	6.032977	46539.125	9.756228E-11	1.024986E+10	15.349434	0.403607	0	0
0	0	0	-0.030416	6.033017	-13.816705	6.033017	46533	1.200955E-10	8.326704E+9	15.324489	0.402081	0	0
0	0	0	-0.031519	6.03305	-13.818105	6.03305	46505.25	1.486556E-10	6.726959E+9	15.276822	0.400675	0	0
0	0	0	-0.031478	6.032957	-13.817843	6.032957	46506.25	8.912723E-11	1.121992E+10	15.214544	0.399467	0	0
0	0	0	-0.032131	6.033123	-13.819007	6.033123	46489.875	3.1273E-10	3.197647E+9	15.160039	0.398595	0	0
0	0	0	-0.032458	6.033097	-13.819339	6.033097	46481.625	2.23083E-10	4.482637E+9	15.148037	0.397149	0	0
0	0	0	-0.032499	6.03313	-13.819464	6.03313	46480.625	3.475637E-10	2.87717E+9	15.145354	0.395703	0	0
0	0	0	-0.032989	6.033196	-13.820204	6.033196	46468.25	-2.993598E-9	-3.340462E+8	15.152418	0.394257	0	0
0	0	0	-0.033275	6.03301	-13.820122	6.03301	46461.125	1.154623E-10	8.660833E+9	15.126005	0.392751	0	0
0	0	0	-0.034377	6.033163	-13.821795	6.033163	46433.5	7.856095E-10	1.272897E+9	15.066894	0.391602	0	0
0	0	0	-0.034336	6.033216	-13.821867	6.033216	46434.5	-7.700695E-10	-1.298584E+9	15.0109	0.390414	0	0
0	0	0	-0.034296	6.03313	-13.821621	6.03313	46435.5	3.472263E-10	2.879966E+9	14.989476	0.389305	0	0
0	0	0	-0.034745	6.033216	-13.822358	6.033216	46424.25	-7.698995E-10	-1.298871E+9	14.982482	0.387958	0	0
0	0	0	-0.034745	6.033309	-13.82257	6.033309	46424.25	-1.724165E-10	-5.799908E+9	14.981696	0.386531	0	0
0	0	0	-0.034622	6.03317	-13.822104	6.03317	46427.25	1.050877E-9	9.515864E+8	14.961154	0.385105	0	0
0	0	0	-0.034663	6.033356	-13.822578	6.033356	46426.25	-1.242224E-10	-8.05008E+9	14.938798	0.383639	0	0
0	0	0	-0.035398	6.033269	-13.823264	6.033269	46407.875	-2.582472E-10	-3.872258E+9	14.876084	0.38255	0	0
0	0	0	-0.035847	6.033329	-13.823939	6.033329	46396.625	-1.477444E-10	-6.768444E+9	14.821552	0.381341	0	0
0	0	0	-0.037032	6.033157	-13.824967	6.033157	46366.875	6.263205E-10	1.596627E+9	14.801456	0.380291	0	0
0	0	0	-0.038175	6.03319	-13.826416	6.03319	46338.25	-7.761582E-8	-1.288397E+7	14.782712	0.379063	0	0
0	0	0	-0.039073	6.033303	-13.827752	6.033303	46315.75	-1.821082E-10	-5.491239E+9	14.793706	0.377558	0	0
0	0	0	-0.040462	6.033216	-13.829222	6.033216	46281	-7.675238E-10	-1.302891E+9	14.775736	0.376231	0	0
0	0	0	-0.043361	6.03313	-13.832506	6.03313	46208.5	3.455289E-10	2.894114E+9	14.732845	0.374884	0	0
0	0	0	-0.045934	6.033044	-13.835398	6.033044	46144.25	1.407848E-10	7.10304E+9	14.674366	0.373715	0	0
0	0	0	-0.04769	6.033103	-13.837643	6.033103	46100.5	2.383258E-10	4.195936E+9	14.623177	0.372606	0	0
0	0	0	-0.049691	6.03323	-13.840334	6.03323	46050.625	-5.108214E-10	-1.957631E+9	14.594428	0.371635	0	0
0	0	0	-0.052958	6.033017	-13.84377	6.033017	45969.375	1.186409E-10	8.428797E+9	14.593994	0.370169	0	0
0	0	0	-0.058716	6.03311	-13.850896	6.03311	45826.5	2.567178E-10	3.895328E+9	14.584405	0.368961	0	0
0	0	0	-0.059982	6.032864	-13.851855	6.032864	45795.125	6.266836E-11	1.595702E+10	14.574044	0.367733	0	0
0	0	0	-0.0648	6.033157	-13.858308	6.033157	45676	6.169882E-10	1.620776E+9	14.546068	0.366366	0	0
0	0	0	-0.06819	6.03315	-13.862363	6.03315	45592.5	5.125281E-10	1.951113E+9	14.482373	0.365177	0	0
0	0	0	-0.07015	6.033216	-13.864868	6.033216	45544.125	-7.553035E-10	-1.323971E+9	14.432216	0.364127	0	0
0	0	0	-0.073539	6.032977	-13.868391	6.032977	45460.75	9.530163E-11	1.0493E+10	14.394152	0.363137	0	0
0	0	0	-0.077827	6.032957	-13.873494	6.032957	45355.5	8.692187E-11	1.150459E+10	14.394851	0.361869	0	0
0	0	0	-0.078807	6.033196	-13.875217	6.033196	45331.5	-2.920366E-9	-3.424229E+8	14.375307	0.360542	0	0
0	0	0	-0.083626	6.032964	-13.880471	6.032964	45213.625	8.92015E-11	1.121057E+10	14.349429	0.359254	0	0
0	0	0	-0.086035	6.033097	-13.883668	6.033097	45154.75	2.167148E-10	4.61436E+9	14.310238	0.357967	0	0
0	0	0	-0.089874	6.03317	-13.888444	6.03317	45061.125	1.019955E-9	9.804358E+8	14.262193	0.356877	0	0
0	0	0	-0.091467	6.033256	-13.890553	6.033256	45022.375	-3.004451E-10	-3.328395E+9	14.213811	0.355887	0	0
0	0	0	-0.09261	6.033064	-13.891486	6.033064	44994.5	1.58998E-10	6.289388E+9	14.178447	0.354718	0	0
0	0	0	-0.093345	6.033137	-13.892535	6.033137	44976.625	3.785683E-10	2.641531E+9	14.161484	0.353668	0	0
0	0	0	-0.094734	6.033176	-13.894294	6.033176	44942.875	1.536297E-9	6.509157E+8	14.156046	0.352281	0	0
0	0	0	-0.095591	6.03319	-13.895354	6.03319	44922.125	-7.524382E-8	-1.329013E+7	14.149082	0.351034	0	0
0	0	0	-0.096	6.032991	-13.895388	6.032991	44912.125	1.004367E-10	9.956523E+9	14.108289	0.349706	0	0
0	0	0	-0.09604	6.03321	-13.895939	6.03321	44911.125	-9.898078E-10	-1.010297E+9	14.037538	0.348835	0	0
0	0	0	-0.09555	6.03317	-13.895259	6.03317	44923	1.016828E-9	9.834504E+8	13.991126	0.347765	0	0
0	0	0	-0.096408	6.033044	-13.896	6.033044	44902.25	1.369955E-10	7.29951E+9	13.94789	0.346794	0	0
0	0	0	-0.094897	6.033024	-13.89414	6.033024	44939	1.206283E-10	8.289926E+9	13.926261	0.345626	0	0
0	0	0	-0.094121	6.03315	-13.893497	6.03315	44957.75	5.053925E-10	1.97866E+9	13.924397	0.344358	0	0
0	0	0	-0.095183	6.03319	-13.894863	6.03319	44932	-7.526035E-8	-1.328721E+7	13.898991	0.343031	0	0
0	0	0	-0.093427	6.033117	-13.892588	6.033117	44974.625	2.749334E-10	3.637245E+9	13.871673	0.341763	0	0
0	0	0	-0.093345	6.03305	-13.892338	6.03305	44976.625	1.437693E-10	6.955589E+9	13.809848	0.340753	0	0
0	0	0	-0.091998	6.033044	-13.890705	6.033044	45009.375	1.373223E-10	7.282137E+9	13.763923	0.339822	0	0
0	0	0	-0.093182	6.033256	-13.892613	6.033256	44980.625	-3.001665E-10	-3.331484E+9	13.705196	0.33895	0	0
0	0	0	-0.092202	6.033256	-13.891436	6.033256	45004.5	-3.003259E-10	-3.329717E+9	13.680612	0.337781	0	0
0	0	0	-0.094203	6.033223	-13.893762	6.033223	44955.75	-5.976201E-10	-1.673304E+9	13.685814	0.336672	0	0
0	0	0	-0.093264	6.033176	-13.892528	6.033176	44978.625	1.537519E-9	6.503983E+8	13.673177	0.335305	0	0
0	0	0	-0.092406	6.033223	-13.891605	6.033223	44999.5	-5.982017E-10	-1.671677E+9	13.653292	0.334156	0	0
0	0	0	-0.090813	6.032878	-13.888903	6.032878	45038.25	6.425751E-11	1.556238E+10	13.595274	0.333166	0	0
0	0	0	-0.0882	6.03317	-13.886433	6.03317	45101.875	1.020877E-9	9.7955E+8	13.553154	0.332076	0	0
0	0	0	-0.0882	6.033269	-13.886661	6.033269	45101.875	-2.509797E-10	-3.984386E+9	13.50824	0.331106	0	0
0	0	0	-0.089057	6.033037	-13.887159	6.033037	45081	1.315504E-10	7.601649E+9	13.461696	0.330293	0	0
0	0	0	-0.087873	6.033044	-13.885753	6.033044	45109.875	1.376289E-10	7.265913E+9	13.458506	0.329125	0	0
0	0	0	-0.089466	6.033223	-13.888075	6.033223	45071.125	-5.991539E-10	-1.66902E+9	13.461832	0.327996	0	0
0	0	0	-0.089384	6.03309	-13.887673	6.03309	45073.125	2.018629E-10	4.953856E+9	13.434502	0.326886	0	0
0	0	0	-0.090405	6.033196	-13.889142	6.033196	45048.125	-2.90211E-9	-3.445769E+8	13.400669	0.325718	0	0
0	0	0	-0.091385	6.033117	-13.890136	6.033117	45024.375	2.752375E-10	3.633226E+9	13.349629	0.324608	0	0
0	0	0	-0.092569	6.03313	-13.891589	6.03313	44995.5	3.364586E-10	2.972134E+9	13.283261	0.323697	0	0
0	0	0	-0.095224	6.033084	-13.894669	6.033084	44931	1.886182E-10	5.301714E+9	13.242554	0.322865	0	0
0	0	0	-0.094815	6.033044	-13.894088	6.033044	44940.875	1.371133E-10	7.293237E+9	13.230458	0.321736	0	0
0	0	0	-0.096571	6.033004	-13.896105	6.033004	44898.25	1.075877E-10	9.29474E+9	13.208935	0.320765	0	0
0	0	0	-0.098491	6.033077	-13.898577	6.033077	44851.75	1.771838E-10	5.643856E+9	13.202701	0.319517	0	0
0	0	0	-0.100002	6.033157	-13.900573	6.033157	44815.125	6.053596E-10	1.651911E+9	13.175748	0.318547	0	0
0	0	0	-0.099512	6.033236	-13.900167	6.033236	44827	-4.266164E-10	-2.344026E+9	13.145155	0.317398	0	0
0	0	0	-0.101145	6.033123	-13.90187	6.033123	44787.375	3.012776E-10	3.319198E+9	13.070217	0.316487	0	0
0	0	0	-0.102084	6.03303	-13.902785	6.03303	44764.625	1.251753E-10	7.988796E+9	13.031121	0.315496	0	0
0	0	0	-0.102819	6.033183	-13.904017	6.033183	44746.875	3.122928E-9	3.202123E+8	12.983328	0.314545	0	0
0	0	0	-0.103228	6.033196	-13.904538	6.033196	44737	-2.882067E-9	-3.469732E+8	12.950721	0.313575	0	0
0	0	0	-0.10433	6.033097	-13.905634	6.033097	44710.375	2.145821E-10	4.660222E+9	12.92208	0.312644	0	0
0	0	0	-0.104126	6.03301	-13.905191	6.03301	44715.25	1.111236E-10	8.998989E+9	12.910015	0.311455	0	0
0	0	0	-0.104371	6.03323	-13.905986	6.03323	44709.375	-4.959435E-10	-2.016359E+9	12.897851	0.310306	0	0
0	0	0	-0.104657	6.033196	-13.906254	6.033196	44702.5	-2.879844E-9	-3.47241E+8	12.851869	0.309256	0	0
0	0	0	-0.105923	6.033077	-13.9075	6.033077	44671.875	1.764732E-10	5.666582E+9	12.792364	0.308444	0	0
0	0	0	-0.106127	6.03307	-13.90773	6.03307	44666.875	1.666287E-10	6.001368E+9	12.735375	0.307493	0	0
0	0	0	-0.106045	6.03305	-13.907587	6.03305	44668.875	1.427855E-10	7.00351E+9	12.691011	0.306542	0	0
0	0	0	-0.106576	6.032937	-13.907966	6.032937	44656.125	7.881799E-11	1.268746E+10	12.665938	0.305572	0	0
0	0	0	-0.10678	6.033176	-13.908758	6.033176	44651.125	1.526324E-9	6.551687E+8	12.635354	0.304581	0	0
0	0	0	-0.107516	6.03319	-13.909671	6.03319	44633.375	-7.476016E-8	-1.337611E+7	12.623296	0.303492	0	0
0	0	0	-0.107189	6.033183	-13.909263	6.033183	44641.25	3.115556E-9	3.2097E+8	12.619732	0.302363	0	0
0	0	0	-0.107311	6.033017	-13.909031	6.033017	44638.375	1.152058E-10	8.680122E+9	12.558941	0.301452	0	0
0	0	0	-0.107311	6.032924	-13.908818	6.032924	44638.375	7.484338E-11	1.336123E+10	12.517792	0.300303	0	0
0	0	0	-0.106862	6.033269	-13.909069	6.033269	44649.25	-2.48461E-10	-4.024777E+9	12.452522	0.29955	0	0
0	0	0	-0.106168	6.033103	-13.907855	6.033103	44666	2.309099E-10	4.330693E+9	12.419199	0.298658	0	0
0	0	0	-0.106413	6.03309	-13.908119	6.03309	44660	2.000127E-10	4.999682E+9	12.371805	0.297926	0	0
0	0	0	-0.105964	6.033216	-13.907868	6.033216	44670.875	-7.408215E-10	-1.349853E+9	12.357031	0.296856	0	0
0	0	0	-0.10625	6.033216	-13.908212	6.033216	44664	-7.407075E-10	-1.350061E+9	12.34311	0.295826	0	0
0	0	0	-0.105555	6.033389	-13.907773	6.033389	44680.75	-9.965315E-11	-1.003481E+10	12.321175	0.294756	0	0
0	0	0	-0.105433	6.03305	-13.906851	6.03305	44683.75	1.428331E-10	7.001179E+9	12.278067	0.293667	0	0
0	0	0	-0.105147	6.033077	-13.906569	6.033077	44690.625	1.765473E-10	5.664204E+9	12.230697	0.292676	0	0
0	0	0	-0.105147	6.033216	-13.906888	6.033216	44690.625	-7.411491E-10	-1.349256E+9	12.160739	0.291824	0	0
0	0	0	-0.104534	6.033183	-13.906076	6.033183	44705.375	3.120032E-9	3.205096E+8	12.109469	0.291072	0	0
0	0	0	-0.104943	6.033057	-13.906278	6.033057	44695.5	1.500285E-10	6.6654E+9	12.05606	0.29018	0	0
0	0	0	-0.104575	6.03319	-13.906141	6.03319	44704.375	-7.487909E-8	-1.335486E+7	12.035778	0.289309	0	0
0	0	0	-0.104534	6.033097	-13.905879	6.033097	44705.375	2.145581E-10	4.660743E+9	12.018604	0.28814	0	0
0	0	0	-0.10384	6.033044	-13.904924	6.033044	44722.25	1.364463E-10	7.32889E+9	12.001909	0.287288	0	0
0	0	0	-0.104167	6.033349	-13.906015	6.033349	44714.25	-1.246183E-10	-8.0245E+9	11.987379	0.286179	0	0
0	0	0	-0.103718	6.033389	-13.905567	6.033389	44725.125	-9.975212E-11	-1.002485E+10	11.942683	0.285248	0	0
0	0	0	-0.102901	6.033143	-13.904024	6.033143	44744.875	4.307294E-10	2.321643E+9	11.873709	0.284554	0	0
0	0	0	-0.102656	6.033349	-13.904201	6.033349	44750.875	-1.247204E-10	-8.017933E+9	11.841069	0.283406	0	0
0	0	0	-0.102615	6.033263	-13.903954	6.033263	44751.875	-2.715893E-10	-3.68203E+9	11.789133	0.282732	0	0
0	0	0	-0.103146	6.03317	-13.904379	6.03317	44739	1.012663E-9	9.874951E+8	11.741418	0.2819	0	0
0	0	0	-0.103228	6.033336	-13.904857	6.033336	44737	-1.359959E-10	-7.353164E+9	11.719111	0.28089	0	0
0	0	0	-0.103432	6.03315	-13.904677	6.03315	44732.125	5.028562E-10	1.98864E+9	11.700438	0.280078	0	0
0	0	0	-0.104208	6.033356	-13.906079	6.033356	44713.25	-1.196389E-10	-8.358485E+9	11.687202	0.279186	0	0
0	0	0	-0.104126	6.033316	-13.90589	6.033316	44715.25	-1.573473E-10	-6.355369E+9	11.65762	0.278117	0	0
0	0	0	-0.104044	6.033123	-13.905351	6.033123	44717.25	3.008058E-10	3.324404E+9	11.616244	0.277285	0	0
0	0	0	-0.104698	6.033064	-13.905999	6.033064	44701.5	1.579626E-10	6.330613E+9	11.567131	0.276314	0	0
0	0	0	-0.105515	6.033004	-13.906843	6.033004	44681.75	1.070689E-10	9.339777E+9	11.509538	0.275522	0	0
0	0	0	-0.105392	6.033176	-13.907091	6.033176	44684.75	1.527474E-9	6.546757E+8	11.454838	0.274769	0	0
0	0	0	-0.106331	6.033077	-13.907991	6.033077	44662	1.764342E-10	5.667835E+9	11.421257	0.273957	0	0
0	0	0	-0.105841	6.033157	-13.907585	6.033157	44673.875	6.034516E-10	1.657134E+9	11.386897	0.273164	0	0
0	0	0	-0.106617	6.03307	-13.908319	6.03307	44655.125	1.665848E-10	6.002947E+9	11.370421	0.272332	0	0
0	0	0	-0.106168	6.033103	-13.907855	6.033103	44666	2.309099E-10	4.330693E+9	11.346833	0.271381	0	0
0	0	0	-0.106985	6.033183	-13.909018	6.033183	44646.25	3.115905E-9	3.20934E+8	11.329635	0.270411	0	0
0	0	0	-0.10772	6.03319	-13.909916	6.03319	44628.5	-7.4752E-8	-1.337757E+7	11.28255	0.2695	0	0
0	0	0	-0.108128	6.032864	-13.909662	6.032864	44618.625	6.105838E-11	1.637777E+10	11.229775	0.268608	0	0
0	0	0	-0.108904	6.033236	-13.911444	6.033236	44599.875	-4.244548E-10	-2.355963E+9	11.182818	0.267697	0	0
0	0	0	-0.108781	6.03323	-13.911282	6.03323	44602.875	-4.947621E-10	-2.021173E+9	11.126172	0.267103	0	0
0	0	0	-0.109721	6.033223	-13.912394	6.033223	44580.25	-5.926284E-10	-1.687398E+9	11.075413	0.26637	0	0
0	0	0	-0.110987	6.033143	-13.913732	6.033143	44549.75	4.288511E-10	2.331812E+9	11.039039	0.265459	0	0
0	0	0	-0.111313	6.03319	-13.914231	6.03319	44541.875	-7.460691E-8	-1.340358E+7	11.022164	0.264726	0	0
0	0	0	-0.110987	6.033004	-13.913413	6.033004	44549.75	1.067526E-10	9.36745E+9	10.985891	0.263913	0	0
0	0	0	-0.111926	6.033097	-13.914753	6.033097	44527.125	2.137026E-10	4.679401E+9	10.955501	0.263062	0	0
0	0	0	-0.113396	6.033389	-13.917187	6.033389	44491.75	-9.923162E-11	-1.007743E+10	10.935608	0.262071	0	0
0	0	0	-0.114009	6.033323	-13.917771	6.033323	44477	-1.486991E-10	-6.724991E+9	10.907807	0.26118	0	0
0	0	0	-0.113355	6.033004	-13.916257	6.033004	44492.75	1.06616E-10	9.379451E+9	10.860545	0.260467	0	0
0	0	0	-0.112048	6.033323	-13.915417	6.033323	44524.25	-1.48857E-10	-6.717855E+9	10.819589	0.259516	0	0
0	0	0	-0.111558	6.033309	-13.914798	6.033309	44536	-1.654037E-10	-6.045815E+9	10.765643	0.258862	0	0
0	0	0	-0.111844	6.033037	-13.914519	6.033037	44529.125	1.2994E-10	7.695861E+9	10.712263	0.258169	0	0
0	0	0	-0.111191	6.033044	-13.913749	6.033044	44544.875	1.359051E-10	7.358073E+9	10.658956	0.257495	0	0
0	0	0	-0.110619	6.032931	-13.912805	6.032931	44558.625	7.662727E-11	1.305018E+10	10.632111	0.256663	0	0
0	0	0	-0.110129	6.033196	-13.912824	6.033196	44570.375	-2.871332E-9	-3.482704E+8	10.60852	0.25595	0	0
0	0	0	-0.109435	6.03315	-13.911884	6.03315	44587.125	5.012261E-10	1.995107E+9	10.566297	0.255237	0	0
0	0	0	-0.108863	6.033263	-13.911456	6.033263	44600.875	-2.706729E-10	-3.694496E+9	10.537837	0.254266	0	0
0	0	0	-0.108373	6.033037	-13.910351	6.033037	44612.75	1.30184E-10	7.681435E+9	10.502836	0.253534	0	0
0	0	0	-0.108046	6.033103	-13.910111	6.033103	44620.625	2.306753E-10	4.335097E+9	10.478369	0.252702	0	0
0	0	0	-0.107311	6.033077	-13.909167	6.033077	44638.375	1.763409E-10	5.670834E+9	10.436151	0.251751	0	0
0	0	0	-0.108006	6.033196	-13.910274	6.033196	44621.625	-2.874634E-9	-3.478704E+8	0	0	0	0
0	0	0	-0.107638	6.033117	-13.909651	6.033117	44630.5	2.728297E-10	3.66529E+9	0	0	0	0
0	0	0	-0.107025	6.032991	-13.908627	6.032991	44645.25	9.983986E-11	1.001604E+10	0	0	0	0
0	0	0	-0.106658	6.033283	-13.908854	6.033283	44654.125	-2.130909E-10	-4.692832E+9	0	0	0	0
0	0	0	-0.106372	6.03315	-13.908207	6.03315	44661	5.020566E-10	1.991807E+9	0	0	0	0
0	0	0	-0.106372	6.03325	-13.908435	6.03325	44661	-3.310019E-10	-3.02113E+9	0	0	0	0
0	0	0	-0.105555	6.032957	-13.906786	6.032957	44680.75	8.562874E-11	1.167832E+10	0	0	0	0
0	0	0	-0.105964	6.033402	-13.908294	6.033402	44670.875	-9.341195E-11	-1.070527E+10	0	0	0	0
0	0	0	-0.10625	6.033123	-13.907999	6.033123	44664	3.004476E-10	3.328367E+9	0	0	0	0
0	0	0	-0.10576	6.03323	-13.907654	6.03323	44675.875	-4.955719E-10	-2.017871E+9	0	0	0	0
0	0	0	-0.105719	6.033037	-13.907164	6.033037	44676.75	1.303708E-10	7.670432E+9	0	0	0	0
0	0	0	-0.10576	6.03303	-13.907198	6.03303	44675.875	1.249271E-10	8.004666E+9	0	0	0	0
0	0	0	-0.106985	6.033216	-13.909094	6.033216	44646.25	-7.404132E-10	-1.350597E+9	0	0	0	0
0	0	0	-0.10625	6.033216	-13.908212	6.033216	44664	-7.407075E-10	-1.350061E+9	0	0	0	0
0	0	0	-0.107107	6.03305	-13.908861	6.03305	44643.25	1.427036E-10	7.00753E+9	0	0	0	0
0	0	0	-0.10772	6.033004	-13.909491	6.033004	44628.5	1.069413E-10	9.350921E+9	0	0	0	0
0	0	0	-0.107271	6.033097	-13.909164	6.033097	44639.375	2.142413E-10	4.667634E+9	0	0	0	0
0	0	0	-0.108414	6.033044	-13.910415	6.033044	44611.75	1.361092E-10	7.347043E+9	0	0	0	0
0	0	0	-0.108618	6.03303	-13.91063	6.03303	44606.875	1.247342E-10	8.017048E+9	0	0	0	0
0	0	0	-0.109108	6.032831	-13.910763	6.032831	44595	5.53713E-11	1.80599E+10	0	0	0	0
0	0	0	-0.109557	6.033163	-13.912062	6.033163	44584.125	7.543199E-10	1.325697E+9	0	0	0	0
0	0	0	-0.110456	6.033203	-13.913231	6.033203	44562.625	-1.463562E-9	-6.832646E+8	0	0	0	0
0	0	0	-0.11115	6.032957	-13.913503	6.032957	44545.875	8.537025E-11	1.171368E+10	0	0	0	0
0	0	0	-0.111518	6.033289	-13.914704	6.033289	44537	-1.984009E-10	-5.0403E+9	0	0	0	0
0	0	0	-0.112416	6.03311	-13.915372	6.03311	44515.375	2.49373E-10	4.010058E+9	0	0	0	0
0	0	0	-0.113151	6.033044	-13.916103	6.033044	44497.75	1.357614E-10	7.365865E+9	0	0	0	0
0	0	0	-0.113192	6.03309	-13.916258	6.03309	44496.75	1.992816E-10	5.018025E+9	0	0	0	0
0	0	0	-0.114294	6.033183	-13.917795	6.033183	44470.125	3.103613E-9	3.222051E+8	0	0	0	0
0	0	0	-0.116826	6.032951	-13.920303	6.032951	44409.375	8.27419E-11	1.208578E+10	0	0	0	0
0	0	0	-0.117684	6.033117	-13.921712	6.033117	44388.75	2.713519E-10	3.685252E+9	0	0	0	0
0	0	0	-0.118541	6.033289	-13.923137	6.033289	44368.25	-1.976492E-10	-5.05947E+9	0	0	0	0
0	0	0	-0.119399	6.033289	-13.924167	6.033289	44347.625	-1.975573E-10	-5.061823E+9	0	0	0	0
0	0	0	-0.119031	6.033163	-13.923437	6.033163	44356.5	7.504687E-10	1.332501E+9	0	0	0	0
0	0	0	-0.119562	0	-0.119562	0	44343.75	0	0	0	0	0	0
0	0	0	-0.118991	0	-0.118991	0	44357.375	0	0	0	0	0	0
