Vload_(V)	ILoad_(A)	RsLoad (ohm)	SunsVoc_Voltage_(V)	SunsVoc_Current_(A)	Model_Voltage_(V)	Model_Current_(A)	Carrier_Density_(cm-3)	Lifetime_(s)	Inverse_Lifetime_(s-1)	Efficiency_(%)	Intensity_(suns)	Dark_IV_Voltage_(V)	Dark_IV_Current_(A)
3.358334	6.039613	0	50.723953	0.312683	50.525505	0.312683	6.996665E+15	0.000543	1758.758026	19.566613	1.190885	0	0
3.278393	6.042925	-0.548311	52.339939	-0.41658	52.581487	-0.41658	1.122148E+16	0.000773	1084.326359	19.47206	1.189787	0	0
3.380051	6.04292	-0.565132	52.878941	-1.105209	53.499569	-1.105209	1.309651E+16	0.000815	941.666495	19.391326	1.18861	0	0
4.035804	6.041608	-0.673312	53.030036	-0.997292	53.584952	-0.997292	1.367322E+16	0.000864	846.570376	19.319209	1.186178	0	0
6.009025	6.037674	3.454702	52.997081	-0.634023	53.350575	-0.634023	1.354541E+16	0.000903	802.973507	19.246479	1.182634	0	0
8.475249	6.036421	3.427646	52.911569	-0.23644	53.04408	-0.23644	1.321906E+16	0.000937	777.205058	19.140746	1.179448	0	0
10.968264	6.031756	3.678922	52.801392	0.163721	52.709024	0.163721	1.280957E+16	0.00097	758.790749	19.060744	1.176473	0	0
12.994987	6.029871	3.528533	52.685988	0.531259	52.384183	0.531259	1.239358E+16	0.001001	744.141552	19.034772	1.173855	0	0
15.037699	6.028566	3.308628	52.568379	0.876867	52.066736	0.876867	1.198282E+16	0.001032	730.175168	19.048099	1.169994	0	0
17.141187	6.026213	3.144942	52.449585	1.201163	51.757577	1.201163	1.158102E+16	0.001065	716.546135	19.048258	1.165684	0	0
19.458735	6.022377	2.947985	52.332262	1.496374	51.464221	1.496374	1.119671E+16	0.001096	704.043961	19.012032	1.161189	0	0
21.625912	6.024036	2.519028	52.209793	1.768248	51.176692	1.768248	1.080838E+16	0.001126	694.455129	18.959459	1.156693	0	0
23.779733	6.022657	2.218901	52.091367	2.019063	50.903614	2.019063	1.044496E+16	0.001156	684.20645	18.927711	1.152251	0	0
25.914918	6.019858	1.953759	51.976738	2.254127	50.641939	2.254127	1.010415E+16	0.001187	672.721212	18.935494	1.147954	0	0
28.07541	6.018109	1.642411	51.854147	2.490792	50.368845	2.490792	9.751223E+15	0.001222	660.27651	18.954477	1.143776	0	0
30.221485	6.017671	1.294878	51.726859	2.704239	50.102596	2.704239	9.397008E+15	0.001253	651.312722	18.967762	1.139809	0	0
32.388164	6.012052	1.072444	51.605779	2.894964	49.855067	2.894964	9.071254E+15	0.001283	642.688414	18.96306	1.135274	0	0
33.10312	6.011954	0.955655	51.482044	3.076721	49.6085	3.076721	8.749259E+15	0.001314	634.193789	18.945005	1.13021	0	0
33.806966	6.009224	0.897351	51.373745	3.2394	49.389237	3.2394	8.476194E+15	0.001347	623.382281	18.935339	1.125147	0	0
34.510762	6.003272	0.884305	51.249806	3.408193	49.147561	3.408193	8.173414E+15	0.001382	612.837567	18.947776	1.120069	0	0
35.212336	5.998795	0.831395	51.125704	3.558409	48.91582	3.558409	7.880304E+15	0.001413	604.716711	18.959446	1.115376	0	0
35.907688	5.981827	0.901835	51.013607	3.693438	48.705819	3.693438	7.623937E+15	0.001446	595.301337	18.964651	1.110576	0	0
36.599396	5.970587	0.878793	50.893344	3.821631	48.489863	3.821631	7.357465E+15	0.001476	587.815779	18.947848	1.105909	0	0
37.303504	5.95924	0.840161	50.783616	3.937499	48.292605	3.937499	7.121847E+15	0.001507	579.325852	18.93129	1.101295	0	0
37.999769	5.938046	0.846916	50.665353	4.053012	48.085002	4.053012	6.875681E+15	0.00154	571.035014	18.945155	1.096032	0	0
38.698893	5.914539	0.839742	50.553828	4.156215	47.892047	4.156215	6.650711E+15	0.001571	563.173902	18.97248	1.090281	0	0
39.396779	5.885124	0.830035	50.438832	4.252916	47.698528	4.252916	6.42581E+15	0.0016	556.507169	18.98569	1.084675	0	0
40.094006	5.846602	0.824475	50.322285	4.343076	47.506714	4.343076	6.204976E+15	0.001627	550.71897	18.966967	1.07981	0	0
40.794428	5.804572	0.804558	50.213088	4.42912	47.325327	4.42912	6.004365E+15	0.001659	543.106404	18.947329	1.074997	0	0
41.487866	5.749231	0.79223	50.096336	4.513501	47.13568	4.513501	5.796409E+15	0.00169	536.087275	18.938131	1.069801	0	0
42.1691	5.686005	0.773766	49.979952	4.593052	46.948978	4.593052	5.595626E+15	0.001721	529.162545	18.956891	1.064208	0	0
42.873449	5.60354	0.757059	49.86467	4.664698	46.768172	4.664698	5.402966E+15	0.001748	523.593133	18.979948	1.058734	0	0
43.56002	5.501032	0.743711	49.754574	4.732074	46.595676	4.732074	5.224581E+15	0.001777	517.282199	18.990744	1.053432	0	0
44.245985	5.386908	0.72083	49.64113	4.795099	46.421703	4.795099	5.046331E+15	0.001804	512.117933	18.9733	1.048197	0	0
44.923004	5.238035	0.706007	49.531525	4.85651	46.252807	4.85651	4.879317E+15	0.001835	505.552952	18.951462	1.042749	0	0
45.593548	5.070351	0.684488	49.416529	4.913542	46.080137	4.913542	4.709426E+15	0.00186	500.697009	18.941682	1.037434	0	0
46.258573	4.860346	0.669062	49.309374	4.966228	45.919153	4.966228	4.555895E+15	0.001888	495.176213	18.970933	1.031855	0	0
46.912593	4.615972	0.653355	49.194256	5.017888	45.74917	5.017888	4.395937E+15	0.001914	490.407518	19.00362	1.026341	0	0
47.546101	4.331307	0.642257	49.087345	5.065833	45.590968	5.065833	4.251875E+15	0.001942	484.829342	18.991909	1.020973	0	0
48.175901	3.996654	0.633831	48.975984	5.11152	45.428761	5.11152	4.106281E+15	0.001968	480.092709	18.962647	1.015526	0	0
48.797571	3.620871	0.623083	48.867685	5.155131	45.271257	5.155131	3.968936E+15	0.001996	474.814842	18.946406	1.010145	0	0
49.398263	3.204752	0.619127	48.756692	5.195134	45.112792	5.195134	3.832394E+15	0.002019	470.967382	18.961866	1.004605	0	0
49.979001	2.76595	0.610657	48.652354	5.231958	44.964105	5.231958	3.707825E+15	0.002042	466.842279	18.987413	0.999025	0	0
50.53186	2.298761	0.612841	48.538297	5.268424	44.803954	5.268424	3.575731E+15	0.002063	463.603149	18.997781	0.993803	0	0
51.059713	1.819066	0.618799	48.436941	5.301313	44.661056	5.301313	3.461822E+15	0.002086	459.53022	18.987435	0.988541	0	0
51.543759	1.352048	0.478831	48.323783	5.334023	44.504122	5.334023	3.338403E+15	0.002105	456.621512	18.952404	0.983649	0	0
51.984744	0.909394	0.380751	48.217689	5.36482	44.356664	5.36482	3.226188E+15	0.002127	452.911228	18.954957	0.978638	0	0
42.659972	5.619693	0.775626	48.109023	5.393603	44.207398	5.393603	3.114663E+15	0.002145	450.147101	18.989734	0.973402	0	0
52.645888	0	0	48.001868	5.42129	44.060505	5.42129	3.007975E+15	0.002164	447.07693	19.013477	0.968232	0	0
0	0	0	47.89067	5.448454	43.909004	5.448454	2.900616E+15	0.002183	444.181669	19.012904	0.963155	0	0
0	0	0	47.787394	5.472436	43.769027	5.472436	2.803882E+15	0.002199	441.67666	18.989622	0.958065	0	0
0	0	0	47.673746	5.498909	43.614737	5.498909	2.70065E+15	0.002222	437.9659	18.975685	0.952803	0	0
0	0	0	47.567367	5.520668	43.472371	5.520668	2.606993E+15	0.002235	436.19696	18.978218	0.947448	0	0
0	0	0	47.460702	5.541963	43.329855	5.541963	2.515889E+15	0.002249	434.149064	19.009937	0.94171	0	0
0	0	0	47.353301	5.562522	43.186862	5.562522	2.426918E+15	0.002263	432.136875	19.004945	0.936447	0	0
0	0	0	47.251782	5.581569	43.051851	5.581569	2.345296E+15	0.002278	429.906316	18.968876	0.931278	0	0
0	0	0	47.140869	5.600185	42.905857	5.600185	2.258802E+15	0.002287	428.85238	18.952989	0.925896	0	0
0	0	0	47.037716	5.617484	42.769962	5.617484	2.180802E+15	0.002298	427.236685	18.963034	0.920357	0	0
0	0	0	46.930724	5.634405	42.629663	5.634405	2.102319E+15	0.002308	425.945907	18.982747	0.914883	0	0
0	0	0	46.826428	5.650382	42.493175	5.650382	2.028124E+15	0.002318	424.596054	18.987913	0.909832	0	0
0	0	0	46.717925	5.667198	42.350914	5.667198	1.95329E+15	0.002333	422.266153	18.967311	0.904848	0	0
0	0	0	46.614649	5.680695	42.217333	5.680695	1.884234E+15	0.002335	422.311451	18.942337	0.899929	0	0
0	0	0	46.506841	5.695549	42.077194	5.695549	1.814345E+15	0.002346	420.831488	19.040234	0.894799	0	0
0	0	0	46.40234	5.708261	41.942568	5.708261	1.748688E+15	0.002348	420.883273	19.142466	0.889682	0	0
0	0	0	46.302127	5.720395	41.813426	5.720395	1.687604E+15	0.002352	420.486723	19.173018	0.884738	0	0
0	0	0	46.189744	5.734176	41.668366	5.734176	1.621234E+15	0.002361	419.150568	19.13636	0.880216	0	0
0	0	0	46.090838	5.744704	41.541882	5.744704	1.564638E+15	0.00236	419.642869	19.089016	0.87539	0	0
0	0	0	45.980947	5.75629	41.401354	5.75629	1.503697E+15	0.002361	419.804027	19.057726	0.870458	0	0
0	0	0	45.875303	5.767322	41.266262	5.767322	1.446987E+15	0.002364	419.543361	19.050893	0.865513	0	0
0	0	0	45.772435	5.77758	41.135032	5.77758	1.393487E+15	0.002366	419.487763	19.052915	0.860582	0	0
0	0	0	45.663116	5.786956	40.996724	5.786956	1.338443E+15	0.002357	421.374152	19.02937	0.855875	0	0
0	0	0	45.558697	5.796813	40.86382	5.796813	1.287564E+15	0.002359	421.155715	18.981539	0.851287	0	0
0	0	0	45.452603	5.805555	40.72975	5.805555	1.237522E+15	0.002352	422.627343	18.958682	0.846342	0	0
0	0	0	45.34651	5.814265	40.595642	5.814265	1.189103E+15	0.002347	423.668258	18.964925	0.84149	0	0
0	0	0	45.237027	5.824093	40.456495	5.824093	1.140794E+15	0.002355	422.529676	18.979118	0.836677	0	0
0	0	0	45.132199	5.831149	40.325137	5.831149	1.096074E+15	0.002339	425.551534	18.972806	0.832049	0	0
0	0	0	45.022226	5.840073	40.186018	5.840073	1.050731E+15	0.002342	425.071455	18.932181	0.827514	0	0
0	0	0	44.920911	5.846314	40.059438	5.846314	1.010343E+15	0.002325	428.388889	18.89352	0.823085	0	0
0	0	0	44.815552	5.853883	39.92686	5.853883	9.697165E+14	0.002323	428.99306	18.902109	0.818352	0	0
0	0	0	44.706151	5.860637	39.790066	5.860637	9.289742E+14	0.002309	431.661677	18.928722	0.813711	0	0
0	0	0	44.606755	5.865837	39.666526	5.865837	8.931992E+14	0.002286	436.029297	18.930557	0.809242	0	0
0	0	0	44.497272	5.87367	39.528629	5.87367	8.551254E+14	0.002292	435.020117	18.892931	0.804998	0	0
0	0	0	44.393465	5.878856	39.399731	5.878856	8.20281E+14	0.00227	439.436229	18.863462	0.800555	0	0
0	0	0	44.286759	5.885528	39.26605	5.885528	7.85703E+14	0.002268	439.826496	18.877966	0.795796	0	0
0	0	0	44.181279	5.891276	39.134583	5.891276	7.527243E+14	0.002257	442.06093	18.901513	0.791221	0	0
0	0	0	44.074613	5.895618	39.002862	5.895618	7.20558E+14	0.002226	448.369369	18.894126	0.786831	0	0
0	0	0	43.971133	5.900764	38.874239	5.900764	6.904583E+14	0.002212	451.26869	18.849772	0.782653	0	0
0	0	0	43.863652	5.906657	38.740127	5.906657	6.603165E+14	0.002209	451.908897	18.815107	0.778303	0	0
0	0	0	43.756864	5.910185	38.608866	5.910185	6.314706E+14	0.00217	460.087063	18.821871	0.773742	0	0
0	0	0	43.650403	5.915317	38.47657	5.915317	6.037751E+14	0.002161	462.173205	18.847812	0.769313	0	0
0	0	0	43.538633	5.920575	38.337749	5.920575	5.758073E+14	0.002152	464.176329	18.842374	0.76528	0	0
0	0	0	43.435847	5.924114	38.211197	5.924114	5.510616E+14	0.002122	470.657521	18.799137	0.761155	0	0
0	0	0	43.32175	5.927296	38.071347	5.927296	5.246536E+14	0.002078	480.783404	18.77031	0.757043	0	0
0	0	0	43.215534	5.931697	37.939857	5.931697	5.01044E+14	0.002065	483.754745	18.780979	0.752878	0	0
0	0	0	43.103519	5.936432	37.80107	5.936432	4.771322E+14	0.002057	485.748462	18.796296	0.748713	0	0
0	0	0	42.994853	5.939837	37.667464	5.939837	4.548743E+14	0.002028	492.74268	18.792942	0.744668	0	0
0	0	0	42.88047	5.942541	37.527594	5.942541	4.324131E+14	0.001982	504.333225	18.751987	0.740794	0	0
0	0	0	42.771109	5.945368	37.393629	5.945368	4.118374E+14	0.001944	514.146237	18.724878	0.736801	0	0
0	0	0	42.653214	5.949637	37.248074	5.949637	3.906082E+14	0.001931	517.560201	18.734944	0.732596	0	0
0	0	0	42.545201	5.953125	37.115076	5.953125	3.719977E+14	0.001913	522.413827	18.758524	0.728418	0	0
0	0	0	42.424203	5.956541	36.966509	5.956541	3.520701E+14	0.001885	530.206309	18.73877	0.724438	0	0
0	0	0	42.296752	5.959565	36.810518	5.959565	3.320942E+14	0.001846	541.669324	18.695046	0.720604	0	0
0	0	0	42.181592	5.962131	36.669701	5.962131	3.149068E+14	0.001808	552.93976	18.670434	0.716598	0	0
0	0	0	42.062758	5.965464	36.523735	5.965464	2.979968E+14	0.001788	559.204088	18.675373	0.712552	0	0
0	0	0	41.950049	5.968596	36.385294	5.968596	2.827055E+14	0.001771	564.56942	18.68833	0.708506	0	0
0	0	0	41.830439	5.971661	36.238592	5.971661	2.672433E+14	0.00175	571.470589	18.657546	0.704778	0	0
0	0	0	41.706255	5.974148	36.086909	5.974148	2.519917E+14	0.001712	583.891609	18.614696	0.700957	0	0
0	0	0	41.591912	5.976177	35.947474	5.976177	2.386426E+14	0.001673	597.460735	18.588079	0.697162	0	0
0	0	0	41.468504	5.978098	35.797222	5.978098	2.249513E+14	0.001627	614.645435	18.603576	0.693249	0	0
0	0	0	41.350935	5.980729	35.653301	5.980729	2.125712E+14	0.001606	622.62886	18.622757	0.689309	0	0
0	0	0	41.230957	5.983286	35.506532	5.983286	2.005769E+14	0.001584	631.21773	18.58572	0.685778	0	0
0	0	0	41.107754	5.985597	35.356097	5.985597	1.889037E+14	0.001556	642.733775	18.533859	0.682142	0	0
0	0	0	40.984795	5.988256	35.205602	5.988256	1.778754E+14	0.001541	648.983699	18.519486	0.678308	0	0
0	0	0	40.86302	5.990006	35.05739	5.990006	1.67538E+14	0.001502	665.559378	18.542318	0.674395	0	0
0	0	0	40.737529	5.99172	34.904728	5.99172	1.57466E+14	0.001463	683.669089	18.533089	0.670838	0	0
0	0	0	40.605627	5.993098	34.744665	5.993098	1.474847E+14	0.00141	708.942382	18.491441	0.667374	0	0
0	0	0	40.482464	5.99441	34.59517	5.99441	1.386975E+14	0.001365	732.604906	18.451731	0.663738	0	0
0	0	0	40.354155	5.99599	34.439208	5.99599	1.300633E+14	0.001326	753.92708	18.448121	0.660036	0	0
0	0	0	40.224499	5.998143	34.281043	5.998143	1.218505E+14	0.001307	765.035105	18.462105	0.656202	0	0
0	0	0	40.093005	6.000118	34.120824	6.000118	1.140196E+14	0.001284	778.649053	18.445938	0.652724	0	0
0	0	0	39.961756	6.001677	33.961298	6.001677	1.066773E+14	0.001251	799.380023	18.388853	0.649458	0	0
0	0	0	39.829282	6.00352	33.799999	6.00352	9.972045E+13	0.001229	813.620246	18.354277	0.645875	0	0
0	0	0	39.693215	6.005393	33.634326	6.005393	9.302343E+13	0.001209	826.917774	18.364399	0.642173	0	0
0	0	0	39.558658	6.006691	33.471039	6.006691	8.682239E+13	0.001173	852.37952	18.388116	0.638498	0	0
0	0	0	39.41765	6.007881	33.300081	6.007881	8.074751E+13	0.001132	883.369805	18.353644	0.635153	0	0
0	0	0	39.279908	6.008948	33.133172	6.008948	7.520692E+13	0.001091	916.572138	18.294519	0.631913	0	0
0	0	0	39.137388	6.009995	32.960521	6.009995	6.98584E+13	0.001049	953.061534	18.272527	0.628304	0	0
0	0	0	38.99691	6.010538	32.790839	6.010538	6.494524E+13	0.000994	1006.372786	18.295807	0.624721	0	0
0	0	0	38.849613	6.011608	32.612393	6.011608	6.015156E+13	0.000955	1046.568674	18.290009	0.621402	0	0
0	0	0	38.706766	6.012599	32.439379	6.012599	5.583012E+13	0.000919	1087.667282	18.247045	0.618308	0	0
0	0	0	38.556202	6.013517	32.257139	6.013517	5.160082E+13	0.00088	1136.834522	18.189394	0.615122	0	0
0	0	0	38.407312	6.014545	32.07679	6.014545	4.772494E+13	0.000847	1180.765977	18.190229	0.611539	0	0
0	0	0	38.251928	6.016074	31.888082	6.016074	4.398213E+13	0.000831	1203.095868	18.208202	0.608181	0	0
0	0	0	38.095279	6.017279	31.698178	6.017279	4.049879E+13	0.000807	1239.65431	18.178226	0.60514	0	0
0	0	0	37.936752	6.018223	31.506278	6.018223	3.724824E+13	0.000775	1290.882351	18.130922	0.601927	0	0
0	0	0	37.77606	6.019534	31.311368	6.019534	3.421403E+13	0.000758	1319.249449	18.093534	0.598754	0	0
0	0	0	37.61304	6.020593	31.113911	6.020593	3.138357E+13	0.000734	1362.353233	18.093642	0.595554	0	0
0	0	0	37.447448	6.021718	30.913274	6.021718	2.874391E+13	0.000715	1399.476447	18.106335	0.592354	0	0
0	0	0	37.275526	6.022428	30.705453	6.022428	2.623426E+13	0.000679	1472.556313	18.068829	0.589326	0	0
0	0	0	37.099683	6.023262	30.492766	6.023262	2.389061E+13	0.00065	1538.472892	18.01159	0.586219	0	0
0	0	0	36.924086	6.023903	30.280578	6.023903	2.175638E+13	0.000616	1623.191517	17.995044	0.58294	0	0
0	0	0	36.740934	6.024681	30.059131	6.024681	1.973074E+13	0.000588	1701.14288	18.013695	0.579728	0	0
0	0	0	36.554637	6.0251	29.834288	6.0251	1.786157E+13	0.000547	1826.498202	17.992061	0.576806	0	0
0	0	0	36.363767	6.025587	29.603855	6.025587	1.612818E+13	0.000512	1954.969002	17.93642	0.573844	0	0
0	0	0	36.164035	6.026099	29.362713	6.026099	1.449253E+13	0.000477	2096.108097	17.896919	0.570843	0	0
0	0	0	35.963038	6.026587	29.120067	6.026587	1.301258E+13	0.000444	2250.161347	17.901817	0.567537	0	0
0	0	0	35.754199	6.027048	28.868002	6.027048	1.163361E+13	0.000412	2427.949244	17.8978	0.56447	0	0
0	0	0	35.53993	6.0274	28.609513	6.0274	1.036953E+13	0.000378	2647.558389	17.848098	0.561667	0	0
0	0	0	35.322148	6.027788	28.346747	6.027788	9.224583E+12	0.000347	2881.544909	17.791732	0.558851	0	0
0	0	0	35.100936	6.028301	28.079698	6.028301	8.190275E+12	0.000322	3104.679671	17.775798	0.555757	0	0
0	0	0	34.873027	6.028867	27.804512	6.028867	7.245252E+12	0.0003	3334.014609	17.790276	0.552584	0	0
0	0	0	34.641525	6.029194	27.525271	6.029194	6.39644E+12	0.000273	3661.577477	17.769703	0.549794	0	0
0	0	0	34.406388	6.029463	27.241716	6.029463	5.635671E+12	0.000247	4048.689495	17.694924	0.547202	0	0
0	0	0	34.167657	6.029995	26.953512	6.029995	4.955495E+12	0.000229	4362.673831	17.646319	0.544108	0	0
0	0	0	33.923617	6.030428	26.659026	6.030428	4.344732E+12	0.00021	4752.386351	17.660348	0.541001	0	0
0	0	0	33.681497	6.0311	26.366553	6.0311	3.813007E+12	0.000199	5018.571674	17.660938	0.538198	0	0
0	0	0	33.431782	6.031249	26.065557	6.031249	3.332537E+12	0.000177	5641.400171	17.607749	0.535554	0	0
0	0	0	33.181372	6.03184	25.763181	6.03184	2.911406E+12	0.000167	6001.588831	17.537213	0.532804	0	0
0	0	0	32.929002	6.032138	25.458795	6.032138	2.540719E+12	0.000151	6613.178207	17.544538	0.529631	0	0
0	0	0	32.673242	6.032564	25.150161	6.032564	2.213108E+12	0.00014	7159.25305	17.567903	0.526577	0	0
0	0	0	32.41638	6.032938	24.840258	6.032938	1.926542E+12	0.000128	7788.510437	17.52306	0.523959	0	0
0	0	0	32.151514	6.033095	24.520981	6.033095	1.66981E+12	0.000114	8774.936953	17.438366	0.521486	0	0
0	0	0	31.890078	6.033703	24.205257	6.033703	1.449942E+12	0.000109	9161.941988	17.422697	0.518432	0	0
0	0	0	31.625783	6.033894	23.886614	6.033894	1.257059E+12	9.778589E-5	10226.424172	17.445933	0.515444	0	0
0	0	0	31.357936	6.034241	23.563486	6.034241	1.087727E+12	9.008123E-5	11101.09233	17.41164	0.512853	0	0
0	0	0	31.089232	6.034632	23.239261	6.034632	9.407557E+11	8.403086E-5	11900.389219	17.340231	0.510314	0	0
0	0	0	30.816606	6.035088	22.910221	6.035088	8.119107E+11	7.983247E-5	12526.230935	17.290638	0.507775	0	0
0	0	0	30.534712	6.035196	22.570465	6.035196	6.972034E+11	7.021695E-5	14241.5754	17.309663	0.504787	0	0
0	0	0	30.252245	6.03576	22.229411	6.03576	5.985109E+11	6.910288E-5	14471.176687	17.292292	0.50213	0	0
0	0	0	29.973903	6.035702	21.894148	6.035702	5.149306E+11	5.857499E-5	17072.131232	17.233714	0.499684	0	0
0	0	0	29.694662	6.035975	21.557358	6.035975	4.428037E+11	5.414443E-5	18469.121254	17.17246	0.497158	0	0
0	0	0	29.402435	6.036279	21.204874	6.036279	3.781143E+11	5.045133E-5	19821.081705	17.178228	0.494369	0	0
0	0	0	29.125155	6.036804	20.870089	6.036804	3.25492E+11	5.155798E-5	19395.640587	17.176841	0.491751	0	0
0	0	0	28.841341	6.036679	20.528318	6.036679	2.792042E+11	4.233731E-5	23619.829438	17.125184	0.489397	0	0
0	0	0	28.547971	6.036803	20.174691	6.036803	2.382642E+11	3.772667E-5	26506.450284	17.058776	0.487031	0	0
0	0	0	28.243085	6.037129	19.806905	6.037129	2.020647E+11	3.619311E-5	27629.566112	17.038427	0.48436	0	0
0	0	0	28.045762	6.037162	19.569119	6.037162	1.816229E+11	3.297445E-5	30326.508787	17.044516	0.481636	0	0
0	0	0	27.873228	6.037055	19.361396	6.037055	1.654509E+11	2.878179E-5	34744.187629	17.003142	0.479362	0	0
0	0	0	27.652465	6.03729	19.095083	6.03729	1.468405E+11	2.812567E-5	35554.708083	16.933202	0.476995	0	0
0	0	0	27.405404	6.037533	18.79707	6.037533	1.284837E+11	2.748038E-5	36389.598947	16.904143	0.474549	0	0
0	0	0	27.132166	6.03759	18.467781	6.03759	1.108421E+11	2.4375E-5	41025.63967	16.915965	0.47176	0	0
0	0	0	26.851129	6.037633	18.129113	6.037633	9.522039E+10	2.13994E-5	46730.2762	16.886125	0.469499	0	0
0	0	0	26.576013	6.037636	17.797637	6.037636	8.206244E+10	1.846945E-5	54143.459899	16.812774	0.467238	0	0
0	0	0	26.314618	6.038124	17.481984	6.038124	7.124913E+10	2.129264E-5	46964.579915	16.768401	0.464805	0	0
0	0	0	26.066944	6.038013	17.183736	6.038013	6.232116E+10	1.732714E-5	57712.939104	16.77953	0.462121	0	0
0	0	0	25.831112	6.038127	16.899424	6.038127	5.486196E+10	1.642725E-5	60874.457852	16.7534	0.459702	0	0
0	0	0	25.603857	6.038081	16.625681	6.038081	4.851993E+10	1.409512E-5	70946.563919	16.676239	0.457652	0	0
0	0	0	25.379174	6.038335	16.354591	6.038335	4.297074E+10	1.49612E-5	66839.563915	16.622333	0.455167	0	0
0	0	0	25.159269	6.038462	16.089444	6.038462	3.81546E+10	1.475171E-5	67788.743749	16.627546	0.452681	0	0
0	0	0	24.931972	6.038389	15.815691	6.038389	3.374315E+10	1.227195E-5	81486.609531	16.619143	0.450327	0	0
0	0	0	24.70243	6.03845	15.539031	6.03845	2.980553E+10	1.140374E-5	87690.503487	16.544339	0.448331	0	0
0	0	0	24.471499	6.038537	15.260657	6.038537	2.630765E+10	1.087979E-5	91913.528789	16.468552	0.44611	0	0
0	0	0	24.238322	6.03871	14.979442	6.03871	2.319209E+10	1.143552E-5	87446.848118	16.478795	0.443624	0	0
0	0	0	23.999265	6.038458	14.691796	6.038458	2.03806E+10	7.852321E-6	127350.888127	16.477127	0.441403	0	0
0	0	0	23.767476	6.038591	14.412314	6.038591	1.798045E+10	7.833196E-6	127661.818204	16.402854	0.439459	0	0
0	0	0	23.527602	6.038519	14.123409	6.038519	1.579377E+10	6.422583E-6	155700.605359	16.339521	0.437185	0	0
0	0	0	23.282542	6.038572	13.828059	6.038572	1.383418E+10	5.915363E-6	169051.338926	16.354919	0.434752	0	0
0	0	0	23.054429	6.038978	13.552572	6.038978	1.222924E+10	8.577997E-6	116577.329068	16.345939	0.432663	0	0
0	0	0	22.822926	6.038952	13.273679	6.038952	1.079071E+10	7.266603E-6	137615.880326	16.266666	0.430693	0	0
0	0	0	22.59563	6.038839	12.999992	6.038839	9.543064E+9	5.48826E-6	182207.104622	16.189186	0.428406	0	0
0	0	0	22.3638	6.038813	12.720707	6.038813	8.419018E+9	4.681939E-6	213586.703999	16.199352	0.425973	0	0
0	0	0	22.129439	6.038926	12.438148	6.038926	7.417211E+9	4.805546E-6	208092.920695	16.193393	0.423884	0	0
0	0	0	21.906757	6.039073	12.169605	6.039073	6.575998E+9	5.416548E-6	184619.428098	16.119615	0.422033	0	0
0	0	0	21.686321	6.039033	11.904069	6.039033	5.837273E+9	4.47791E-6	223318.443143	16.0441	0.419918	0	0
0	0	0	21.477565	6.039066	11.652486	6.039066	5.214351E+9	4.244093E-6	235621.595123	16.044422	0.417644	0	0
0	0	0	21.273749	6.039093	11.406867	6.039093	4.670362E+9	3.996387E-6	250226.004363	16.044235	0.415568	0	0
0	0	0	21.06389	6.03904	11.154096	6.03904	4.169481E+9	3.236691E-6	308957.47182	15.966721	0.413889	0	0
0	0	0	20.848559	6.039272	10.894262	6.039272	3.711322E+9	4.854451E-6	205996.528074	15.882001	0.411681	0	0
0	0	0	20.623957	6.038986	10.624114	6.038986	3.286995E+9	2.335061E-6	428254.290536	15.888636	0.409446	0	0
0	0	0	20.396947	6.03896	10.350636	6.03896	2.907393E+9	1.981297E-6	504719.846341	15.897129	0.407529	0	0
0	0	0	20.1623	6.039186	10.067534	6.039186	2.561035E+9	2.671437E-6	374330.308724	15.806007	0.405784	0	0
0	0	0	19.906826	6.039239	9.759626	6.039239	2.230684E+9	2.659269E-6	376043.164652	15.753632	0.403576	0	0
0	0	0	19.636814	6.039186	9.43438	6.039186	1.927735E+9	2.011516E-6	497137.528252	15.760008	0.401262	0	0
0	0	0	19.366354	6.039273	9.108356	6.039273	1.665525E+9	2.180679E-6	458572.709486	15.743543	0.399451	0	0
0	0	0	19.142079	6.03914	8.838355	6.03914	1.47536E+9	1.388077E-6	720421.259344	15.659008	0.397666	0	0
0	0	0	18.922174	6.03924	8.573222	6.03924	1.309999E+9	1.562424E-6	640031.122262	15.595073	0.395682	0	0
0	0	0	18.703862	6.039193	8.310258	6.039193	1.164173E+9	1.234401E-6	810109.740904	15.602771	0.393395	0	0
0	0	0	18.482323	6.039153	8.043397	6.039153	1.032778E+9	9.999572E-7	1000042.817364	15.575892	0.391544	0	0
0	0	0	18.263276	6.03928	7.779248	6.03928	9.174473E+8	1.225608E-6	815921.657843	15.485914	0.389706	0	0
0	0	0	18.043943	6.039147	7.515206	6.039147	8.148697E+8	7.777599E-7	1285743.806995	15.437229	0.38767	0	0
0	0	0	17.817054	6.039266	7.24162	6.039266	7.208112E+8	9.259947E-7	1079919.75056	15.453673	0.38529	0	0
0	0	0	17.589186	6.039173	6.967226	6.039173	6.37272E+8	6.451312E-7	1550072.314651	15.388166	0.38369	0	0
0	0	0	17.359358	6.039173	6.690307	6.039173	5.628179E+8	5.697729E-7	1755085.092667	15.295863	0.381945	0	0
0	0	0	17.134716	6.039233	6.419531	6.039233	4.98458E+8	5.842615E-7	1711562.409495	15.280453	0.37983	0	0
0	0	0	16.904765	6.03926	6.142417	6.03926	4.401928E+8	5.54897E-7	1802136.207202	15.285583	0.377688	0	0
0	0	0	16.672854	6.03932	5.862881	6.03932	3.883265E+8	5.895892E-7	1696096.313382	15.211512	0.376167	0	0
0	0	0	16.439146	6.03928	5.581358	6.03928	3.422389E+8	4.573069E-7	2186715.415387	15.136162	0.374382	0	0
0	0	0	16.198455	6.039206	5.291482	6.039206	3.004846E+8	3.291484E-7	3038143.070462	15.145148	0.372359	0	0
0	0	0	15.956703	6.03936	4.999918	6.03936	2.636731E+8	4.63525E-7	2157380.837713	15.135536	0.370429	0	0
0	0	0	15.711112	6.039399	4.703932	6.039399	2.308917E+8	4.819523E-7	2074893.971772	15.043069	0.368882	0	0
0	0	0	15.460252	6.039246	4.401952	6.039246	2.016109E+8	2.449257E-7	4082870.56385	14.989507	0.36711	0	0
0	0	0	15.20633	6.03934	4.095831	6.03934	1.757521E+8	2.863306E-7	3492466.444023	15.00191	0.364889	0	0
0	0	0	14.959473	6.039313	3.798442	6.039313	1.537963E+8	2.28275E-7	4380681.770426	14.961864	0.363382	0	0
0	0	0	14.723193	6.039313	3.513748	6.039313	1.353549E+8	2.008893E-7	4977866.193105	14.848358	0.361769	0	0
0	0	0	14.012963	6.039659	2.657342	6.039659	9.220044E+7	-8.850073E-7	-1129934.174798	14.819589	0.359733	0	0
0	0	0	12.141994	6.039586	0.403133	6.039586	3.353394E+7	5.569355E-7	1795539.953853	14.827079	0.357816	0	0
0	0	0	10.307369	6.03936	-1.806968	6.03936	1.243852E+7	2.186921E-8	4.57264E+7	14.769615	0.356335	0	0
0	0	0	8.68583	6.039739	-3.761543	6.039739	5177010.5	-1.823438E-8	-5.484146E+7	14.667278	0.354722	0	0
0	0	0	7.291015	6.039666	-5.44202	6.039666	2435665.625	-2.040433E-8	-4.900921E+7	14.659759	0.352725	0	0
0	0	0	6.103242	6.039606	-6.873052	6.039606	1281632.625	8.398756E-8	1.190653E+7	14.646431	0.350914	0	0
0	0	0	5.092945	6.039599	-8.090354	6.039599	742293.25	2.456453E-8	4.07091E+7	14.552566	0.349579	0	0
0	0	0	4.232314	6.039553	-9.127233	6.039553	466148.875	3.454712E-9	2.894597E+8	14.487982	0.347886	0	0
0	0	0	3.520982	6.039566	-9.984352	6.039566	317339.875	3.021911E-9	3.309165E+8	14.497469	0.345837	0	0
0	0	0	2.927748	6.039632	-10.699293	6.039632	230277.25	-5.165722E-9	-1.935838E+8	14.458724	0.344382	0	0
0	0	0	2.433707	6.039566	-11.294417	6.039566	176305	1.67889E-9	5.956318E+8	14.363597	0.342902	0	0
0	0	0	2.022769	6.039732	-11.789941	6.039732	141185	-5.24921E-10	-1.905049E+9	14.338621	0.341024	0	0
0	0	0	1.680762	6.039606	-12.201738	6.039606	117353.375	7.691115E-9	1.300202E+8	14.347549	0.339279	0	0
0	0	0	1.398622	6.039699	-12.541906	6.039699	100752.875	-5.18893E-10	-1.92718E+9	14.246023	0.338063	0	0
0	0	0	1.158585	6.039553	-12.830791	6.039553	88491.875	6.558307E-10	1.524784E+9	14.173356	0.336436	0	0
0	0	0	0.962365	6.039513	-13.067125	6.039513	79586	3.542107E-10	2.823178E+9	14.186213	0.334479	0	0
0	0	0	0.800121	6.039679	-13.263001	6.039679	72903.25	-4.883277E-10	-2.047805E+9	14.150326	0.332893	0	0
0	0	0	0.662951	6.039646	-13.428201	6.039646	67692.875	-9.086751E-10	-1.100503E+9	14.041533	0.331584	0	0
0	0	0	0.545056	6.039606	-13.570161	6.039606	63513.375	4.162553E-9	2.402372E+8	13.995852	0.329892	0	0
0	0	0	0.452929	6.039672	-13.681322	6.039672	60427.75	-4.498369E-10	-2.223028E+9	14.020419	0.328067	0	0
0	0	0	0.375666	6.039446	-13.773887	6.039446	57955.875	1.548478E-10	6.457953E+9	13.930133	0.326718	0	0
0	0	0	0.312573	6.039566	-13.850188	6.039566	56012.5	5.333875E-10	1.87481E+9	13.831806	0.325357	0	0
0	0	0	0.264345	6.039726	-13.908673	6.039726	54571.125	-2.148425E-10	-4.654572E+9	13.840337	0.323479	0	0
0	0	0	0.217955	6.039672	-13.964444	6.039672	53219.5	-3.961772E-10	-2.524123E+9	13.806581	0.322117	0	0
0	0	0	0.192677	6.039726	-13.995027	6.039726	52497.25	-2.066778E-10	-4.838449E+9	13.703898	0.320795	0	0
0	0	0	0.162131	6.039526	-14.031363	6.039526	51637.5	2.651241E-10	3.771819E+9	13.68147	0.319037	0	0
0	0	0	0.130524	6.039672	-14.069791	6.039672	50762.75	-3.778886E-10	-2.646283E+9	13.678519	0.31745	0	0
0	0	0	0.119294	6.039606	-14.083166	6.039606	50455.5	3.306765E-9	3.024104E+8	13.580971	0.31626	0	0
0	0	0	0.107492	6.039592	-14.097355	6.039592	50134.625	1.109752E-9	9.011025E+8	13.514188	0.3147	0	0
0	0	0	0.081847	6.039666	-14.128427	6.039666	49444.375	-4.141989E-10	-2.414299E+9	13.535805	0.312889	0	0
0	0	0	0.06298	6.039546	-14.150878	6.039546	48942.625	3.265236E-10	3.062566E+9	13.477919	0.311685	0	0
0	0	0	0.053955	6.039659	-14.162018	6.039659	48704.5	-4.664538E-10	-2.143835E+9	13.372434	0.31039	0	0
0	0	0	0.049504	6.039599	-14.16724	6.039599	48587.375	1.60793E-9	6.219178E+8	13.358774	0.308631	0	0
0	0	0	0.046237	6.039632	-14.171255	6.039632	48501.625	-1.088015E-9	-9.191047E+8	13.351182	0.307097	0	0
0	0	0	0.041622	6.039672	-14.176909	6.039672	48380.875	-3.601574E-10	-2.776564E+9	13.249728	0.305947	0	0
0	0	0	0.034394	6.039506	-14.185227	6.039506	48192.25	2.010989E-10	4.972678E+9	13.182943	0.304294	0	0
0	0	0	0.024716	6.039466	-14.196794	6.039466	47940.75	1.4554E-10	6.870961E+9	13.203477	0.302681	0	0
0	0	0	0.013609	6.039566	-14.210413	6.039566	47653.75	4.5379E-10	2.203662E+9	13.118507	0.301544	0	0
0	0	0	0.005196	6.039573	-14.220564	6.039573	47437.5	5.267691E-10	1.898365E+9	13.042549	0.300116	0	0
0	0	0	-0.00293	6.039666	-14.230576	6.039666	47229.5	-3.956448E-10	-2.52752E+9	13.055384	0.298345	0	0
0	0	0	-0.010199	6.039706	-14.239428	6.039706	47044.375	-2.249549E-10	-4.445335E+9	12.981848	0.297128	0	0
0	0	0	-0.016774	6.039646	-14.247209	6.039646	46877.375	-6.292583E-10	-1.589173E+9	12.864058	0.295872	0	0
0	0	0	-0.020531	6.039632	-14.251704	6.039632	46782.375	-1.049448E-9	-9.528818E+8	12.870593	0.294074	0	0
0	0	0	-0.022001	6.039573	-14.253335	6.039573	46745.125	5.190806E-10	1.926483E+9	12.837184	0.292699	0	0
0	0	0	-0.022981	6.039759	-14.254955	6.039759	46720.375	-1.420933E-10	-7.037629E+9	12.725056	0.291641	0	0
0	0	0	-0.023675	6.039592	-14.255399	6.039592	46702.875	1.033788E-9	9.673159E+8	12.702266	0.290068	0	0
0	0	0	-0.024737	6.039533	-14.256537	6.039533	46676.125	2.595884E-10	3.852252E+9	12.682652	0.2886	0	0
0	0	0	-0.024655	6.039679	-14.256784	6.039679	46678.125	-3.12664E-10	-3.198322E+9	12.560737	0.287648	0	0
0	0	0	-0.024533	6.039639	-14.256542	6.039639	46681.25	-7.840692E-10	-1.275398E+9	12.511009	0.28622	0	0
0	0	0	-0.024574	6.039606	-14.256513	6.039606	46680.125	3.059333E-9	3.268686E+8	12.532287	0.284449	0	0
0	0	0	-0.025145	6.039672	-14.257359	6.039672	46665.75	-3.473897E-10	-2.878612E+9	12.429914	0.283603	0	0
0	0	0	-0.025104	6.039626	-14.2572	6.039626	46666.75	-1.575569E-9	-6.346915E+8	12.343895	0.282161	0	0
0	0	0	-0.025145	6.039732	-14.2575	6.039732	46665.75	-1.735016E-10	-5.763635E+9	12.352661	0.280509	0	0
0	0	0	-0.024655	6.039519	-14.256407	6.039519	46678.125	2.225668E-10	4.493033E+9	12.269811	0.279425	0	0
0	0	0	-0.024574	6.039612	-14.256529	6.039612	46680.125	1.56026E-7	6409187.750059	12.17618	0.27838	0	0
0	0	0	-0.024614	6.039546	-14.256421	6.039546	46679.125	3.114225E-10	3.211072E+9	12.187734	0.276608	0	0
0	0	0	-0.024614	6.039652	-14.256672	6.039652	46679.125	-5.218149E-10	-1.916388E+9	12.117013	0.275471	0	0
0	0	0	-0.024533	6.039706	-14.256699	6.039706	46681.25	-2.232186E-10	-4.479914E+9	11.986045	0.274453	0	0
0	0	0	-0.023961	6.039699	-14.255994	6.039699	46695.625	-2.404897E-10	-4.158182E+9	12.010653	0.272761	0	0
0	0	0	-0.023798	6.039679	-14.25575	6.039679	46699.75	-3.128088E-10	-3.196841E+9	11.947219	0.271822	0	0
0	0	0	-0.024165	6.039486	-14.255739	6.039486	46690.5	1.641017E-10	6.093783E+9	11.851946	0.270566	0	0
0	0	0	-0.023757	6.039479	-14.255231	6.039479	46700.75	1.55939E-10	6.412764E+9	11.875409	0.269072	0	0
0	0	0	-0.023879	6.039553	-14.255551	6.039553	46697.75	3.460863E-10	2.889453E+9	11.811809	0.268133	0	0
0	0	0	-0.024124	6.039652	-14.256081	6.039652	46691.5	-5.219533E-10	-1.91588E+9	11.694632	0.266957	0	0
0	0	0	-0.024002	6.039592	-14.255793	6.039592	46694.625	1.033606E-9	9.674869E+8	11.701561	0.265304	0	0
0	0	0	-0.023063	6.039785	-14.255116	6.039785	46718.375	-1.202108E-10	-8.318719E+9	11.6624	0.264246	0	0
0	0	0	-0.021715	6.039586	-14.253021	6.039586	46752.375	7.774502E-10	1.286256E+9	11.536947	0.263122	0	0
0	0	0	-0.022613	6.039659	-14.254276	6.039659	46729.625	-4.4754E-10	-2.234437E+9	11.53962	0.261615	0	0
0	0	0	-0.022532	6.039712	-14.254304	6.039712	46731.75	-2.085428E-10	-4.795179E+9	11.486059	0.260637	0	0
0	0	0	-0.022042	6.039632	-14.253525	6.039632	46744.125	-1.04859E-9	-9.536615E+8	11.366755	0.259685	0	0
0	0	0	-0.023267	6.039619	-14.25497	6.039619	46713.125	-3.186455E-9	-3.138284E+8	11.372484	0.258005	0	0
0	0	0	-0.023675	6.039466	-14.255101	6.039466	46702.875	1.417821E-10	7.053079E+9	11.31785	0.256987	0	0
0	0	0	-0.023594	6.039639	-14.25541	6.039639	46705	-7.844681E-10	-1.274749E+9	11.198095	0.255983	0	0
0	0	0	-0.024206	6.039559	-14.25596	6.039559	46689.5	3.891704E-10	2.569568E+9	11.219166	0.254436	0	0
0	0	0	-0.024737	6.039712	-14.256961	6.039712	46676.125	-2.082946E-10	-4.800893E+9	11.134277	0.25347	0	0
0	0	0	-0.024737	6.039459	-14.256365	6.039459	46676.125	1.355453E-10	7.377608E+9	11.022369	0.252426	0	0
0	0	0	-0.025309	6.039592	-14.257367	6.039592	46661.625	1.032875E-9	9.681711E+8	11.03067	0.250919	0	0
0	0	0	-0.025104	6.039612	-14.257168	6.039612	46666.75	1.559813E-7	6411025.340351	10.94683	0.250139	0	0
0	0	0	-0.025472	6.039646	-14.257689	6.039646	46657.5	-6.263068E-10	-1.596662E+9	10.862751	0.248988	0	0
0	0	0	-0.025962	6.039566	-14.258092	6.039566	46645.125	4.441852E-10	2.251313E+9	10.891016	0.247415	0	0
0	0	0	-0.026125	6.039739	-14.258696	6.039739	46641	-1.642732E-10	-6.087422E+9	10.773052	0.246754	0	0
0	0	0	-0.02637	6.039519	-14.258474	6.039519	46634.875	2.223606E-10	4.4972E+9	10.699513	0.245432	0	0
0	0	0	-0.026983	6.039499	-14.259165	6.039499	46619.5	1.831062E-10	5.461312E+9	10.709129	0.244162	0	0
0	0	0	-0.026942	6.039459	-14.259022	6.039459	46620.5	1.353838E-10	7.38641E+9	10.581501	0.243448	0	0
0	0	0	-0.026901	6.039592	-14.259286	6.039592	46621.5	1.031987E-9	9.690043E+8	10.532146	0.242166	0	0
0	0	0	-0.027636	6.039539	-14.260046	6.039539	46603	2.827009E-10	3.537307E+9	10.537756	0.240976	0	0
0	0	0	-0.027432	6.039592	-14.259926	6.039592	46608.125	1.031691E-9	9.692824E+8	10.401066	0.240222	0	0
0	0	0	-0.028698	6.039573	-14.261404	6.039573	46576.25	5.172053E-10	1.933468E+9	10.36502	0.238887	0	0
0	0	0	-0.030005	6.039446	-14.262681	6.039446	46543.375	1.243557E-10	8.041452E+9	10.322899	0.237882	0	0
0	0	0	-0.030168	6.039486	-14.262972	6.039486	46539.25	1.635701E-10	6.113588E+9	10.207157	0.236957	0	0
0	0	0	-0.030454	6.039639	-14.263677	6.039639	46532	-7.815623E-10	-1.279488E+9	10.20851	0.235555	0	0
0	0	0	-0.030985	6.039639	-14.264316	6.039639	46518.625	-7.813377E-10	-1.279856E+9	10.115704	0.234788	0	0
0	0	0	-0.030372	6.039805	-14.26397	6.039805	46534.125	-1.073416E-10	-9.316051E+9	10.039579	0.233664	0	0
0	0	0	-0.030372	6.039626	-14.263547	6.039626	46534.125	-1.571091E-9	-6.365004E+8	10.049287	0.232422	0	0
0	0	0	-0.029719	6.039479	-14.262415	6.039479	46550.5	1.554373E-10	6.433462E+9	9.931715	0.231747	0	0
0	0	0	-0.029392	6.039573	-14.262241	6.039573	46558.75	5.17011E-10	1.934195E+9	9.903185	0.230399	0	0
0	0	0	-0.029433	6.039719	-14.262635	6.039719	46557.75	-1.947647E-10	-5.134401E+9	9.873371	0.229367	0	0
0	0	0	-0.028821	6.039479	-14.261332	6.039479	46573.125	1.555129E-10	6.430337E+9	9.726147	0.228653	0	0
0	0	0	-0.02829	6.0394	-14.260504	6.0394	46586.5	9.725988E-11	1.028173E+10	9.740583	0.227173	0	0
0	0	0	-0.027636	6.039619	-14.260235	6.039619	46603	-3.178943E-9	-3.145699E+8	9.666071	0.226498	0	0
0	0	0	-0.027555	6.039473	-14.259791	6.039473	46605	1.482159E-10	6.746915E+9	9.577506	0.22548	0	0
0	0	0	-0.02637	6.039646	-14.258772	6.039646	46634.875	-6.260031E-10	-1.597436E+9	9.611469	0.224198	0	0
0	0	0	-0.026697	6.039486	-14.258789	6.039486	46626.625	1.638772E-10	6.102131E+9	9.474503	0.22351	0	0
0	0	0	-0.026615	6.039526	-14.258785	6.039526	46628.625	2.394069E-10	4.17699E+9	9.436251	0.222294	0	0
0	0	0	-0.02588	6.039666	-14.258229	6.039666	46647.25	-3.907672E-10	-2.559068E+9	9.388404	0.221382	0	0
0	0	0	-0.02588	6.039446	-14.257711	6.039446	46647.25	1.246332E-10	8.023545E+9	9.263201	0.220654	0	0
0	0	0	-0.025717	6.039726	-14.258173	6.039726	46651.375	-1.83663E-10	-5.444754E+9	9.29349	0.219226	0	0
0	0	0	-0.026085	6.039546	-14.258192	6.039546	46642.125	3.111756E-10	3.213619E+9	9.139415	0.218777	0	0
0	0	0	-0.025554	6.039652	-14.257804	6.039652	46655.5	-5.215508E-10	-1.917359E+9	9.139072	0.217349	0	0
0	0	0	-0.025145	6.039746	-14.257531	6.039746	46665.75	-1.561341E-10	-6.404751E+9	9.116342	0.216516	0	0
0	0	0	-0.025064	6.039566	-14.257009	6.039566	46667.875	4.444019E-10	2.250215E+9	8.980739	0.215696	0	0
0	0	0	-0.024696	6.039772	-14.257052	6.039772	46677.125	-1.301218E-10	-7.68511E+9	9.006161	0.214493	0	0
0	0	0	-0.024043	6.039526	-14.255685	6.039526	46693.625	2.397406E-10	4.171175E+9	8.878855	0.213872	0	0
0	0	0	-0.024574	6.039539	-14.256356	6.039539	46680.125	2.831688E-10	3.531463E+9	8.851847	0.21255	0	0
0	0	0	-0.024696	6.039586	-14.256613	6.039586	46677.125	7.761989E-10	1.28833E+9	8.783934	0.211717	0	0
0	0	0	-0.024288	6.039632	-14.256231	6.039632	46687.375	-1.047317E-9	-9.548207E+8	8.671674	0.210989	0	0
0	0	0	-0.024574	6.039599	-14.256497	6.039599	46680.125	1.544812E-9	6.47328E+8	8.690472	0.209694	0	0
0	0	0	-0.02441	6.039686	-14.256504	6.039686	46684.375	-2.842263E-10	-3.518324E+9	8.558439	0.209138	0	0
0	0	0	-0.024982	6.039726	-14.257287	6.039726	46669.875	-1.837359E-10	-5.442596E+9	8.534262	0.207895	0	0
0	0	0	-0.025595	6.039699	-14.257962	6.039699	46654.375	-2.402773E-10	-4.161859E+9	8.473439	0.20734	0	0
0	0	0	-0.026085	6.039433	-14.257926	6.039433	46642.125	1.153953E-10	8.665867E+9	8.396526	0.206269	0	0
0	0	0	-0.026411	6.039632	-14.25879	6.039632	46633.875	-1.046117E-9	-9.559161E+8	8.399039	0.205251	0	0
0	0	0	-0.02588	6.039746	-14.258417	6.039746	46647.25	-1.560722E-10	-6.407291E+9	8.276007	0.20455	0	0
0	0	0	-0.026656	6.039566	-14.258928	6.039566	46627.625	4.440186E-10	2.252158E+9	8.283939	0.203321	0	0
0	0	0	-0.026493	6.039573	-14.258747	6.039573	46631.75	5.178216E-10	1.931167E+9	8.165897	0.202699	0	0
0	0	0	-0.026901	6.039679	-14.25949	6.039679	46621.5	-3.122847E-10	-3.202206E+9	8.121183	0.201695	0	0
0	0	0	-0.027922	6.039652	-14.260657	6.039652	46595.75	-5.208829E-10	-1.919817E+9	8.039209	0.200954	0	0
0	0	0	-0.028698	6.039519	-14.261279	6.039519	46576.25	2.22081E-10	4.502861E+9	7.948116	0.200042	0	0
0	0	0	-0.02878	6.039626	-14.261628	6.039626	46574.125	-1.572441E-9	-6.359537E+8	7.929179	0.199024	0	0
0	0	0	-0.029351	6.039506	-14.262035	6.039506	46559.75	1.942867E-10	5.147032E+9	7.79283	0.198376	0	0
0	0	0	-0.028943	6.039686	-14.261966	6.039686	46570	-2.835299E-10	-3.526965E+9	7.808826	0.197226	0	0
0	0	0	-0.029719	6.039646	-14.262807	6.039646	46550.5	-6.248704E-10	-1.600332E+9	7.690972	0.196697	0	0
0	0	0	-0.029678	6.039632	-14.262726	6.039632	46551.5	-1.044269E-9	-9.576076E+8	7.68845	0.195533	0	0
0	0	0	-0.030781	6.039639	-14.26407	6.039639	46523.875	-7.814259E-10	-1.279712E+9	7.594449	0.194885	0	0
0	0	0	-0.031312	6.039619	-14.264663	6.039619	46510.5	-3.172634E-9	-3.151956E+8	7.561164	0.193973	0	0
0	0	0	-0.032618	6.039752	-14.266551	6.039752	46477.625	-1.480926E-10	-6.752531E+9	7.503259	0.193219	0	0
0	0	0	-0.034007	6.039573	-14.267801	6.039573	46442.75	5.157229E-10	1.939026E+9	7.423171	0.192188	0	0
0	0	0	-0.034129	6.039519	-14.267823	6.039519	46439.625	2.214296E-10	4.516108E+9	7.409279	0.191395	0	0
0	0	0	-0.033925	6.039659	-14.267906	6.039659	46444.75	-4.448117E-10	-2.248142E+9	7.277464	0.190654	0	0
0	0	0	-0.034048	6.039619	-14.26796	6.039619	46441.75	-3.167944E-9	-3.156622E+8	7.261727	0.189835	0	0
0	0	0	-0.032986	6.039479	-14.266351	6.039479	46468.375	1.551631E-10	6.444832E+9	7.138758	0.189081	0	0
0	0	0	-0.032986	6.039573	-14.266571	6.039573	46468.375	5.160075E-10	1.937957E+9	7.135908	0.18797	0	0
0	0	0	-0.031189	6.039692	-14.264688	6.039692	46513.5	-2.595477E-10	-3.852856E+9	7.002457	0.187561	0	0
0	0	0	-0.030291	6.039506	-14.263166	6.039506	46536.125	1.941881E-10	5.149645E+9	6.997536	0.186344	0	0
0	0	0	-0.030536	6.039672	-14.263854	6.039672	46530	-3.463791E-10	-2.88701E+9	6.897752	0.185921	0	0
0	0	0	-0.029106	6.039719	-14.262241	6.039719	46566	-1.947992E-10	-5.133492E+9	6.864793	0.184692	0	0
0	0	0	-0.028943	6.039592	-14.261746	6.039592	46570	1.030847E-9	9.700759E+8	6.758033	0.184348	0	0
0	0	0	-0.028331	6.039666	-14.261181	6.039666	46585.5	-3.902499E-10	-2.56246E+9	6.717571	0.183184	0	0
0	0	0	-0.028698	6.039592	-14.261451	6.039592	46576.25	1.030985E-9	9.699458E+8	6.604737	0.182748	0	0
0	0	0	-0.027759	6.039659	-14.260476	6.039659	46599.875	-4.462973E-10	-2.240659E+9	6.568833	0.181598	0	0
0	0	0	-0.027065	6.039692	-14.259718	6.039692	46617.375	-2.601273E-10	-3.844271E+9	6.466803	0.181082	0	0
0	0	0	-0.027922	6.039606	-14.260548	6.039606	46595.75	3.053804E-9	3.274605E+8	6.419957	0.180104	0	0
0	0	0	-0.02633	6.039499	-14.258378	6.039499	46635.875	1.831705E-10	5.459394E+9	6.322151	0.179601	0	0
0	0	0	-0.026942	6.039553	-14.259241	6.039553	46620.5	3.455138E-10	2.894241E+9	6.305742	0.178557	0	0
0	0	0	-0.026738	6.039719	-14.259387	6.039719	46625.625	-1.950486E-10	-5.126927E+9	6.203594	0.178015	0	0
0	0	0	-0.026493	6.039692	-14.259029	6.039692	46631.75	-2.602075E-10	-3.843086E+9	6.202133	0.17701	0	0
0	0	0	-0.026248	6.039533	-14.258358	6.039533	46638	2.593764E-10	3.855401E+9	6.089286	0.176587	0	0
0	0	0	-0.025758	6.039626	-14.257987	6.039626	46650.375	-1.575016E-9	-6.349142E+8	6.073581	0.175489	0	0
0	0	0	-0.025145	6.039712	-14.257453	6.039712	46665.75	-2.082483E-10	-4.801961E+9	5.959781	0.175053	0	0
0	0	0	-0.025186	6.039686	-14.257439	6.039686	46664.75	-2.841068E-10	-3.519803E+9	5.919388	0.174035	0	0
0	0	0	-0.0249	6.039759	-14.257267	6.039759	46672	-1.419462E-10	-7.044924E+9	5.794879	0.173572	0	0
0	0	0	-0.024982	6.039752	-14.25735	6.039752	46669.875	-1.487052E-10	-6.724715E+9	5.798788	0.172488	0	0
0	0	0	-0.025472	6.039573	-14.257517	6.039573	46657.5	5.181076E-10	1.930101E+9	5.687109	0.171933	0	0
0	0	0	-0.025635	6.039619	-14.257824	6.039619	46653.375	-3.18238E-9	-3.142303E+8	5.671487	0.171153	0	0
0	0	0	-0.026411	6.039612	-14.258743	6.039612	46633.875	1.558714E-7	6415544.903213	5.585568	0.170333	0	0
0	0	0	-0.026493	6.039759	-14.259186	6.039759	46631.75	-1.418238E-10	-7.051005E+9	5.532644	0.16954	0	0
0	0	0	-0.026493	6.039726	-14.259108	6.039726	46631.75	-1.835858E-10	-5.447045E+9	5.444017	0.168997	0	0
0	0	0	-0.02682	6.039679	-14.259392	6.039679	46623.5	-3.122981E-10	-3.202069E+9	5.364721	0.16835	0	0
0	0	0	-0.028004	6.039506	-14.260411	6.039506	46593.75	1.944286E-10	5.143276E+9	5.335036	0.167424	0	0
0	0	0	-0.028167	6.039699	-14.261062	6.039699	46589.625	-2.399438E-10	-4.167643E+9	5.219061	0.166856	0	0
0	0	0	-0.028086	6.039646	-14.260839	6.039646	46591.625	-6.254225E-10	-1.598919E+9	5.186944	0.165837	0	0
0	0	0	-0.029351	6.039679	-14.262442	6.039679	46559.75	-3.118711E-10	-3.206453E+9	5.054429	0.165401	0	0
0	0	0	-0.029311	6.039566	-14.262126	6.039566	46560.875	4.43383E-10	2.255387E+9	5.009431	0.164621	0	0
0	0	0	-0.029719	6.039599	-14.262697	6.039599	46550.5	1.540522E-9	6.491305E+8	4.907401	0.163841	0	0
0	0	0	-0.029637	6.039559	-14.262504	6.039559	46552.625	3.880295E-10	2.577123E+9	4.826402	0.163312	0	0
0	0	0	-0.030168	6.039686	-14.263442	6.039686	46539.25	-2.833427E-10	-3.529295E+9	4.783086	0.162466	0	0
0	0	0	-0.03221	6.039679	-14.265887	6.039679	46487.875	-3.113896E-10	-3.211411E+9	4.678274	0.161897	0	0
0	0	0	-0.032006	6.039513	-14.265248	6.039513	46493	2.069248E-10	4.832673E+9	4.658512	0.161131	0	0
0	0	0	-0.031557	6.039606	-14.264927	6.039606	46504.375	3.047815E-9	3.281039E+8	4.597659	0.160324	0	0
0	0	0	-0.032782	6.039612	-14.266419	6.039612	46473.5	1.553353E-7	6437685.286255	4.508302	0.159769	0	0
0	0	0	-0.034129	6.039612	-14.268042	6.039612	46439.625	1.552221E-7	6442380.753706	4.480697	0.15887	0	0
0	0	0	-0.034864	6.039453	-14.268552	6.039453	46421.25	1.291929E-10	7.740361E+9	4.36703	0.158407	0	0
0	0	0	-0.035967	6.039592	-14.270209	6.039592	46393.625	1.026943E-9	9.737639E+8	4.30563	0.157574	0	0
0	0	0	-0.03707	6.039632	-14.271632	6.039632	46365.875	-1.040105E-9	-9.614414E+8	4.210129	0.156847	0	0
0	0	0	-0.036743	6.039732	-14.271474	6.039732	46374.125	-1.724174E-10	-5.79988E+9	4.117618	0.156371	0	0
0	0	0	-0.036212	6.039592	-14.270505	6.039592	46387.5	1.026807E-9	9.738924E+8	4.059562	0.155564	0	0
0	0	0	-0.034987	6.039539	-14.268903	6.039539	46418.125	2.815795E-10	3.551395E+9	3.963102	0.154943	0	0
0	0	0	-0.034374	6.039553	-14.268196	6.039553	46433.5	3.441279E-10	2.905896E+9	3.8998	0.154348	0	0
0	0	0	-0.034129	6.039486	-14.267744	6.039486	46439.625	1.632199E-10	6.126703E+9	3.822544	0.153687	0	0
0	0	0	-0.033108	6.039499	-14.266546	6.039499	46465.375	1.825008E-10	5.479427E+9	3.738473	0.152933	0	0
0	0	0	-0.031802	6.039805	-14.265692	6.039805	46498.125	-1.072586E-10	-9.323264E+9	3.634367	0.152272	0	0
0	0	0	-0.030617	6.039592	-14.263764	6.039592	46527.875	1.029915E-9	9.709542E+8	3.590172	0.151624	0	0
0	0	0	-0.030781	6.039499	-14.263741	6.039499	46523.875	1.827306E-10	5.472537E+9	3.51701	0.150976	0	0
0	0	0	-0.030903	6.039619	-14.264171	6.039619	46520.75	-3.173333E-9	-3.151261E+8	3.427198	0.150474	0	0
0	0	0	-0.029106	6.039619	-14.262006	6.039619	46566	-3.176419E-9	-3.148199E+8	3.360508	0.149681	0	0
0	0	0	-0.027963	6.039672	-14.260754	6.039672	46594.75	-3.468611E-10	-2.882998E+9	3.287351	0.148993	0	0
0	0	0	-0.028412	6.039712	-14.261389	6.039712	46583.375	-2.078807E-10	-4.810452E+9	3.226021	0.148464	0	0
0	0	0	-0.028004	6.039652	-14.260756	6.039652	46593.75	-5.208605E-10	-1.9199E+9	3.161092	0.147882	0	0
0	0	0	-0.027146	6.039706	-14.259848	6.039706	46615.25	-2.22903E-10	-4.486257E+9	3.11658	0.147195	0	0
0	0	0	-0.027269	6.039659	-14.259886	6.039659	46612.25	-4.464159E-10	-2.240064E+9	3.055262	0.146626	0	0
0	0	0	-0.0278	6.039679	-14.260572	6.039679	46598.875	-3.121331E-10	-3.203761E+9	3.039287	0.14615	0	0
0	0	0	-0.026901	6.039666	-14.259459	6.039666	46621.5	-3.905515E-10	-2.560482E+9	3.005056	0.145317	0	0
0	0	0	-0.02686	6.039526	-14.25908	6.039526	46622.5	2.393754E-10	4.177538E+9	2.976393	0.144775	0	0
0	0	0	-0.02682	6.039805	-14.25969	6.039805	46623.5	-1.075478E-10	-9.298192E+9	2.92333	0.144326	0	0
0	0	0	-0.026003	6.039566	-14.258141	6.039566	46644.125	4.441757E-10	2.251361E+9	2.907094	0.143572	0	0
0	0	0	-0.02588	6.039566	-14.257993	6.039566	46647.25	4.442055E-10	2.25121E+9	2.897663	0.142924	0	0
0	0	0	-0.025962	6.039692	-14.25839	6.039692	46645.125	-2.602822E-10	-3.841984E+9	2.894177	0.142396	0	0
0	0	0	-0.026003	6.039606	-14.258235	6.039606	46644.125	3.056974E-9	3.271209E+8	2.8605	0.141629	0	0
0	0	0	-0.026085	6.039746	-14.258663	6.039746	46642.125	-1.56055E-10	-6.407995E+9	2.834735	0.140968	0	0
0	0	0	-0.025921	6.039619	-14.258168	6.039619	46646.25	-3.181893E-9	-3.142783E+8	2.819437	0.140663	0	0
0	0	0	-0.026166	6.039632	-14.258495	6.039632	46640	-1.046254E-9	-9.557906E+8	2.762656	0.140016	0	0
0	0	0	-0.026411	6.039493	-14.25846	6.039493	46633.875	1.729982E-10	5.780405E+9	2.744736	0.139196	0	0
0	0	0	-0.027269	6.039692	-14.259964	6.039692	46612.25	-2.600987E-10	-3.844694E+9	2.722994	0.138826	0	0
0	0	0	-0.027677	6.039459	-14.259907	6.039459	46601.875	1.353297E-10	7.389362E+9	2.711988	0.138284	0	0
0	0	0	-0.028657	6.039553	-14.261308	6.039553	46577.25	3.451932E-10	2.896928E+9	2.701446	0.137424	0	0
0	0	0	-0.029066	6.039619	-14.261957	6.039619	46567	-3.176488E-9	-3.148131E+8	2.655661	0.136961	0	0
0	0	0	-0.029719	6.039592	-14.262681	6.039592	46550.5	1.030416E-9	9.704823E+8	2.622672	0.136671	0	0
0	0	0	-0.030903	6.039573	-14.264061	6.039573	46520.75	5.16589E-10	1.935775E+9	2.589812	0.135983	0	0
0	0	0	-0.03025	6.039686	-14.26354	6.039686	46537.25	-2.833305E-10	-3.529447E+9	2.567953	0.135176	0	0
0	0	0	-0.031434	6.039612	-14.264795	6.039612	46507.375	1.554486E-7	6432994.893569	2.542638	0.13474	0	0
0	0	0	-0.031271	6.039639	-14.264661	6.039639	46511.5	-7.81218E-10	-1.280052E+9	2.54764	0.134264	0	0
0	0	0	-0.031271	6.039719	-14.264849	6.039719	46511.5	-1.945712E-10	-5.139507E+9	2.507676	0.133603	0	0
0	0	0	-0.031679	6.039453	-14.264714	6.039453	46501.25	1.294156E-10	7.727044E+9	2.487037	0.132968	0	0
0	0	0	-0.032047	6.039499	-14.265266	6.039499	46492	1.826054E-10	5.476289E+9	2.442928	0.132691	0	0
0	0	0	-0.032537	6.039606	-14.266108	6.039606	46479.75	3.046201E-9	3.282777E+8	2.415501	0.13203	0	0
0	0	0	-0.033313	6.039732	-14.267341	6.039732	46460.25	-1.727376E-10	-5.789128E+9	2.378423	0.131422	0	0
0	0	0	-0.035314	6.039466	-14.269124	6.039466	46410	1.408929E-10	7.097588E+9	2.353973	0.130774	0	0
0	0	0	-0.036702	6.039666	-14.271268	6.039666	46375.125	-3.884876E-10	-2.574085E+9	2.321658	0.130311	0	0
0	0	0	-0.037396	6.039553	-14.271838	6.039553	46357.75	3.435665E-10	2.910645E+9	2.325344	0.129557	0	0
0	0	0	-0.039193	6.039533	-14.273955	6.039533	46312.75	2.575675E-10	3.882477E+9	2.306854	0.128976	0	0
0	0	0	-0.037927	6.039606	-14.272603	6.039606	46344.5	3.037337E-9	3.292358E+8	2.263704	0.128658	0	0
0	0	0	-0.038376	6.039652	-14.273254	6.039652	46333.25	-5.179485E-10	-1.930694E+9	2.23718	0.12805	0	0
0	0	0	-0.037723	6.039493	-14.27209	6.039493	46349.5	1.719433E-10	5.815871E+9	2.204271	0.127349	0	0
0	0	0	-0.0376	6.039506	-14.271974	6.039506	46352.625	1.934224E-10	5.170032E+9	2.176469	0.1269	0	0
0	0	0	-0.037723	6.039586	-14.27231	6.039586	46349.5	7.707508E-10	1.297436E+9	2.14638	0.126463	0	0
0	0	0	-0.034129	6.039546	-14.267886	6.039546	46439.625	3.098246E-10	3.227632E+9	2.114849	0.125855	0	0
0	0	0	-0.033231	6.039619	-14.266976	6.039619	46462.25	-3.169342E-9	-3.155229E+8	2.117514	0.125221	0	0
0	0	0	-0.033027	6.039639	-14.266777	6.039639	46467.375	-7.804769E-10	-1.281268E+9	2.098261	0.124824	0	0
0	0	0	-0.032333	6.039406	-14.265391	6.039406	46484.875	1.001763E-10	9.982404E+9	2.061066	0.124401	0	0
0	0	0	-0.031557	6.039759	-14.265287	6.039759	46504.375	-1.414364E-10	-7.070317E+9	2.038975	0.123885	0	0
0	0	0	-0.030822	6.039646	-14.264135	6.039646	46522.75	-6.244979E-10	-1.601286E+9	2.036659	0.123277	0	0
0	0	0	-0.030822	6.039573	-14.263963	6.039573	46522.75	5.166113E-10	1.935691E+9	1.981163	0.122801	0	0
0	0	0	-0.029392	6.039646	-14.262413	6.039646	46558.75	-6.249812E-10	-1.600048E+9	0	0	0	0
0	0	0	-0.028943	6.039566	-14.261684	6.039566	46570	4.434699E-10	2.254945E+9	0	0	0	0
0	0	0	-0.028412	6.039719	-14.261405	6.039719	46583.375	-1.948719E-10	-5.131577E+9	0	0	0	0
0	0	0	-0.028616	6.039453	-14.261023	6.039453	46578.25	1.296299E-10	7.71427E+9	0	0	0	0
0	0	0	-0.028494	6.039573	-14.261158	6.039573	46581.375	5.172623E-10	1.933255E+9	0	0	0	0
0	0	0	-0.028086	6.039666	-14.260886	6.039666	46591.625	-3.903013E-10	-2.562123E+9	0	0	0	0
0	0	0	-0.027228	6.039692	-14.259915	6.039692	46613.25	-2.601043E-10	-3.844611E+9	0	0	0	0
0	0	0	-0.02686	6.039513	-14.259049	6.039513	46622.5	2.075012E-10	4.819249E+9	0	0	0	0
0	0	0	-0.026493	6.039592	-14.258794	6.039592	46631.75	1.032214E-9	9.687913E+8	0	0	0	0
0	0	0	-0.026166	6.039646	-14.258526	6.039646	46640	-6.260719E-10	-1.597261E+9	0	0	0	0
0	0	0	-0.026738	6.039712	-14.259372	6.039712	46625.625	-2.080692E-10	-4.806093E+9	0	0	0	0
0	0	0	-0.02588	6.039479	-14.257789	6.039479	46647.25	1.557604E-10	6.420119E+9	0	0	0	0
0	0	0	-0.026248	6.039752	-14.258875	6.039752	46638	-1.486036E-10	-6.729311E+9	0	0	0	0
0	0	0	-0.026493	6.039646	-14.25892	6.039646	46631.75	-6.259611E-10	-1.597543E+9	0	0	0	0
0	0	0	-0.025921	6.039526	-14.257948	6.039526	46646.25	2.394974E-10	4.175411E+9	0	0	0	0
0	0	0	-0.026697	6.039526	-14.258883	6.039526	46626.625	2.393966E-10	4.177169E+9	0	0	0	0
0	0	0	-0.027963	6.039592	-14.260565	6.039592	46594.75	1.031395E-9	9.695606E+8	0	0	0	0
0	0	0	-0.028371	6.039746	-14.261418	6.039746	46584.5	-1.558622E-10	-6.415922E+9	0	0	0	0
0	0	0	-0.028902	6.039659	-14.261854	6.039659	46571.125	-4.46022E-10	-2.242042E+9	0	0	0	0
0	0	0	-0.029229	6.039473	-14.261809	6.039473	46562.875	1.480819E-10	6.753019E+9	0	0	0	0
0	0	0	-0.029433	6.039785	-14.262792	6.039785	46557.75	-1.197975E-10	-8.347418E+9	0	0	0	0
0	0	0	-0.029637	0	-0.029637	0	46552.625	0	0	0	0	0	0
0	0	0	-0.031148	0	-0.031148	0	46514.625	0	0	0	0	0	0
