Vload_(V)	ILoad_(A)	RsLoad (ohm)	SunsVoc_Voltage_(V)	SunsVoc_Current_(A)	Model_Voltage_(V)	Model_Current_(A)	Carrier_Density_(cm-3)	Lifetime_(s)	Inverse_Lifetime_(s-1)	Efficiency_(%)	Intensity_(suns)	Dark_IV_Voltage_(V)	Dark_IV_Current_(A)
3.386245	6.061581	0	50.374634	0.226957	50.239234	0.226957	6.303296E+15	0.000481	2014.878164	19.344267	1.184539	0	0
3.380016	6.061286	2.441822	52.156416	-0.598814	52.457378	-0.598814	1.064313E+16	0.000711	1218.729062	19.311506	1.183891	0	0
3.449854	6.061153	2.862054	52.658869	-0.887978	53.081628	-0.887978	1.22977E+16	0.000787	1019.308495	19.256285	1.182939	0	0
4.012301	6.061182	2.716744	52.763983	-0.755557	53.119508	-0.755557	1.267329E+16	0.000827	942.60143	19.179048	1.181273	0	0
5.89964	6.058776	3.888013	52.732947	-0.434597	52.938157	-0.434597	1.256128E+16	0.00086	900.637586	19.115685	1.178166	0	0
8.349069	6.052281	4.315398	52.643351	-0.068479	52.67601	-0.068479	1.224315E+16	0.000888	876.721589	19.040893	1.17539	0	0
10.833807	6.023659	4.86569	52.538442	0.2857	52.400607	0.2857	1.188034E+16	0.000915	858.605511	18.986351	1.173882	0	0
12.904949	6.01305	4.658426	52.428755	0.626275	52.122988	0.626275	1.151189E+16	0.000942	841.386659	18.992657	1.171806	0	0
14.925546	6.012852	4.324675	52.310288	0.957125	51.837009	0.957125	1.112608E+16	0.00097	825.842921	19.026202	1.168237	0	0
17.0271	6.009235	4.015223	52.196068	1.262024	51.564418	1.262024	1.076566E+16	0.000998	809.801942	19.021282	1.164151	0	0
19.329264	6.006524	3.659977	52.07364	1.548931	51.288388	1.548931	1.039156E+16	0.001024	796.954809	18.98261	1.15996	0	0
21.460415	6.001767	3.347707	51.958767	1.812121	51.029106	1.812121	1.005167E+16	0.001052	782.638076	18.931336	1.156231	0	0
23.566739	5.989158	3.095964	51.843036	2.063033	50.772056	2.063033	9.719813E+15	0.001081	767.947428	18.919176	1.152027	0	0
25.767618	5.989519	2.725829	51.717953	2.306325	50.505456	2.306325	9.372681E+15	0.00111	754.847723	18.927736	1.147783	0	0
27.927756	5.9873	2.381539	51.596995	2.522767	50.254612	2.522767	9.048038E+15	0.001137	743.316196	18.937581	1.143658	0	0
30.052268	5.984511	2.046244	51.475956	2.728161	50.006861	2.728161	8.733694E+15	0.001166	731.373042	18.952741	1.139413	0	0
32.201263	5.985791	1.678333	51.359367	2.917874	49.770167	2.917874	8.440543E+15	0.001194	719.003147	18.956989	1.134627	0	0
32.909417	5.984245	1.570625	51.246699	3.098281	49.540827	3.098281	8.165954E+15	0.001226	705.063059	18.946459	1.129193	0	0
33.624389	5.982694	1.461565	51.120841	3.270953	49.298182	3.270953	7.869019E+15	0.001254	694.421444	18.911097	1.124499	0	0
34.327294	5.981687	1.350244	51.008458	3.424541	49.079914	3.424541	7.612349E+15	0.001284	682.542124	18.897014	1.119528	0	0
35.030929	5.977542	1.258289	50.893054	3.569282	48.861269	3.569282	7.356834E+15	0.001313	671.71047	18.912087	1.114438	0	0
35.742475	5.973658	1.162226	50.783286	3.701939	48.654551	3.701939	7.121149E+15	0.001342	660.702966	18.936811	1.109083	0	0
36.450887	5.967432	1.078601	50.671107	3.827574	48.447478	3.827574	6.887476E+15	0.001371	650.403338	18.948292	1.10357	0	0
37.161534	5.95208	1.035921	50.556561	3.94652	48.239983	3.94652	6.656142E+15	0.0014	640.774006	18.935561	1.098241	0	0
37.858197	5.935212	0.990029	50.448466	4.054395	48.045447	4.054395	6.444381E+15	0.001428	631.221672	18.91643	1.092662	0	0
38.560399	5.912267	0.952965	50.335839	4.156656	47.847515	4.156656	6.230298E+15	0.001455	622.88736	18.900166	1.086963	0	0
39.249875	5.886343	0.913462	50.225049	4.253452	47.653921	4.253452	6.026049E+15	0.001483	614.230287	18.900294	1.081212	0	0
39.953211	5.853277	0.877699	50.118752	4.343674	47.468729	4.343674	5.835821E+15	0.001511	605.208868	18.925657	1.075487	0	0
40.65448	5.808563	0.852268	50.005226	4.433139	47.274073	4.433139	5.638686E+15	0.00154	596.432456	18.941377	1.070449	0	0
41.349971	5.755965	0.824698	49.891496	4.515715	47.082378	4.515715	5.447256E+15	0.001568	588.692588	18.952399	1.065293	0	0
42.04997	5.68915	0.799185	49.784178	4.591314	46.902039	4.591314	5.272017E+15	0.001595	580.780349	18.955947	1.060018	0	0
42.745942	5.610001	0.770891	49.673592	4.665793	46.717482	4.665793	5.09677E+15	0.001624	572.503035	18.93788	1.054716	0	0
43.437405	5.510394	0.746532	49.567744	4.732711	46.54281	4.732711	4.933949E+15	0.001652	565.041093	18.935703	1.049017	0	0
44.122741	5.39163	0.722075	49.457975	4.798259	46.363361	4.798259	4.770037E+15	0.00168	557.595731	18.947172	1.043319	0	0
44.79033	5.250793	0.69787	49.349554	4.857072	46.18923	4.857072	4.612933E+15	0.001704	551.658688	18.968236	1.037342	0	0
45.460552	5.073411	0.678472	49.247626	4.912575	46.024773	4.912575	4.469463E+15	0.00173	544.747939	18.976705	1.031485	0	0
46.123047	4.864671	0.658493	49.138061	4.967035	45.850773	4.967035	4.319684E+15	0.001756	538.630094	18.964037	1.025602	0	0
46.783039	4.61798	0.638698	49.035071	5.017478	45.687139	5.017478	4.182972E+15	0.001782	532.067505	18.93084	1.01952	0	0
47.421755	4.319291	0.628665	48.926773	5.067053	45.516814	5.067053	4.043359E+15	0.001809	525.786718	18.901258	1.013715	0	0
48.055138	3.989091	0.611926	48.822925	5.112421	45.354428	5.112421	3.913366E+15	0.001834	519.809385	18.905573	1.008202	0	0
48.671921	3.603191	0.603794	48.71822	5.157027	45.190976	5.157027	3.786041E+15	0.001862	513.28786	18.934708	1.002993	0	0
49.274082	3.183785	0.594039	48.614577	5.19598	45.032282	5.19598	3.663608E+15	0.001883	508.849393	18.971002	0.99744	0	0
49.838249	2.741358	0.589897	48.512526	5.234344	44.875604	5.234344	3.546462E+15	0.001907	503.477958	18.985901	0.991847	0	0
50.389989	2.264962	0.591529	48.4068	5.271771	44.71447	5.271771	3.428565E+15	0.001931	498.33402	18.96988	0.986267	0	0
50.914827	1.778734	0.606387	48.307853	5.304372	44.565003	5.304372	3.321341E+15	0.001951	494.188196	18.953329	0.980675	0	0
51.390451	1.304782	0.470949	48.20033	5.339164	44.402647	5.339164	3.208143E+15	0.001975	489.11948	18.945987	0.975135	0	0
51.812496	0.859662	0.377757	48.099627	5.369383	44.251926	5.369383	3.105179E+15	0.001996	485.10688	18.958094	0.969238	0	0
42.52249	5.63938	0.777566	47.999823	5.397763	44.103365	5.397763	3.00597E+15	0.002014	481.428315	18.978482	0.96346	0	0
52.376315	0	0	47.892259	5.42685	43.944012	5.42685	2.902127E+15	0.002034	477.678928	18.979929	0.957788	0	0
0	0	0	47.79613	5.452455	43.801605	5.452455	2.811955E+15	0.002054	473.831432	18.961378	0.952129	0	0
0	0	0	47.691956	5.478579	43.648185	5.478579	2.716968E+15	0.002073	470.11294	18.93624	0.946602	0	0
0	0	0	47.587087	5.5043	43.493882	5.5043	2.624142E+15	0.002095	465.964628	18.922609	0.941195	0	0
0	0	0	47.48859	5.526465	43.350186	5.526465	2.539442E+15	0.002111	462.99255	18.927332	0.935946	0	0
0	0	0	47.385191	5.548545	43.199989	5.548545	2.453051E+15	0.002127	460.157032	18.950699	0.930697	0	0
0	0	0	47.284611	5.570046	43.053637	5.570046	2.371431E+15	0.002146	456.610488	18.970908	0.925712	0	0
0	0	0	47.188972	5.588566	42.915735	5.588566	2.295976E+15	0.002159	454.37563	18.960484	0.920754	0	0
0	0	0	47.084307	5.608484	42.764875	5.608484	2.215745E+15	0.002175	451.538286	18.944511	0.915677	0	0
0	0	0	46.984666	5.626594	42.621711	5.626594	2.141584E+15	0.00219	448.983165	18.938156	0.91056	0	0
0	0	0	46.889639	5.643114	42.485587	5.643114	2.072823E+15	0.002203	446.695426	18.939705	0.905774	0	0
0	0	0	46.785506	5.66057	42.336735	5.66057	1.999622E+15	0.002218	444.179045	18.965229	0.90112	0	0
0	0	0	46.689132	5.676195	42.199224	5.676195	1.933827E+15	0.002232	441.784289	18.990801	0.896691	0	0
0	0	0	46.5919	5.690924	42.061152	5.690924	1.869301E+15	0.002243	439.942776	18.991704	0.892103	0	0
0	0	0	46.489808	5.705931	41.916383	5.705931	1.803505E+15	0.002256	437.899413	18.972759	0.887409	0	0
0	0	0	46.394904	5.719149	41.782252	5.719149	1.744093E+15	0.002266	436.314367	18.955483	0.882689	0	0
0	0	0	46.300286	5.731404	41.649143	5.731404	1.686499E+15	0.002272	435.380211	18.960631	0.877823	0	0
0	0	0	46.200359	5.743375	41.509226	5.743375	1.627407E+15	0.002275	435.148931	18.976905	0.873143	0	0
0	0	0	46.10574	5.755363	41.376089	5.755363	1.573058E+15	0.002285	433.49234	18.998513	0.86837	0	0
0	0	0	46.01251	5.766745	41.245144	5.766745	1.520995E+15	0.002295	431.916679	18.985315	0.863901	0	0
0	0	0	45.911236	5.777568	41.104056	5.777568	1.466072E+15	0.002296	431.917868	18.952038	0.859207	0	0
0	0	0	45.814902	5.787887	40.969723	5.787887	1.41537E+15	0.0023	431.370944	18.927134	0.854408	0	0
0	0	0	45.724286	5.797543	40.843311	5.797543	1.369016E+15	0.002306	430.448945	18.919493	0.849622	0	0
0	0	0	45.624154	5.807079	40.704478	5.807079	1.319267E+15	0.002306	430.772147	18.938619	0.844849	0	0
0	0	0	45.526228	5.816235	40.568749	5.816235	1.272074E+15	0.002306	430.883539	18.951238	0.840089	0	0
0	0	0	45.435653	5.825094	40.44279	5.825094	1.229678E+15	0.002313	429.812722	18.933158	0.835488	0	0
0	0	0	45.33642	5.832774	40.306442	5.832774	1.184581E+15	0.002303	431.877523	18.903621	0.830701	0	0
0	0	0	45.237187	5.841798	40.168846	5.841798	1.140864E+15	0.002309	430.902589	18.877503	0.825995	0	0
0	0	0	45.147305	5.849194	40.044815	5.849194	1.102428E+15	0.002309	431.064475	18.867788	0.821169	0	0
0	0	0	45.047705	5.856947	39.907678	5.856947	1.061095E+15	0.002307	431.656124	18.885062	0.816369	0	0
0	0	0	44.948758	5.86397	39.77196	5.86397	1.021313E+15	0.002299	433.222538	18.889473	0.8119	0	0
0	0	0	44.856753	5.8714	39.644899	5.8714	9.854391E+14	0.002305	432.227234	18.866864	0.807524	0	0
0	0	0	44.761522	5.8773	39.514906	5.8773	9.494137E+14	0.002292	434.835715	18.829916	0.8032	0	0
0	0	0	44.660329	5.884973	39.375449	5.884973	9.123369E+14	0.002298	433.776564	18.812084	0.798546	0	0
0	0	0	44.568773	5.889632	39.251263	5.889632	8.798345E+14	0.002276	438.04301	18.814443	0.794011	0	0
0	0	0	44.474931	5.896167	39.122333	5.896167	8.475242E+14	0.002279	437.551307	18.829856	0.78941	0	0
0	0	0	44.373534	5.902612	38.983512	5.902612	8.137278E+14	0.002277	438.062089	18.835163	0.785021	0	0
0	0	0	44.279773	5.907505	38.856064	5.907505	7.834821E+14	0.002262	441.056791	18.80594	0.780922	0	0
0	0	0	44.186053	5.913654	38.727463	5.913654	7.541917E+14	0.002268	439.974003	18.780135	0.776572	0	0
0	0	0	44.085758	5.918442	38.591435	5.918442	7.238642E+14	0.00225	443.649842	18.765669	0.77213	0	0
0	0	0	43.99261	5.922517	38.465403	5.922517	6.966172E+14	0.002228	447.952924	18.775422	0.767634	0	0
0	0	0	43.899217	5.927691	38.337977	5.927691	6.701657E+14	0.002227	448.368763	18.778859	0.763377	0	0
0	0	0	43.801454	5.932536	38.205073	5.932536	6.43384E+14	0.002218	450.193324	18.77103	0.759186	0	0
0	0	0	43.703446	5.936161	38.072956	5.936161	6.174435E+14	0.00219	455.994265	18.744122	0.755061	0	0
0	0	0	43.60895	5.940834	37.944413	5.940834	5.932718E+14	0.002186	456.938091	18.714373	0.750988	0	0
0	0	0	43.510248	5.945705	37.810109	5.945705	5.688815E+14	0.002184	457.354618	18.707599	0.746784	0	0
0	0	0	43.411138	5.949184	37.67656	5.949184	5.45249E+14	0.002158	462.901708	18.721644	0.742619	0	0
0	0	0	43.316234	5.951927	37.549214	5.951927	5.234046E+14	0.002123	470.498261	18.729496	0.73852	0	0
0	0	0	43.217899	5.955794	37.416237	5.955794	5.015597E+14	0.002109	473.714578	18.717207	0.734501	0	0
0	0	0	43.117033	5.96039	37.27918	5.96039	4.799642E+14	0.00211	473.559094	18.675163	0.730706	0	0
0	0	0	43.020863	5.963808	37.149407	5.963808	4.601191E+14	0.002093	477.332158	18.644505	0.726779	0	0
0	0	0	42.92069	5.966371	37.015183	5.966371	4.402E+14	0.002057	485.886216	18.649593	0.722734	0	0
0	0	0	42.81962	5.969474	36.879214	5.969474	4.208578E+14	0.002033	491.684424	18.653712	0.718833	0	0
0	0	0	42.721898	5.972521	36.747672	5.972521	4.028577E+14	0.002012	496.691455	18.646527	0.715052	0	0
0	0	0	42.61997	5.975832	36.6103	5.975832	3.84796E+14	0.001996	500.698477	18.614445	0.711403	0	0
0	0	0	42.520369	5.978787	36.476315	5.978787	3.678298E+14	0.001976	505.76723	18.577467	0.707555	0	0
0	0	0	42.424363	5.980982	36.347798	5.980982	3.520958E+14	0.001943	514.380023	18.556961	0.703853	0	0
0	0	0	42.310306	5.983849	36.194825	5.983849	3.341703E+14	0.001912	522.718823	18.576053	0.69986	0	0
0	0	0	42.205968	5.986408	36.054924	5.986408	3.184782E+14	0.001885	530.439418	18.589311	0.696145	0	0
0	0	0	42.101672	5.989339	35.914663	5.989339	3.034438E+14	0.001869	535.028238	18.566716	0.692562	0	0
0	0	0	41.997375	5.99218	35.774463	5.99218	2.890395E+14	0.001853	539.617594	18.525426	0.688926	0	0
0	0	0	41.900715	5.99484	35.644473	5.99484	2.762342E+14	0.001841	543.001865	18.489469	0.685303	0	0
0	0	0	41.792621	5.997202	35.499716	5.997202	2.625137E+14	0.001814	551.177809	18.478028	0.681522	0	0
0	0	0	41.684689	5.999018	35.355724	5.999018	2.49424E+14	0.001774	563.752398	18.496088	0.677661	0	0
0	0	0	41.578473	6.000867	35.213934	6.000867	2.371162E+14	0.001737	575.502774	18.496622	0.674078	0	0
0	0	0	41.476178	6.002752	35.077246	6.002752	2.257815E+14	0.001707	585.637166	18.459067	0.67072	0	0
0	0	0	41.370779	6.005221	34.935826	6.005221	2.146165E+14	0.001694	590.253287	18.409895	0.667203	0	0
0	0	0	41.265624	6.007518	34.794887	6.007518	2.039778E+14	0.001678	595.741495	18.395796	0.663487	0	0
0	0	0	41.159408	6.010012	34.65231	6.010012	1.937203E+14	0.001671	598.356846	18.400722	0.659851	0	0
0	0	0	41.051151	6.011682	34.507913	6.011682	1.837515E+14	0.001638	610.400731	18.40373	0.656202	0	0
0	0	0	40.94714	6.013308	34.369138	6.013308	1.74618E+14	0.001609	621.391927	18.375276	0.652963	0	0
0	0	0	40.833287	6.014554	34.217799	6.014554	1.650994E+14	0.001562	640.261251	18.322737	0.649631	0	0
0	0	0	40.731033	6.015666	34.081872	6.015666	1.569601E+14	0.001521	657.544344	18.287851	0.646167	0	0
0	0	0	40.61669	6.017002	33.92976	6.017002	1.482988E+14	0.00148	675.700491	18.296884	0.642505	0	0
0	0	0	40.502919	6.018551	33.778147	6.018551	1.401224E+14	0.001449	690.299021	18.312091	0.638856	0	0
0	0	0	40.390333	6.019968	33.628223	6.019968	1.324456E+14	0.001416	706.249913	18.288565	0.635524	0	0
0	0	0	40.280237	6.021715	33.481193	6.021715	1.253198E+14	0.001398	715.075839	18.242019	0.632152	0	0
0	0	0	40.165528	6.023519	33.327997	6.023519	1.182781E+14	0.001382	723.365181	18.203727	0.628966	0	0
0	0	0	40.053594	6.025072	33.178725	6.025072	1.117664E+14	0.001362	734.277702	18.185098	0.625449	0	0
0	0	0	39.935781	6.026447	33.021889	6.026447	1.05278E+14	0.001333	750.17444	18.194874	0.621853	0	0
0	0	0	39.821357	6.027791	32.869539	6.027791	9.931815E+13	0.001308	764.793772	18.186058	0.618574	0	0
0	0	0	39.704482	6.029214	32.713852	6.029214	9.356138E+13	0.001286	777.663267	18.140049	0.615665	0	0
0	0	0	39.584627	6.03028	32.554633	6.03028	8.798767E+13	0.00125	799.694598	18.092538	0.612439	0	0
0	0	0	39.468365	6.03128	32.400215	6.03128	8.288416E+13	0.001217	821.796623	18.063385	0.609239	0	0
0	0	0	39.345039	6.031953	32.236858	6.031953	7.777984E+13	0.001168	856.279416	18.080919	0.605643	0	0
0	0	0	39.225796	6.032739	32.078741	6.032739	7.31315E+13	0.001128	886.555997	18.070918	0.60247	0	0
0	0	0	39.102919	6.03352	31.915829	6.03352	6.862076E+13	0.001088	919.245933	18.037549	0.599482	0	0
0	0	0	38.978857	6.034363	31.751272	6.034363	6.433849E+13	0.001052	950.991693	17.977425	0.59648	0	0
0	0	0	38.851855	6.035177	31.582862	6.035177	6.022192E+13	0.001015	985.609812	17.947103	0.593241	0	0
0	0	0	38.723343	6.036222	31.412169	6.036222	5.631576E+13	0.000988	1012.239175	17.960017	0.589777	0	0
0	0	0	38.59875	6.037111	31.246822	6.037111	5.276344E+13	0.000959	1042.53432	17.952967	0.58663	0	0
0	0	0	38.464684	6.038362	31.068526	6.038362	4.918373E+13	0.000942	1061.217752	17.910813	0.583721	0	0
0	0	0	38.333476	6.039547	30.894064	6.039547	4.59093E+13	0.000927	1078.880766	17.848969	0.580799	0	0
0	0	0	38.196632	6.040204	30.71281	6.040204	4.272042E+13	0.000889	1124.869064	17.820752	0.5776	0	0
0	0	0	38.05987	6.041749	30.530546	6.041749	3.974954E+13	0.000892	1121.562737	17.818803	0.574572	0	0
0	0	0	37.92025	6.042472	30.345521	6.042472	3.692491E+13	0.00086	1163.362955	17.83286	0.571386	0	0
0	0	0	37.781814	6.043327	30.161879	6.043327	3.431839E+13	0.000836	1195.683562	17.809127	0.56845	0	0
0	0	0	37.63811	6.044065	29.971427	6.044065	3.180342E+13	0.000808	1238.080091	17.74968	0.565819	0	0
0	0	0	37.49555	6.044846	29.782416	6.044846	2.948736E+13	0.000784	1275.745128	17.698961	0.562791	0	0
0	0	0	37.345761	6.045665	29.583812	6.045665	2.723237E+13	0.000761	1313.834981	17.705434	0.559618	0	0
0	0	0	37.198872	6.04618	29.389411	6.04618	2.518601E+13	0.000728	1374.561812	17.702392	0.556696	0	0
0	0	0	37.043325	6.046556	29.183765	6.046556	2.318406E+13	0.000686	1456.816403	17.671033	0.553986	0	0
0	0	0	36.893047	6.047105	28.984835	6.047105	2.139919E+13	0.000658	1520.694598	17.611961	0.551328	0	0
0	0	0	36.73505	6.047633	28.775742	6.047633	1.966885E+13	0.000627	1594.059863	17.580322	0.548367	0	0
0	0	0	36.577176	6.047929	28.567111	6.047929	1.807805E+13	0.000589	1697.606762	17.571922	0.545405	0	0
0	0	0	36.412563	6.048272	28.349523	6.048272	1.65548E+13	0.000553	1807.150482	17.572853	0.542483	0	0
0	0	0	36.246073	6.048626	28.129438	6.048626	1.514346E+13	0.00052	1923.089337	17.551179	0.539706	0	0
0	0	0	36.076642	6.048971	27.905479	6.048971	1.382959E+13	0.000488	2049.698319	17.481276	0.537115	0	0
0	0	0	35.906108	6.049408	27.679935	6.049408	1.262136E+13	0.000461	2168.113432	17.435006	0.534259	0	0
0	0	0	35.729571	6.049834	27.446479	6.049834	1.148087E+13	0.000435	2299.984813	17.424436	0.53139	0	0
0	0	0	35.551075	6.05015	27.210581	6.05015	1.043178E+13	0.000406	2463.236843	17.425067	0.528455	0	0
0	0	0	35.371965	6.050487	26.973841	6.050487	9.474869E+12	0.00038	2632.14846	17.392086	0.525718	0	0
0	0	0	35.188487	6.05095	26.731152	6.05095	8.585066E+12	0.000359	2783.54952	17.331409	0.523259	0	0
0	0	0	35.000026	6.051316	26.48202	6.051316	7.757598E+12	0.000336	2974.437348	17.28427	0.520522	0	0
0	0	0	34.813811	6.051667	26.235865	6.051667	7.018011E+12	0.000315	3175.611034	17.280923	0.517481	0	0
0	0	0	34.619878	6.052018	25.97952	6.052018	6.322325E+12	0.000294	3400.080379	17.286031	0.514678	0	0
0	0	0	34.426803	6.052214	25.724523	6.052214	5.697984E+12	0.000271	3695.460322	17.241793	0.512298	0	0
0	0	0	34.230052	6.052941	25.463904	6.052941	5.124938E+12	0.000264	3789.766415	17.171189	0.50972	0	0
0	0	0	34.0264	6.052851	25.195356	6.052851	4.592241E+12	0.000234	4273.367749	17.125232	0.507009	0	0
0	0	0	33.822421	6.053368	24.925487	6.053368	4.114044E+12	0.000223	4487.708455	17.122569	0.504206	0	0
0	0	0	33.614685	6.05389	24.650643	6.05389	3.678066E+12	0.000213	4700.408159	17.116038	0.501589	0	0
0	0	0	33.403274	6.05404	24.371494	6.05404	3.281681E+12	0.000194	5165.771932	17.065487	0.499195	0	0
0	0	0	33.188147	6.054694	24.08668	6.054694	2.92207E+12	0.000189	5298.289093	17.00671	0.496736	0	0
0	0	0	32.968487	6.054733	23.796802	6.054733	2.595443E+12	0.000169	5931.338571	16.972258	0.494079	0	0
0	0	0	32.736944	6.055179	23.490623	6.055179	2.290533E+12	0.000159	6282.98994	16.973806	0.491262	0	0
0	0	0	32.514425	6.055509	23.196519	6.055509	2.03127E+12	0.000149	6719.781839	16.950394	0.488869	0	0
0	0	0	32.282841	6.055751	22.890583	6.055751	1.792523E+12	0.000137	7311.545674	16.894437	0.486608	0	0
0	0	0	32.052727	6.05596	22.586631	6.05596	1.583065E+12	0.000125	7981.3755	16.825966	0.484255	0	0
0	0	0	31.821959	6.056441	22.281384	6.056441	1.397568E+12	0.000121	8267.80907	16.798223	0.48165	0	0
0	0	0	31.586128	6.056712	21.969777	6.056712	1.230419E+12	0.000112	8895.102935	16.81406	0.47894	0	0
0	0	0	31.348622	6.056915	21.656063	6.056915	1.082268E+12	0.000103	9691.845073	16.797101	0.476428	0	0
0	0	0	31.10593	6.057195	21.335375	6.057195	9.492811E+11	9.629477E-5	10384.780047	16.719366	0.474365	0	0
0	0	0	30.863075	6.057667	21.014154	6.057667	8.325533E+11	9.46388E-5	10566.491016	16.662804	0.471932	0	0
0	0	0	30.615115	6.057911	20.686559	6.057911	7.281609E+11	8.825682E-5	11330.568919	16.644264	0.469381	0	0
0	0	0	30.368667	6.058038	20.361143	6.058038	6.37373E+11	8.003227E-5	12494.959092	16.652141	0.466763	0	0
0	0	0	30.116174	6.058432	20.027305	6.058432	5.560814E+11	7.854939E-5	12730.842811	16.611441	0.46466	0	0
0	0	0	29.862293	6.058383	19.692368	6.058383	4.847908E+11	6.743325E-5	14829.47882	16.537375	0.462347	0	0
0	0	0	29.604655	6.058854	19.351594	6.058854	4.217801E+11	6.879676E-5	14535.569094	16.484485	0.459967	0	0
0	0	0	29.344444	6.058963	19.008029	6.058963	3.664474E+11	6.226507E-5	16060.36942	16.472157	0.457441	0	0
0	0	0	29.080558	6.059125	18.659521	6.059125	3.177404E+11	5.754556E-5	17377.53639	16.469689	0.455075	0	0
0	0	0	28.813405	6.059098	18.307024	6.059098	2.750203E+11	4.928476E-5	20290.246002	16.413149	0.45292	0	0
0	0	0	28.540739	6.059345	17.946774	6.059345	2.373347E+11	4.723208E-5	21172.048667	16.331368	0.450672	0	0
0	0	0	28.269013	6.059491	17.587935	6.059491	2.049165E+11	4.362676E-5	22921.710349	16.295839	0.448226	0	0
0	0	0	27.994346	6.059683	17.22513	6.059683	1.766449E+11	4.141137E-5	24147.957606	16.301062	0.445886	0	0
0	0	0	27.715636	6.059935	16.856878	6.059935	1.51941E+11	4.106071E-5	24354.180217	16.284733	0.443625	0	0
0	0	0	27.43762	6.059825	16.490186	6.059825	1.307408E+11	3.312205E-5	30191.3638	16.213662	0.441575	0	0
0	0	0	27.153153	6.059781	16.114863	6.059781	1.121067E+11	2.77167E-5	36079.335342	16.131498	0.439447	0	0
0	0	0	26.86648	6.060145	15.735883	6.060145	9.601381E+10	2.974996E-5	33613.492281	16.122568	0.437067	0	0
0	0	0	26.575928	6.060034	15.352651	6.060034	8.205867E+10	2.360197E-5	42369.349213	16.115138	0.4347	0	0
0	0	0	26.283456	6.06023	14.966317	6.06023	7.005902E+10	2.307389E-5	43339.020693	16.062135	0.432691	0	0
0	0	0	25.987881	6.060232	14.576246	6.060232	5.971378E+10	1.969534E-5	50773.428579	15.983459	0.43076	0	0
0	0	0	25.6901	6.060681	14.182416	6.060681	5.083549E+10	2.513901E-5	39778.817611	15.937272	0.428513	0	0
0	0	0	25.388195	6.060482	13.784369	6.060482	4.31808E+10	1.748723E-5	57184.588241	15.938869	0.426225	0	0
0	0	0	25.086658	6.06051	13.386376	6.06051	3.668601E+10	1.524491E-5	65595.657998	15.922931	0.424096	0	0
0	0	0	24.779934	6.060705	12.981213	6.060705	3.108081E+10	1.578813E-5	63338.735648	15.854574	0.422126	0	0
0	0	0	24.469413	6.060739	12.571346	6.060739	2.6278E+10	1.389233E-5	71982.142514	15.781207	0.42017	0	0
0	0	0	24.156482	6.060566	12.158709	6.060566	2.218843E+10	9.731221E-6	102762.023386	15.755038	0.417856	0	0
0	0	0	23.837671	6.060741	11.737623	6.060741	1.867584E+10	9.891069E-6	101101.311162	15.749736	0.415582	0	0
0	0	0	23.514204	6.060862	11.310496	6.060862	1.56798E+10	9.700068E-6	103092.05751	15.714753	0.413757	0	0
0	0	0	23.173913	6.060896	10.861337	6.060896	1.30452E+10	8.470404E-6	118058.116868	15.630729	0.411853	0	0
0	0	0	22.83938	6.06105	10.41953	6.06105	1.088712E+10	9.120034E-6	109648.718434	15.580481	0.409844	0	0
0	0	0	22.505786	6.060957	9.979468	6.060957	9.090656E+9	6.478997E-6	154344.867764	15.593459	0.407556	0	0
0	0	0	22.167087	6.061211	9.531949	6.061211	7.569709E+9	9.099857E-6	109891.835141	15.581787	0.40552	0	0
0	0	0	21.821977	6.061064	9.076801	6.061064	6.281421E+9	5.407953E-6	184912.850724	15.492095	0.403669	0	0
0	0	0	21.471558	6.061104	8.614257	6.061104	5.197448E+9	4.853371E-6	206042.376118	15.419316	0.401792	0	0
0	0	0	21.117668	6.061178	8.147059	6.061178	4.292472E+9	4.741524E-6	210902.657133	15.410583	0.399584	0	0
0	0	0	20.75749	6.061212	7.671645	6.061212	3.533038E+9	4.257467E-6	234881.467242	15.413296	0.397349	0	0
0	0	0	20.390287	6.061132	7.187207	6.061132	2.896944E+9	2.869161E-6	348533.885859	15.333491	0.39563	0	0
0	0	0	20.019327	6.061112	6.697682	6.061112	2.370554E+9	2.248146E-6	444811.049443	15.244913	0.393726	0	0
0	0	0	19.638853	6.061112	6.195556	6.061112	1.92986E+9	1.83062E-6	546262.943979	15.21554	0.391598	0	0
0	0	0	19.247271	6.061219	5.678532	6.061219	1.561687E+9	1.919027E-6	521097.537028	15.220602	0.389416	0	0
0	0	0	18.848542	6.061279	5.152178	6.061279	1.25888E+9	1.855387E-6	538971.165146	15.177553	0.387592	0	0
0	0	0	18.444914	6.061352	4.619324	6.061352	1.012102E+9	1.972094E-6	507075.130209	15.099865	0.385886	0	0
0	0	0	18.030831	6.061186	4.073223	6.061186	8.091143E+8	9.107233E-7	1098028.331306	15.056885	0.383678	0	0
0	0	0	17.607968	6.061179	3.51517	6.061179	6.437751E+8	7.126576E-7	1403198.30477	15.044766	0.381708	0	0
0	0	0	17.175059	6.061346	2.943452	6.061346	5.094481E+8	9.650048E-7	1036264.321883	15.009104	0.379672	0	0
0	0	0	16.731002	6.061339	2.357424	6.061339	4.007269E+8	7.381674E-7	1354706.285645	14.926028	0.378085	0	0
0	0	0	16.279063	6.061346	1.760964	6.061346	3.138677E+8	5.946742E-7	1681592.915253	14.859781	0.376089	0	0
0	0	0	15.819407	6.061326	1.154382	6.061326	2.448121E+8	4.274004E-7	2339726.474918	14.845255	0.373986	0	0
0	0	0	15.35195	6.061433	0.537197	6.061433	1.901463E+8	5.717983E-7	1748868.442777	14.823915	0.372175	0	0
0	0	0	14.872284	6.06148	-0.09596	6.06148	1.467156E+8	6.451425E-7	1550045.14701	14.756507	0.370456	0	0
0	0	0	14.381877	6.0615	-0.743226	6.0615	1.125494E+8	6.172146E-7	1620181.980328	14.67207	0.36879	0	0
0	0	0	13.876239	6.0615	-1.410545	6.0615	8.563162E+7	4.696507E-7	2129241.866571	14.664061	0.366648	0	0
0	0	0	13.363004	6.061426	-2.087701	6.061426	6.488464E+7	1.867381E-7	5355092.297739	14.647976	0.364718	0	0
0	0	0	12.852343	6.061386	-2.761544	6.061386	4.923269E+7	1.125236E-7	8887026.974778	14.57847	0.363132	0	0
0	0	0	12.329226	6.061546	-3.452345	6.061546	3.710575E+7	4.806511E-7	2080511.265273	14.492319	0.361413	0	0
0	0	0	11.8037	6.06148	-4.145736	6.06148	2.79295E+7	1.228606E-7	8139304.60363	14.46891	0.359429	0	0
0	0	0	11.273886	6.06142	-4.8448	6.06142	2.097386E+7	5.786809E-8	1.728068E+7	14.462105	0.357592	0	0
0	0	0	10.742357	6.06148	-5.546448	6.06148	1.573588E+7	6.922442E-8	1.444577E+7	14.389382	0.355913	0	0
0	0	0	10.207398	6.06154	-6.252626	6.06154	1.178415E+7	1.278217E-7	7823395.590437	14.275364	0.354379	0	0
0	0	0	9.669376	6.061573	-6.962776	6.061573	8810218	5.145542E-7	1943429.973935	14.251373	0.35229	0	0
0	0	0	9.136091	6.061346	-7.665955	6.061346	6603695.5	1.251698E-8	7.989149E+7	14.251939	0.350439	0	0
0	0	0	8.615261	6.061687	-8.354272	6.061687	4983236.75	-2.092825E-8	-4.778231E+7	14.183355	0.348984	0	0
0	0	0	8.126651	6.061627	-8.998952	6.061627	3826487.75	-3.715397E-8	-2.691502E+7	14.082522	0.347477	0	0
0	0	0	7.65846	6.06156	-9.616663	6.06156	2970863.875	6.301637E-8	1.586889E+7	14.047775	0.345467	0	0
0	0	0	7.201702	6.06142	-10.219069	6.06142	2320863.5	6.403667E-9	1.561605E+8	14.038985	0.343735	0	0
0	0	0	6.758789	6.061566	-10.804031	6.061566	1826697	5.68533E-8	1.758913E+7	13.985873	0.342268	0	0
0	0	0	6.331025	6.06154	-11.368497	6.06154	1449573.75	1.572483E-8	6.359369E+7	13.903586	0.340681	0	0
0	0	0	5.914901	6.061633	-11.917956	6.061633	1157567.875	-9.809448E-9	-1.019425E+8	13.875029	0.338817	0	0
0	0	0	5.512129	6.061486	-12.449083	6.061486	931081.25	4.385865E-9	2.280052E+8	13.870706	0.337111	0	0
0	0	0	5.115688	6.06154	-12.972448	6.06154	751475.5	8.151972E-9	1.226697E+8	13.80798	0.335525	0	0
0	0	0	4.720145	6.0617	-13.494951	6.0617	606810.25	-2.263029E-9	-4.418856E+8	13.711765	0.334084	0	0
0	0	0	4.353105	6.061613	-13.979094	6.061613	497602.875	-6.819716E-9	-1.466337E+8	13.68656	0.33218	0	0
0	0	0	3.992273	6.0617	-14.455571	6.0617	409421	-1.526888E-9	-6.549269E+8	13.67774	0.330501	0	0
0	0	0	3.64994	6.061627	-14.907145	6.061627	340251.75	-3.303658E-9	-3.026948E+8	13.60222	0.329324	0	0
0	0	0	3.31753	6.061673	-15.345991	6.061673	284289.125	-1.366204E-9	-7.319553E+8	13.514957	0.327764	0	0
0	0	0	2.997576	6.061593	-15.768008	6.061593	239135.75	-8.563501E-9	-1.167747E+8	13.499148	0.32578	0	0
0	0	0	2.685094	6.061506	-16.180139	6.061506	201968.125	1.207579E-9	8.281031E+8	13.469564	0.324445	0	0
0	0	0	2.389192	6.061653	-16.571116	6.061653	172113.125	-1.055608E-9	-9.473217E+8	13.377312	0.323044	0	0
0	0	0	2.104234	6.061787	-16.947613	6.061787	147541.5	-3.184465E-10	-3.140245E+9	13.294076	0.321563	0	0
0	0	0	1.836142	6.061573	-17.300758	6.061573	127636.25	7.45738E-9	1.340953E+8	13.298701	0.319685	0	0
0	0	0	1.583405	6.06172	-17.634777	6.06172	111336.75	-3.555023E-10	-2.812921E+9	13.252903	0.318297	0	0
0	0	0	1.352229	6.06156	-17.939365	6.06156	98257.375	2.084267E-9	4.797849E+8	13.16644	0.317014	0	0
0	0	0	1.145473	6.061466	-18.211934	6.061466	87866.875	3.414542E-10	2.92865E+9	13.095788	0.31552	0	0
0	0	0	0.964853	6.0617	-18.451057	6.0617	79693.125	-2.97206E-10	-3.364669E+9	13.102057	0.313762	0	0
0	0	0	0.810164	6.06156	-18.65476	6.06156	73300.125	1.554867E-9	6.43142E+8	13.0445	0.312427	0	0
0	0	0	0.678629	6.0617	-18.828805	6.0617	68269.125	-2.546016E-10	-3.927706E+9	12.94142	0.31117	0	0
0	0	0	0.562612	6.06156	-18.981468	6.06156	64119	1.360114E-9	7.352327E+8	12.911432	0.309412	0	0
0	0	0	0.467586	6.0616	-19.10701	6.0616	60908.375	-1.4185E-9	-7.049703E+8	12.919629	0.307706	0	0
0	0	0	0.390854	6.061647	-19.208429	6.061647	58433.625	-3.947336E-10	-2.533354E+9	12.81495	0.30653	0	0
0	0	0	0.328945	6.0616	-19.289982	6.0616	56510.375	-1.316074E-9	-7.598356E+8	12.71557	0.305128	0	0
0	0	0	0.277777	6.061573	-19.357425	6.061573	54968.75	3.211657E-9	3.113658E+8	12.698388	0.303502	0	0
0	0	0	0.232653	6.061546	-19.416892	6.061546	53644	6.951463E-10	1.438546E+9	12.684892	0.301836	0	0
0	0	0	0.204312	6.061366	-19.45371	6.061366	52828.5	1.094815E-10	9.133967E+9	12.570222	0.300792	0	0
0	0	0	0.181362	6.061633	-19.484865	6.061633	52177.125	-4.421562E-10	-2.261644E+9	12.495278	0.299311	0	0
0	0	0	0.144323	6.061573	-19.533552	6.061573	51142.875	2.988123E-9	3.346583E+8	12.502982	0.297565	0	0
0	0	0	0.132195	6.06156	-19.549515	6.06156	50808.625	1.07777E-9	9.278421E+8	12.451347	0.296323	0	0
0	0	0	0.124436	6.06162	-19.559951	6.06162	50595.875	-5.750898E-10	-1.738859E+9	12.343018	0.295186	0	0
0	0	0	0.106386	6.061613	-19.58375	6.061613	50104.625	-6.866884E-10	-1.456265E+9	12.302209	0.293533	0	0
0	0	0	0.085927	6.06164	-19.610838	6.06164	49553.625	-3.725288E-10	-2.684356E+9	12.294165	0.292145	0	0
0	0	0	0.072083	6.061653	-19.629152	6.061653	49184.125	-3.016569E-10	-3.315024E+9	12.209122	0.291047	0	0
0	0	0	0.063426	6.061667	-19.640621	6.061667	48954.5	-2.535536E-10	-3.943939E+9	12.13117	0.289699	0	0
0	0	0	0.059791	6.06146	-19.644745	6.06146	48858.375	1.79399E-10	5.574169E+9	12.130428	0.287953	0	0
0	0	0	0.057872	6.061673	-19.647972	6.061673	48807.75	-2.345545E-10	-4.263402E+9	12.071151	0.28675	0	0
0	0	0	0.056116	6.0617	-19.650377	6.0617	48761.375	-1.818497E-10	-5.499046E+9	11.955928	0.285613	0	0
0	0	0	0.052972	6.061673	-19.65444	6.061673	48678.625	-2.339339E-10	-4.274711E+9	11.93919	0.284	0	0
0	0	0	0.048561	6.061673	-19.66026	6.061673	48562.75	-2.333771E-10	-4.284911E+9	11.932554	0.282559	0	0
0	0	0	0.04362	6.061613	-19.666586	6.061613	48433.125	-6.637803E-10	-1.506522E+9	11.809976	0.281647	0	0
0	0	0	0.039332	6.061667	-19.672419	6.061667	48321	-2.502725E-10	-3.995645E+9	11.720489	0.280179	0	0
0	0	0	0.032594	6.06166	-19.68129	6.06166	48145.25	-2.703877E-10	-3.698393E+9	11.736678	0.278672	0	0
0	0	0	0.025366	6.06154	-19.690438	6.06154	47957.5	5.202431E-10	1.922178E+9	11.675984	0.277521	0	0
0	0	0	0.018424	6.061713	-19.700165	6.061713	47777.875	-1.602381E-10	-6.240714E+9	11.552601	0.276477	0	0
0	0	0	0.014544	6.061446	-19.704416	6.061446	47677.875	1.576796E-10	6.341973E+9	11.539403	0.274771	0	0
0	0	0	0.010216	6.061647	-19.710781	6.061647	47566.375	-3.213226E-10	-3.112137E+9	11.511672	0.273568	0	0
0	0	0	0.008215	6.0616	-19.713269	6.0616	47515	-1.10658E-9	-9.036851E+8	11.392947	0.272682	0	0
0	0	0	0.004049	6.061667	-19.718984	6.061667	47408.125	-2.455444E-10	-4.072584E+9	11.343651	0.271188	0	0
0	0	0	-0.001137	6.06164	-19.725742	6.06164	47275.375	-3.554016E-10	-2.813718E+9	11.343288	0.269694	0	0
0	0	0	-0.002934	6.0617	-19.728308	6.0617	47229.5	-1.761368E-10	-5.677406E+9	11.23524	0.268835	0	0
0	0	0	-0.007099	6.0617	-19.733806	6.0617	47123.25	-1.757405E-10	-5.690207E+9	11.140363	0.267632	0	0
0	0	0	-0.009631	6.06152	-19.73656	6.06152	47058.75	3.429354E-10	2.916001E+9	11.155315	0.266177	0	0
0	0	0	-0.011346	6.061687	-19.739367	6.061687	47015.25	-1.974485E-10	-5.064613E+9	11.102965	0.264987	0	0
0	0	0	-0.013102	6.061627	-19.741489	6.061627	46970.625	-4.560583E-10	-2.192702E+9	10.987825	0.264022	0	0
0	0	0	-0.014164	6.061667	-19.743021	6.061667	46943.625	-2.431385E-10	-4.112881E+9	10.981141	0.262541	0	0
0	0	0	-0.015307	6.061493	-19.743965	6.061493	46914.625	2.378105E-10	4.205029E+9	10.940064	0.26147	0	0
0	0	0	-0.016001	6.061633	-19.745337	6.061633	46897	-3.974117E-10	-2.516282E+9	10.819019	0.260492	0	0
0	0	0	-0.017471	6.061426	-19.746604	6.061426	46859.75	1.348822E-10	7.413874E+9	10.793871	0.258905	0	0
0	0	0	-0.019391	6.0616	-19.749702	6.0616	46811.125	-1.090188E-9	-9.172734E+8	10.748286	0.257848	0	0
0	0	0	-0.021963	6.061613	-19.753141	6.061613	46746.125	-6.406599E-10	-1.560891E+9	10.619468	0.256935	0	0
0	0	0	-0.023597	6.061587	-19.75521	6.061587	46704.875	-3.617278E-9	-2.764509E+8	10.574865	0.255507	0	0
0	0	0	-0.026864	6.06158	-19.759499	6.06158	46622.375	2.218117E-8	4.508328E+7	10.564155	0.254278	0	0
0	0	0	-0.029396	6.061687	-19.763189	6.061687	46558.625	-1.955308E-10	-5.114284E+9	10.471943	0.253418	0	0
0	0	0	-0.033153	6.061627	-19.767951	6.061627	46464.25	-4.511417E-10	-2.216598E+9	10.403965	0.252083	0	0
0	0	0	-0.035603	6.061707	-19.771446	6.061707	46402.75	-1.638778E-10	-6.102107E+9	10.413231	0.250668	0	0
0	0	0	-0.038094	6.061667	-19.774603	6.061667	46340.25	-2.400134E-10	-4.166433E+9	10.290272	0.249809	0	0
0	0	0	-0.043484	6.061693	-19.781804	6.061693	46205.375	-1.825379E-10	-5.478314E+9	10.212339	0.248566	0	0
0	0	0	-0.04912	6.061673	-19.789176	6.061673	46064.875	-2.213731E-10	-4.517261E+9	10.21619	0.247257	0	0
0	0	0	-0.053653	6.0616	-19.794919	6.0616	45952.125	-1.070182E-9	-9.344203E+8	10.116743	0.246384	0	0
0	0	0	-0.057491	6.06152	-19.799725	6.06152	45856.875	3.341769E-10	2.992427E+9	10.026497	0.245234	0	0
0	0	0	-0.063208	6.061593	-19.807509	6.061593	45715.375	-1.637071E-9	-6.108471E+8	10.042022	0.243714	0	0
0	0	0	-0.066802	6.061446	-19.811773	6.061446	45626.625	1.508958E-10	6.627091E+9	9.926367	0.243079	0	0
0	0	0	-0.067945	6.061446	-19.813282	6.061446	45598.5	1.508027E-10	6.631179E+9	9.843719	0.241744	0	0
0	0	0	-0.070273	6.061627	-19.816942	6.061627	45541.125	-4.421787E-10	-2.261529E+9	9.848656	0.240435	0	0
0	0	0	-0.069252	6.06154	-19.815311	6.06154	45566.25	4.943028E-10	2.023051E+9	9.756041	0.239615	0	0
0	0	0	-0.070151	6.0616	-19.816693	6.0616	45544.125	-1.06068E-9	-9.427912E+8	9.669583	0.238491	0	0
0	0	0	-0.069538	6.061573	-19.815797	6.061573	45559.25	2.661889E-9	3.756731E+8	9.660508	0.237248	0	0
0	0	0	-0.068517	6.06146	-19.81408	6.06146	45584.375	1.673774E-10	5.974521E+9	9.537294	0.236561	0	0
0	0	0	-0.068354	6.061546	-19.814147	6.061546	45588.375	5.907574E-10	1.692742E+9	9.480073	0.235252	0	0
0	0	0	-0.066884	6.061573	-19.812294	6.061573	45624.625	2.665708E-9	3.751348E+8	9.476337	0.234022	0	0
0	0	0	-0.067251	6.061727	-19.81328	6.061727	45615.625	-1.389894E-10	-7.194794E+9	9.349461	0.233308	0	0
0	0	0	-0.066271	6.061607	-19.811595	6.061607	45639.75	-7.875427E-10	-1.269772E+9	9.309315	0.232013	0	0
0	0	0	-0.06476	6.061613	-19.809622	6.061613	45677	-6.260074E-10	-1.597425E+9	9.2931	0.230902	0	0
0	0	0	-0.064188	6.061693	-19.809129	6.061693	45691.125	-1.805063E-10	-5.539972E+9	9.147301	0.230188	0	0
0	0	0	-0.063862	6.061533	-19.808176	6.061533	45699.25	4.263134E-10	2.345692E+9	9.111965	0.228879	0	0
0	0	0	-0.063494	6.061647	-19.80806	6.061647	45708.375	-3.087714E-10	-3.238642E+9	9.082533	0.228033	0	0
0	0	0	-0.063208	6.06152	-19.80727	6.06152	45715.375	3.331457E-10	3.001689E+9	8.969443	0.227002	0	0
0	0	0	-0.063004	6.06154	-19.807066	6.06154	45720.5	4.959761E-10	2.016226E+9	8.980308	0.225732	0	0
0	0	0	-0.062596	6.0616	-19.806722	6.0616	45730.5	-1.065021E-9	-9.389488E+8	8.892044	0.224899	0	0
0	0	0	-0.063331	6.061633	-19.807801	6.061633	45712.375	-3.87373E-10	-2.581491E+9	8.76984	0.223934	0	0
0	0	0	-0.059696	6.061319	-19.801982	6.061319	45802.25	7.794426E-11	1.282968E+10	8.765084	0.222691	0	0
0	0	0	-0.059002	6.061593	-19.801958	6.061593	45819.5	-1.6408E-9	-6.094589E+8	8.644759	0.22207	0	0
0	0	0	-0.056634	6.06172	-19.799245	6.06172	45878.125	-1.464905E-10	-6.82638E+9	8.583637	0.22084	0	0
0	0	0	-0.054837	6.06162	-19.796548	6.06162	45922.75	-5.219735E-10	-1.915806E+9	8.566256	0.219756	0	0
0	0	0	-0.053857	6.06164	-19.795319	6.06164	45947.125	-3.454163E-10	-2.895058E+9	8.450845	0.219042	0	0
0	0	0	-0.057042	6.061753	-19.799893	6.061753	45868	-1.181407E-10	-8.464485E+9	8.44882	0.217786	0	0
0	0	0	-0.056348	6.06166	-19.798672	6.06166	45885.25	-2.576953E-10	-3.880551E+9	8.385029	0.2169	0	0
0	0	0	-0.056552	6.0615	-19.79842	6.0615	45880.125	2.517237E-10	3.97261E+9	8.278307	0.216094	0	0
0	0	0	-0.059043	6.061673	-19.802273	6.061673	45818.375	-2.201885E-10	-4.541563E+9	8.278003	0.214917	0	0
0	0	0	-0.060391	6.06164	-19.803943	6.06164	45785	-3.441975E-10	-2.905309E+9	8.157778	0.214348	0	0
0	0	0	-0.064025	6.061587	-19.808565	6.061587	45695.125	-3.539074E-9	-2.825598E+8	8.107943	0.213106	0	0
0	0	0	-0.067251	6.061693	-19.813171	6.061693	45615.625	-1.802081E-10	-5.549141E+9	8.079648	0.212207	0	0
0	0	0	-0.069211	6.061573	-19.815366	6.061573	45567.25	2.662356E-9	3.756072E+8	7.965899	0.211532	0	0
0	0	0	-0.071172	6.06178	-19.818628	6.06178	45519	-1.015362E-10	-9.8487E+9	7.973281	0.21017	0	0
0	0	0	-0.073009	6.061546	-19.820291	6.061546	45473.875	5.892736E-10	1.697004E+9	7.851599	0.209694	0	0
0	0	0	-0.075419	6.061513	-19.823362	6.061513	45414.625	2.983156E-10	3.352155E+9	7.807203	0.208557	0	0
0	0	0	-0.077379	6.061566	-19.826123	6.061566	45366.5	1.412016E-9	7.082072E+8	7.78248	0.207619	0	0
0	0	0	-0.078359	6.061573	-19.827439	6.061573	45342.5	2.649225E-9	3.774689E+8	7.649151	0.206958	0	0
0	0	0	-0.079788	6.061653	-19.829586	6.061653	45307.5	-2.778807E-10	-3.598666E+9	7.656872	0.205715	0	0
0	0	0	-0.081054	6.06164	-19.831213	6.06164	45276.5	-3.403747E-10	-2.937939E+9	7.533473	0.205199	0	0
0	0	0	-0.08085	6.061607	-19.830835	6.061607	45281.5	-7.813609E-10	-1.279818E+9	7.46858	0.203983	0	0
0	0	0	-0.081707	6.06162	-19.83201	6.06162	45260.5	-5.144461E-10	-1.943838E+9	7.420876	0.20315	0	0
0	0	0	-0.082647	6.06156	-19.833054	6.06156	45237.5	9.595931E-10	1.042108E+9	7.316499	0.202475	0	0
0	0	0	-0.083055	6.0618	-19.834376	6.0618	45227.5	-9.167548E-11	-1.090804E+10	7.328167	0.201153	0	0
0	0	0	-0.084566	6.061673	-19.835957	6.061673	45190.625	-2.171717E-10	-4.604651E+9	7.210409	0.20069	0	0
0	0	0	-0.085342	6.061587	-19.836698	6.061587	45171.625	-3.498529E-9	-2.858345E+8	7.198109	0.199527	0	0
0	0	0	-0.086199	6.0618	-19.838526	6.0618	45150.75	-9.151991E-11	-1.092658E+10	7.113611	0.198866	0	0
0	0	0	-0.085914	6.061607	-19.837518	6.061607	45157.75	-7.792255E-10	-1.283326E+9	7.015633	0.197901	0	0
0	0	0	-0.086934	6.061566	-19.838735	6.061566	45132.75	1.404741E-9	7.118751E+8	6.991036	0.196988	0	0
0	0	0	-0.086812	6.061506	-19.838377	6.061506	45135.75	2.698694E-10	3.705496E+9	6.859123	0.196288	0	0
0	0	0	-0.086281	6.061613	-19.838025	6.061613	45148.75	-6.187677E-10	-1.616115E+9	6.869654	0.195151	0	0
0	0	0	-0.085954	6.061587	-19.837507	6.061587	45156.75	-3.497377E-9	-2.859286E+8	6.715515	0.194661	0	0
0	0	0	-0.085464	6.061573	-19.836816	6.061573	45168.625	2.639066E-9	3.78922E+8	6.71586	0.193524	0	0
0	0	0	-0.085424	6.061493	-19.836501	6.061493	45169.625	2.289651E-10	4.367478E+9	6.60241	0.19289	0	0
0	0	0	-0.084688	6.061647	-19.836032	6.061647	45187.625	-3.052536E-10	-3.275965E+9	6.543155	0.191872	0	0
0	0	0	-0.085179	6.0615	-19.8362	6.0615	45175.625	2.478584E-10	4.034562E+9	6.498304	0.191118	0	0
0	0	0	-0.083586	6.061613	-19.834468	6.061613	45214.625	-6.196705E-10	-1.613761E+9	6.407804	0.190325	0	0
0	0	0	-0.083178	6.061526	-19.833646	6.061526	45224.5	3.700561E-10	2.702293E+9	6.397275	0.189412	0	0
0	0	0	-0.082279	6.061533	-19.832482	6.061533	45246.5	4.220899E-10	2.369164E+9	6.275672	0.188712	0	0
0	0	0	-0.081871	6.06156	-19.83203	6.06156	45256.5	9.599961E-10	1.041671E+9	6.281079	0.187588	0	0
0	0	0	-0.080768	6.061587	-19.830662	6.061587	45283.5	-3.507193E-9	-2.851283E+8	6.16591	0.187125	0	0
0	0	0	-0.081422	6.061533	-19.83135	6.061533	45267.5	4.222858E-10	2.368065E+9	6.148306	0.186028	0	0
0	0	0	-0.079421	6.06166	-19.829123	6.06166	45316.5	-2.545012E-10	-3.929255E+9	6.030688	0.185565	0	0
0	0	0	-0.079257	6.0616	-19.828711	6.0616	45320.5	-1.055472E-9	-9.474432E+8	6.011519	0.184335	0	0
0	0	0	-0.078604	6.06162	-19.827914	6.06162	45336.5	-5.1531E-10	-1.94058E+9	5.898796	0.183925	0	0
0	0	0	-0.077869	6.061607	-19.826901	6.061607	45354.5	-7.826205E-10	-1.277758E+9	5.871063	0.182815	0	0
0	0	0	-0.07795	6.06162	-19.827052	6.06162	45352.5	-5.154918E-10	-1.939895E+9	5.775149	0.182326	0	0
0	0	0	-0.076154	6.0615	-19.824289	6.0615	45396.625	2.490709E-10	4.014921E+9	5.724875	0.181215	0	0
0	0	0	-0.074602	6.061687	-19.82285	6.061687	45434.75	-1.908109E-10	-5.240791E+9	5.637449	0.180713	0	0
0	0	0	-0.072519	6.061473	-19.819405	6.061473	45485.875	1.877116E-10	5.32732E+9	5.594583	0.179642	0	0
0	0	0	-0.072274	6.061607	-19.819517	6.061607	45491.875	-7.84991E-10	-1.2739E+9	5.492265	0.179205	0	0
0	0	0	-0.071172	6.06166	-19.818236	6.06166	45519	-2.556385E-10	-3.911775E+9	5.444048	0.178214	0	0
0	0	0	-0.072274	6.061627	-19.819582	6.061627	45491.875	-4.417005E-10	-2.263978E+9	5.353416	0.177685	0	0
0	0	0	-0.072111	6.061546	-19.819106	6.061546	45495.875	5.895587E-10	1.696184E+9	5.304675	0.176693	0	0
0	0	0	-0.075092	6.061587	-19.823171	6.061587	45422.625	-3.517968E-9	-2.84255E+8	5.218155	0.176151	0	0
0	0	0	-0.076725	6.0616	-19.82537	6.0616	45382.5	-1.056916E-9	-9.461488E+8	5.184016	0.175212	0	0
0	0	0	-0.078645	6.06158	-19.827838	6.06158	45335.5	2.156893E-8	4.636299E+7	5.091687	0.174591	0	0
0	0	0	-0.078645	6.061687	-19.828186	6.061687	45335.5	-1.903941E-10	-5.252265E+9	5.048166	0.173732	0	0
0	0	0	-0.080605	6.061546	-19.830316	6.061546	45287.5	5.868585E-10	1.703988E+9	4.923236	0.173242	0	0
0	0	0	-0.080727	6.06164	-19.830782	6.06164	45284.5	-3.404349E-10	-2.93742E+9	4.911538	0.172304	0	0
0	0	0	-0.082565	6.061733	-19.833512	6.061733	45239.5	-1.318135E-10	-7.586479E+9	4.803111	0.171748	0	0
0	0	0	-0.082483	6.061587	-19.832925	6.061587	45241.5	-3.50394E-9	-2.85393E+8	4.758667	0.171008	0	0
0	0	0	-0.084566	6.061687	-19.836001	6.061687	45190.625	-1.897856E-10	-5.269103E+9	4.659958	0.170201	0	0
0	0	0	-0.084811	6.061413	-19.835432	6.061413	45184.625	1.197136E-10	8.353268E+9	4.615353	0.169527	0	0
0	0	0	-0.084852	6.061466	-19.83566	6.061466	45183.625	1.755854E-10	5.695234E+9	4.535869	0.16876	0	0
0	0	0	-0.08526	6.061767	-19.837178	6.061767	45173.625	-1.079996E-10	-9.259297E+9	4.442069	0.168099	0	0
0	0	0	-0.085709	6.06164	-19.837357	6.06164	45162.625	-3.395186E-10	-2.945346E+9	4.393157	0.167279	0	0
0	0	0	-0.085669	6.061687	-19.837456	6.061687	45163.75	-1.896728E-10	-5.272238E+9	4.248212	0.166764	0	0
0	0	0	-0.086036	6.061587	-19.837614	6.061587	45154.75	-3.497222E-9	-2.859413E+8	4.207509	0.165799	0	0
0	0	0	-0.085954	6.061707	-19.837898	6.061707	45156.75	-1.594774E-10	-6.270481E+9	4.109178	0.165309	0	0
0	0	0	-0.08722	6.061673	-19.83946	6.061673	45125.75	-2.1686E-10	-4.611271E+9	4.061497	0.164595	0	0
0	0	0	-0.087629	6.061566	-19.839651	6.061566	45115.875	1.404216E-9	7.121414E+8	3.993617	0.163802	0	0
0	0	0	-0.088119	6.061607	-19.840428	6.061607	45103.875	-7.782958E-10	-1.284858E+9	3.931266	0.163353	0	0
0	0	0	-0.087915	6.061693	-19.840442	6.061693	45108.875	-1.782061E-10	-5.61148E+9	3.880797	0.162454	0	0
0	0	0	-0.088037	6.061593	-19.840277	6.061593	45105.875	-1.615245E-9	-6.191012E+8	3.790189	0.161872	0	0
0	0	0	-0.087751	6.061593	-19.8399	6.061593	45112.875	-1.615495E-9	-6.190052E+8	3.721338	0.161237	0	0
0	0	0	-0.088241	6.06162	-19.840633	6.06162	45100.875	-5.126318E-10	-1.950718E+9	3.661855	0.160391	0	0
0	0	0	-0.088241	6.06162	-19.840633	6.06162	45100.875	-5.126318E-10	-1.950718E+9	3.563686	0.159968	0	0
0	0	0	-0.087955	6.061627	-19.840278	6.061627	45107.875	-4.379721E-10	-2.283251E+9	3.487205	0.159254	0	0
0	0	0	-0.087547	6.061687	-19.839935	6.061687	45117.875	-1.894801E-10	-5.277599E+9	3.421589	0.158421	0	0
0	0	0	-0.08673	6.061753	-19.839075	6.061753	45137.75	-1.162598E-10	-8.601426E+9	3.343065	0.157773	0	0
0	0	0	-0.087057	6.061814	-19.839702	6.061814	45129.75	-8.622907E-11	-1.159702E+10	3.273973	0.157284	0	0
0	0	0	-0.086036	6.061627	-19.837745	6.061627	45154.75	-4.384272E-10	-2.28088E+9	3.180953	0.156424	0	0
0	0	0	-0.086363	6.061667	-19.838307	6.061667	45146.75	-2.338319E-10	-4.276577E+9	3.101095	0.15575	0	0
0	0	0	-0.08673	6.06166	-19.83877	6.06166	45137.75	-2.534973E-10	-3.944815E+9	3.038476	0.155221	0	0
0	0	0	-0.086077	6.061546	-19.837538	6.061546	45153.75	5.851253E-10	1.709036E+9	2.953225	0.154547	0	0
0	0	0	-0.085873	6.061533	-19.837225	6.061533	45158.75	4.212713E-10	2.373767E+9	2.891889	0.154005	0	0
0	0	0	-0.08526	6.061573	-19.836547	6.061573	45173.625	2.639358E-9	3.788801E+8	2.836808	0.153212	0	0
0	0	0	-0.084076	6.06168	-19.835332	6.06168	45202.625	-2.02611E-10	-4.935566E+9	2.792959	0.15259	0	0
0	0	0	-0.084035	6.0615	-19.834691	6.0615	45203.625	2.48012E-10	4.032063E+9	2.735302	0.152141	0	0
0	0	0	-0.083872	6.061573	-19.834714	6.061573	45207.5	2.641337E-9	3.785962E+8	2.709038	0.151294	0	0
0	0	0	-0.084443	6.061546	-19.835382	6.061546	45193.625	5.85642E-10	1.707528E+9	2.678527	0.150699	0	0
0	0	0	-0.083749	6.061713	-19.83501	6.061713	45210.625	-1.51628E-10	-6.595088E+9	2.63914	0.15029	0	0
0	0	0	-0.082728	6.061713	-19.833662	6.061713	45235.5	-1.517114E-10	-6.591461E+9	2.615761	0.149443	0	0
0	0	0	-0.080768	6.06166	-19.830901	6.06166	45283.5	-2.543159E-10	-3.932118E+9	2.582335	0.148756	0	0
0	0	0	-0.080033	6.061707	-19.830083	6.061707	45301.5	-1.599886E-10	-6.250445E+9	2.557192	0.148359	0	0
0	0	0	-0.078645	6.06158	-19.827838	6.06158	45335.5	2.156893E-8	4.636299E+7	2.564403	0.147659	0	0
0	0	0	-0.079911	6.061693	-19.829878	6.061693	45304.5	-1.789789E-10	-5.58725E+9	2.542524	0.146852	0	0
0	0	0	-0.079461	6.061693	-19.829285	6.061693	45315.5	-1.790224E-10	-5.585893E+9	2.517199	0.146429	0	0
0	0	0	-0.080278	6.06146	-19.829602	6.06146	45295.5	1.663167E-10	6.012624E+9	2.488867	0.145794	0	0
0	0	0	-0.079666	6.061546	-19.829076	6.061546	45310.5	5.871565E-10	1.703123E+9	2.447147	0.145107	0	0
0	0	0	-0.080972	6.06162	-19.83104	6.06162	45278.5	-5.146507E-10	-1.943065E+9	2.410639	0.144697	0	0
0	0	0	-0.080768	6.061607	-19.830727	6.061607	45283.5	-7.813954E-10	-1.279762E+9	2.394134	0.144115	0	0
0	0	0	-0.082932	6.061667	-19.833779	6.061667	45230.5	-2.342656E-10	-4.268659E+9	2.378446	0.143269	0	0
0	0	0	-0.082851	6.061633	-19.833563	6.061633	45232.5	-3.833065E-10	-2.608878E+9	2.374957	0.142727	0	0
0	0	0	-0.083423	6.061633	-19.834317	6.061633	45218.5	-3.831879E-10	-2.609686E+9	2.335784	0.142224	0	0
0	0	0	-0.085179	6.0616	-19.836526	6.0616	45175.625	-1.052098E-9	-9.504816E+8	2.333883	0.141471	0	0
0	0	0	-0.08575	6.061707	-19.837629	6.061707	45161.625	-1.594946E-10	-6.269804E+9	2.310581	0.140955	0	0
0	0	0	-0.085873	6.061653	-19.837616	6.061653	45158.75	-2.769684E-10	-3.61052E+9	2.267967	0.1404	0	0
0	0	0	-0.086077	6.061834	-19.838473	6.061834	45153.75	-7.943856E-11	-1.258834E+10	2.206505	0.139884	0	0
0	0	0	-0.086608	6.061506	-19.838108	6.061506	45140.75	2.698993E-10	3.705086E+9	2.199697	0.139289	0	0
0	0	0	-0.087261	6.061526	-19.839035	6.061526	45124.75	3.692399E-10	2.708267E+9	2.193823	0.138641	0	0
0	0	0	-0.087955	6.061513	-19.839908	6.061513	45107.875	2.963006E-10	3.374951E+9	2.16664	0.138179	0	0
0	0	0	-0.087098	6.061613	-19.839103	6.061613	45128.75	-6.184936E-10	-1.616832E+9	2.142927	0.137491	0	0
0	0	0	-0.087874	6.061693	-19.840388	6.061693	45109.875	-1.782101E-10	-5.611355E+9	2.110695	0.13687	0	0
0	0	0	-0.08771	6.061473	-19.839454	6.061473	45113.875	1.861765E-10	5.371248E+9	2.088776	0.136499	0	0
0	0	0	-0.087874	6.061653	-19.840257	6.061653	45109.875	-2.766687E-10	-3.614432E+9	2.057281	0.135918	0	0
0	0	0	-0.088364	6.061573	-19.840643	6.061573	45097.875	2.634932E-9	3.795165E+8	2.022423	0.135164	0	0
0	0	0	-0.089099	6.061607	-19.841722	6.061607	45080	-7.778839E-10	-1.285539E+9	1.990307	0.134701	0	0
0	0	0	-0.088976	6.06164	-19.841669	6.06164	45083	-3.3892E-10	-2.950548E+9	1.978261	0.134239	0	0
0	0	0	-0.089344	6.061693	-19.842328	6.061693	45074	-1.780683E-10	-5.615822E+9	1.973629	0.133419	0	0
0	0	0	-0.089058	6.061513	-19.841363	6.061513	45081	2.961241E-10	3.376963E+9	1.963079	0.132969	0	0
0	0	0	-0.08918	6.061573	-19.841721	6.061573	45078	2.633771E-9	3.796838E+8	1.93074	0.132599	0	0
0	0	0	-0.089344	6.06156	-19.841893	6.06156	45074	9.561249E-10	1.045888E+9	1.902618	0.131912	0	0
0	0	0	-0.08865	6.061633	-19.841216	6.061633	45091	-3.821074E-10	-2.617065E+9	1.860956	0.131211	0	0
0	0	0	-0.087955	6.0614	-19.839538	6.0614	45107.875	1.107033E-10	9.033152E+9	1.836926	0.130748	0	0
0	0	0	-0.088364	6.06164	-19.84086	6.06164	45097.875	-3.390319E-10	-2.949575E+9	1.795613	0.130127	0	0
0	0	0	-0.087547	6.06158	-19.839587	6.06158	45117.875	2.146539E-8	4.658662E+7	1.786126	0.129426	0	0
0	0	0	-0.087751	6.06162	-19.839987	6.06162	45112.875	-5.127682E-10	-1.950199E+9	1.774743	0.128963	0	0
0	0	0	-0.086894	6.061627	-19.838877	6.061627	45133.75	-4.382233E-10	-2.281942E+9	1.744086	0.128646	0	0
0	0	0	-0.08767	6.06164	-19.839944	6.06164	45114.875	-3.391597E-10	-2.948464E+9	1.718773	0.127919	0	0
0	0	0	-0.086689	6.06158	-19.838455	6.06158	45138.75	2.147532E-8	4.656508E+7	1.70287	0.12735	0	0
0	0	0	-0.086281	6.06172	-19.838373	6.06172	45148.75	-1.441616E-10	-6.93666E+9	1.695832	0.126848	0	0
0	0	0	-0.08624	6.061733	-19.838363	6.061733	45149.75	-1.315519E-10	-7.60156E+9	1.642467	0.126411	0	0
0	0	0	-0.085791	6.061587	-19.837291	6.061587	45160.625	-3.497677E-9	-2.859041E+8	1.61328	0.12575	0	0
0	0	0	-0.086118	6.061593	-19.837744	6.061593	45152.75	-1.616923E-9	-6.184585E+8	1.596881	0.125169	0	0
0	0	0	-0.085914	6.06168	-19.837757	6.06168	45157.75	-2.024099E-10	-4.940471E+9	1.5673	0.124812	0	0
0	0	0	-0.085587	6.0616	-19.837065	6.0616	45165.625	-1.051865E-9	-9.50692E+8	1.545908	0.124441	0	0
0	0	0	-0.08526	6.061653	-19.836808	6.061653	45173.625	-2.770596E-10	-3.609331E+9	1.544767	0.123701	0	0
0	0	0	-0.084362	6.061473	-19.835035	6.061473	45195.625	1.865138E-10	5.361533E+9	1.533729	0.123119	0	0
0	0	0	-0.082892	6.061707	-19.833856	6.061707	45231.5	-1.597414E-10	-6.260118E+9	0	0	0	0
0	0	0	-0.082606	6.061587	-19.833087	6.061587	45238.5	-3.503708E-9	-2.854119E+8	0	0	0	0
0	0	0	-0.081789	6.061566	-19.831944	6.061566	45258.5	1.408655E-9	7.098972E+8	0	0	0	0
0	0	0	-0.081952	6.061486	-19.831898	6.061486	45254.5	2.131722E-10	4.691044E+9	0	0	0	0
0	0	0	-0.081667	6.061587	-19.831848	6.061587	45261.5	-3.505489E-9	-2.852669E+8	0	0	0	0
0	0	0	-0.08232	6.06164	-19.832884	6.06164	45245.5	-3.401417E-10	-2.939952E+9	0	0	0	0
0	0	0	-0.082116	6.06168	-19.832745	6.06168	45250.5	-2.028256E-10	-4.930344E+9	0	0	0	0
0	0	0	-0.082524	6.061493	-19.832675	6.061493	45240.5	2.293244E-10	4.360636E+9	0	0	0	0
0	0	0	-0.082565	6.06152	-19.832816	6.06152	45239.5	3.296778E-10	3.033264E+9	0	0	0	0
0	0	0	-0.084362	6.061573	-19.835361	6.061573	45195.625	2.640643E-9	3.786956E+8	0	0	0	0
0	0	0	-0.085138	6.061587	-19.836429	6.061587	45176.625	-3.498916E-9	-2.858028E+8	0	0	0	0
0	0	0	-0.085954	6.061513	-19.837267	6.061513	45156.75	2.966217E-10	3.371298E+9	0	0	0	0
0	0	0	-0.085628	6.061747	-19.837598	6.061747	45164.75	-1.210087E-10	-8.263868E+9	0	0	0	0
0	0	0	-0.086894	6.061553	-19.838637	6.061553	45133.75	7.261381E-10	1.377148E+9	0	0	0	0
0	0	0	-0.086526	6.061573	-19.838218	6.061573	45142.75	2.637554E-9	3.791392E+8	0	0	0	0
0	0	0	-0.087179	6.061493	-19.838819	6.061493	45126.875	2.287484E-10	4.371615E+9	0	0	0	0
0	0	0	-0.086934	6.061673	-19.839083	6.061673	45132.75	-2.168936E-10	-4.610556E+9	0	0	0	0
0	0	0	-0.088119	6.061587	-19.840363	6.061587	45103.875	-3.493281E-9	-2.862638E+8	0	0	0	0
0	0	0	-0.088078	6.06166	-19.840548	6.06166	45104.875	-2.533127E-10	-3.94769E+9	0	0	0	0
0	0	0	-0.087955	6.061587	-19.840147	6.061587	45107.875	-3.493591E-9	-2.862384E+8	0	0	0	0
0	0	0	-0.087996	6.06162	-19.84031	6.06162	45106.875	-5.127E-10	-1.950458E+9	0	0	0	0
0	0	0	-0.088486	0	-0.088486	0	45095	0	0	0	0	0	0
0	0	0	-0.088405	0	-0.088405	0	45096.875	0	0	0	0	0	0
