Vload_(V)	ILoad_(A)	RsLoad (ohm)	SunsVoc_Voltage_(V)	SunsVoc_Current_(A)	Model_Voltage_(V)	Model_Current_(A)	Carrier_Density_(cm-3)	Lifetime_(s)	Inverse_Lifetime_(s-1)	Efficiency_(%)	Intensity_(suns)	Dark_IV_Voltage_(V)	Dark_IV_Current_(A)
4.009201	6.387153	0	65.884296	-1.229774	66.264783	-1.229774	4.70462E+15	0.000259	3820.087132	19.767881	1.17861	0	0
4.049472	6.388666	-0.578987	65.84105	-0.96252	66.140768	-0.96252	4.657711E+15	0.000266	3722.972493	19.829533	1.17824	0	0
5.516258	6.385138	4.431654	65.70678	-0.575737	65.88962	-0.575737	4.514713E+15	0.000272	3640.12471	19.853672	1.17705	0	0
8.480672	6.375923	5.950553	65.551723	-0.151933	65.601059	-0.151933	4.354453E+15	0.00028	3545.850074	19.810551	1.175357	0	0
11.648508	6.357046	6.133195	65.381516	0.265751	65.293137	0.265751	4.184367E+15	0.000287	3455.882006	19.767041	1.17262	0	0
14.305369	6.353678	5.768892	65.209758	0.655651	64.986522	0.655651	4.018721E+15	0.000294	3370.66126	19.765819	1.16954	0	0
17.098671	6.356092	5.291896	65.04098	1.013614	64.687982	1.013614	3.861615E+15	0.000302	3290.115582	19.772389	1.167385	0	0
19.928271	6.350846	4.925878	64.871671	1.356521	64.38867	1.356521	3.709472E+15	0.00031	3207.775014	19.757275	1.165824	0	0
22.795294	6.349659	4.490811	64.700893	1.678074	64.090194	1.678074	3.561363E+15	0.000317	3128.831029	19.738791	1.163405	0	0
25.725919	6.351562	4.002581	64.529542	1.972467	63.796131	1.972467	3.417984E+15	0.000325	3057.446267	19.752643	1.159478	0	0
29.42338	6.237775	4.147895	64.365216	2.239792	63.515445	2.239792	3.285239E+15	0.000333	2989.405994	19.775584	1.155115	0	0
32.373502	6.240086	3.666431	64.200767	2.489702	63.237314	2.489702	3.156907E+15	0.00034	2924.449193	19.757178	1.151082	0	0
35.259058	6.2417	3.198449	64.038564	2.724138	62.964028	2.724138	3.034609E+15	0.000348	2860.196895	19.71461	1.147195	0	0
38.143087	6.237185	2.752076	63.877341	2.943338	62.694475	2.943338	2.917133E+15	0.000356	2798.15456	19.713222	1.142991	0	0
40.523363	6.327052	1.926139	63.715588	3.149377	62.426443	3.149377	2.803232E+15	0.000363	2738.412667	19.742355	1.138826	0	0
43.363485	6.32074	1.52583	63.555345	3.340631	62.163246	3.340631	2.694188E+15	0.000371	2681.664733	19.747831	1.13482	0	0
46.234165	6.301722	1.189297	63.394694	3.51923	61.902116	3.51923	2.588538E+15	0.000379	2628.171474	19.717893	1.130417	0	0
47.158541	6.295552	1.075227	63.241352	3.682885	61.653341	3.682885	2.491022E+15	0.000387	2575.810458	19.70959	1.12538	0	0
48.080807	6.278889	1.006185	63.085928	3.83708	61.403949	3.83708	2.395397E+15	0.000394	2526.479866	19.737852	1.119998	0	0
48.997978	6.259357	0.936677	62.934588	3.981739	61.161428	3.981739	2.305306E+15	0.000402	2476.8068	19.739439	1.115305	0	0
49.931421	6.231637	0.879053	62.780961	4.116716	60.918549	4.116716	2.216812E+15	0.00041	2431.649784	19.705543	1.111047	0	0
50.851664	6.197745	0.824204	62.630804	4.241264	60.6827	4.241264	2.133115E+15	0.000417	2388.894502	19.704687	1.106116	0	0
51.789764	6.154978	0.769631	62.480117	4.357551	60.448341	4.357551	2.051824E+15	0.000424	2349.393644	19.735188	1.101025	0	0
52.714499	6.092601	0.734288	62.335433	4.4673	60.2227	4.4673	1.976246E+15	0.000432	2307.72311	19.755365	1.095803	0	0
53.645373	6.016609	0.695337	62.186421	4.57031	59.993587	4.57031	1.90087E+15	0.000439	2270.882021	19.716706	1.090593	0	0
54.559836	5.926234	0.652966	62.040185	4.666088	59.769953	4.666088	1.829261E+15	0.000446	2235.727413	19.692615	1.084802	0	0
55.480469	5.80473	0.618804	61.8935	4.75518	59.547779	4.75518	1.759719E+15	0.000453	2204.108606	19.718005	1.078786	0	0
56.387499	5.648366	0.590446	61.756289	4.837586	59.33933	4.837586	1.696686E+15	0.00046	2170.845779	19.733969	1.073577	0	0
57.287485	5.452357	0.563875	61.609359	4.916952	59.119455	4.916952	1.631292E+15	0.000466	2142.522727	19.706802	1.06854	0	0
58.166106	5.211461	0.540815	61.466308	4.990962	58.906026	4.990962	1.569658E+15	0.000472	2114.830009	19.683001	1.062828	0	0
59.049399	4.915279	0.518581	61.326974	5.060351	58.698605	5.060351	1.511504E+15	0.000478	2087.292638	19.716093	1.056786	0	0
59.924088	4.546232	0.501226	61.190784	5.126125	58.496081	5.126125	1.456407E+15	0.000485	2059.088577	19.741607	1.050862	0	0
60.756123	4.115229	0.486954	61.050674	5.189447	58.289177	5.189447	1.401477E+15	0.000491	2032.557565	19.700029	1.045587	0	0
61.602481	3.602124	0.471329	60.905254	5.249311	58.076726	5.249311	1.346297E+15	0.000497	2010.325123	19.675706	1.039875	0	0
62.390181	3.037002	0.456663	60.770453	5.30504	57.878941	5.30504	1.296769E+15	0.000503	1985.06377	19.707935	1.034058	0	0
63.155338	2.412118	0.447344	60.635978	5.35772	57.682552	5.35772	1.248876E+15	0.000509	1961.01379	19.736785	1.02861	0	0
63.869007	1.759587	0.446463	60.501626	5.407499	57.48728	5.407499	1.202501E+15	0.000515	1938.317127	19.711093	1.023308	0	0
64.506066	1.11331	0.459422	60.368498	5.453855	57.294854	5.453855	1.157965E+15	0.000521	1917.766884	19.686549	1.017716	0	0
65.035799	0.545168	0.468166	60.238434	5.497616	57.107177	5.497616	1.115782E+15	0.000527	1897.084073	19.707814	1.0117	0	0
54.014408	5.980549	0.680431	60.10547	5.539964	56.916148	5.539964	1.073983E+15	0.000532	1877.218447	19.730672	1.006001	0	0
65.546458	0	0	59.981245	5.579127	56.73744	5.579127	1.036112E+15	0.000538	1855.995237	19.691723	1.001017	0	0
0	0	0	59.847873	5.617031	56.547507	5.617031	9.966907E+14	0.000543	1839.012836	19.66758	0.995702	0	0
0	0	0	59.718747	5.651596	56.364444	5.651596	9.597172E+14	0.000548	1824.248223	19.701332	0.990016	0	0
0	0	0	59.591541	5.685094	56.184031	5.685094	9.244127E+14	0.000553	1807.765005	19.729419	0.984265	0	0
0	0	0	59.467153	5.71661	56.007985	5.71661	8.90939E+14	0.000558	1791.572361	19.695871	0.979003	0	0
0	0	0	59.342193	5.746616	55.831778	5.746616	8.583312E+14	0.000563	1776.501461	19.660145	0.973463	0	0
0	0	0	59.213966	5.775347	55.651874	5.775347	8.259082E+14	0.000567	1763.511737	19.683558	0.967513	0	0
0	0	0	59.092763	5.802357	55.481604	5.802357	7.962043E+14	0.000572	1748.612072	19.714463	0.961801	0	0
0	0	0	58.969641	5.828196	55.309333	5.828196	7.669465E+14	0.000576	1735.175833	19.677866	0.956751	0	0
0	0	0	58.845784	5.852835	55.136596	5.852835	7.384241E+14	0.00058	1722.822179	19.652754	0.951422	0	0
0	0	0	58.724907	5.875788	54.968444	5.875788	7.114476E+14	0.000584	1711.391926	19.682249	0.946015	0	0
0	0	0	58.604889	5.897716	54.801789	5.897716	6.85483E+14	0.000588	1700.106355	19.711096	0.940726	0	0
0	0	0	58.484339	5.918517	54.634947	5.918517	6.602072E+14	0.000591	1690.22461	19.676376	0.935927	0	0
0	0	0	58.366035	5.937891	54.471672	5.937891	6.361672E+14	0.000594	1681.626667	19.642722	0.931074	0	0
0	0	0	58.249324	5.957184	54.310269	5.957184	6.131762E+14	0.000599	1669.801064	19.673956	0.926103	0	0
0	0	0	58.129101	5.97491	54.145223	5.97491	5.90229E+14	0.000601	1663.244676	19.702877	0.921317	0	0
0	0	0	58.013166	5.992051	53.985846	5.992051	5.687909E+14	0.000604	1654.207979	19.659919	0.916954	0	0
0	0	0	57.895435	6.008508	53.824456	6.008508	5.47698E+14	0.000607	1646.394833	19.638131	0.911956	0	0
0	0	0	57.779254	6.023947	53.665565	6.023947	5.275368E+14	0.00061	1639.657261	19.677703	0.906601	0	0
0	0	0	57.664871	6.038667	53.509299	6.038667	5.083067E+14	0.000612	1632.751674	19.694654	0.901577	0	0
0	0	0	57.548487	6.052469	53.350957	6.052469	4.893559E+14	0.000614	1628.843346	19.646793	0.89683	0	0
0	0	0	57.433491	6.066448	53.194118	6.066448	4.712268E+14	0.000617	1620.882681	19.622006	0.891885	0	0
0	0	0	57.316576	6.079012	53.035671	6.079012	4.533872E+14	0.000618	1618.686195	19.669397	0.886517	0	0
0	0	0	57.20501	6.091287	52.884146	6.091287	4.369072E+14	0.00062	1612.853296	19.690704	0.881665	0	0
0	0	0	57.090219	6.102992	52.728768	6.102992	4.204909E+14	0.000621	1609.54454	19.644991	0.877077	0	0
0	0	0	56.982328	6.114375	52.582343	6.114375	4.055491E+14	0.000624	1602.013483	19.621532	0.872489	0	0
0	0	0	56.864188	6.125362	52.422949	6.125362	3.897164E+14	0.000625	1599.968726	19.665686	0.86728	0	0
0	0	0	56.760831	6.135239	52.28321	6.135239	3.76307E+14	0.000627	1594.486362	19.676426	0.862652	0	0
0	0	0	56.645957	6.144955	52.128717	6.144955	3.618758E+14	0.000627	1594.141111	19.63385	0.858421	0	0
0	0	0	56.539741	6.154875	51.985082	6.154875	3.489638E+14	0.000631	1585.429577	19.612687	0.853622	0	0
0	0	0	56.429401	6.163583	51.836958	6.163583	3.359785E+14	0.000631	1584.984278	19.648719	0.848598	0	0
0	0	0	56.322164	6.171683	51.693188	6.171683	3.237661E+14	0.000631	1585.192884	19.648392	0.844036	0	0
0	0	0	56.211742	6.180624	51.54461	6.180624	3.116004E+14	0.000633	1578.750277	19.611762	0.839488	0	0
0	0	0	56.111692	6.187389	51.410925	6.187389	3.00927E+14	0.000632	1581.20892	19.602088	0.83453	0	0
0	0	0	56.001393	6.19559	51.262904	6.19559	2.895358E+14	0.000634	1575.957349	19.641389	0.829704	0	0
0	0	0	55.898566	6.20221	51.125625	6.20221	2.792621E+14	0.000634	1577.481373	19.643587	0.825275	0	0
0	0	0	55.794106	6.209219	50.985883	6.209219	2.69158E+14	0.000635	1574.684558	19.590915	0.820793	0	0
0	0	0	55.685195	6.214993	50.841308	6.214993	2.589715E+14	0.000631	1583.523226	19.584725	0.816086	0	0
0	0	0	55.58878	6.221958	50.711821	6.221958	2.502425E+14	0.000636	1572.465842	19.626186	0.81122	0	0
0	0	0	55.47995	6.227324	50.567555	6.227324	2.407069E+14	0.000632	1581.667984	19.609495	0.806897	0	0
0	0	0	55.376756	6.234357	50.429166	6.234357	2.319678E+14	0.000637	1569.036229	19.558149	0.802586	0	0
0	0	0	55.276829	6.238418	50.297289	6.238418	2.237786E+14	0.000632	1583.238393	19.573711	0.797866	0	0
0	0	0	55.169674	6.244536	50.154415	6.244536	2.152879E+14	0.000634	1577.985673	19.605216	0.793278	0	0
0	0	0	55.070114	6.249751	50.021995	6.249751	2.076615E+14	0.000634	1576.13029	19.578435	0.789259	0	0
0	0	0	54.964756	6.254207	49.882672	6.254207	1.998585E+14	0.000631	1584.556188	19.546111	0.784962	0	0
0	0	0	54.861929	6.260301	49.74523	6.260301	1.925013E+14	0.000637	1569.715709	19.572962	0.780308	0	0
0	0	0	54.758327	6.264336	49.608422	6.264336	1.853391E+14	0.000633	1578.516626	19.587241	0.775998	0	0
0	0	0	54.656358	6.267888	49.474081	6.267888	1.785285E+14	0.000628	1591.342453	19.539566	0.772097	0	0
0	0	0	54.557248	6.272861	49.34221	6.272861	1.721294E+14	0.000632	1581.686365	19.525362	0.767721	0	0
0	0	0	54.457565	6.276985	49.210266	6.276985	1.659066E+14	0.000632	1581.804191	19.560277	0.763318	0	0
0	0	0	54.359639	6.279911	49.081555	6.279911	1.599957E+14	0.000626	1596.684415	19.561545	0.759167	0	0
0	0	0	54.260284	6.284274	48.94976	6.284274	1.541977E+14	0.000629	1589.325128	19.512876	0.75516	0	0
0	0	0	54.159663	6.288639	48.816291	6.288639	1.485245E+14	0.000633	1580.020957	19.501331	0.750956	0	0
0	0	0	54.063901	6.291248	48.69055	6.291248	1.433055E+14	0.000627	1594.201549	19.529477	0.7465	0	0
0	0	0	53.965566	6.293583	48.561702	6.293583	1.38124E+14	0.00062	1613.731873	19.526595	0.742534	0	0
0	0	0	53.866374	6.297071	48.430732	6.297071	1.330744E+14	0.00062	1612.538699	19.47846	0.738911	0	0
0	0	0	53.770449	6.301411	48.303206	6.301411	1.283555E+14	0.000628	1591.278354	19.491278	0.73472	0	0
0	0	0	53.672605	6.30388	48.174796	6.30388	1.237036E+14	0.000624	1603.56721	19.527922	0.730648	0	0
0	0	0	53.573372	6.305716	48.045127	6.305716	1.191473E+14	0.000614	1628.184404	19.494662	0.726972	0	0
0	0	0	53.476997	6.308566	47.918237	6.308566	1.148735E+14	0.000614	1629.672516	19.446993	0.723164	0	0
0	0	0	53.377152	6.311772	47.786526	6.311772	1.10598E+14	0.000616	1623.616894	19.474586	0.718827	0	0
0	0	0	53.277143	6.315111	47.654455	6.315111	1.064661E+14	0.00062	1611.907953	19.512868	0.714663	0	0
0	0	0	53.180034	6.31721	47.527208	6.31721	1.025938E+14	0.000616	1624.018097	19.462163	0.711318	0	0
0	0	0	53.082312	6.318832	47.399579	6.318832	9.883176E+13	0.000607	1646.731864	19.436855	0.707285	0	0
0	0	0	52.981037	6.320662	47.267162	6.320662	9.507103E+13	0.0006	1666.043533	19.467949	0.703147	0	0
0	0	0	52.886296	6.322928	47.142767	6.322928	9.167619E+13	0.000599	1668.842836	19.472348	0.699392	0	0
0	0	0	52.787349	6.325635	47.012518	6.325635	8.825379E+13	0.000602	1660.487258	19.412958	0.695941	0	0
0	0	0	52.686401	6.328403	46.879605	6.328403	8.488772E+13	0.000607	1648.667187	19.399704	0.69212	0	0
0	0	0	52.591211	6.330138	46.755055	6.330138	8.182606E+13	0.000602	1659.839791	19.449108	0.687981	0	0
0	0	0	52.492876	6.331488	46.626785	6.331488	7.877414E+13	0.000594	1683.319132	19.440177	0.684517	0	0
0	0	0	52.394664	6.332757	46.498737	6.332757	7.583487E+13	0.000585	1708.692866	19.387632	0.681027	0	0
0	0	0	52.300046	6.334243	46.375117	6.334243	7.310269E+13	0.00058	1724.15272	19.378687	0.677206	0	0
0	0	0	52.197709	6.336083	46.241179	6.336083	7.025399E+13	0.000577	1731.660227	19.416749	0.673358	0	0
0	0	0	52.091085	6.338724	46.100927	6.338724	6.739948E+13	0.000584	1711.650516	19.381358	0.669987	0	0
0	0	0	51.995078	6.340654	45.975045	6.340654	6.492493E+13	0.000586	1706.095675	19.341528	0.666456	0	0
0	0	0	51.894212	6.342421	45.84302	6.342421	6.241947E+13	0.000586	1707.118254	19.358742	0.662728	0	0
0	0	0	51.795265	6.343857	45.713777	6.343857	6.005243E+13	0.000582	1717.452963	19.382667	0.659026	0	0
0	0	0	51.701137	6.344873	45.591153	6.344873	5.788127E+13	0.000575	1740.052102	19.334201	0.655879	0	0
0	0	0	51.592348	6.345783	45.449676	6.345783	5.546644E+13	0.000563	1776.737948	19.31353	0.65227	0	0
0	0	0	51.492176	6.346878	45.319146	6.346878	5.332932E+13	0.000556	1799.041538	19.35839	0.648277	0	0
0	0	0	51.396414	6.347692	45.194581	6.347692	5.136102E+13	0.000546	1830.236342	19.343929	0.645024	0	0
0	0	0	51.29273	6.349261	45.059027	6.349261	4.930937E+13	0.000546	1830.552652	19.285682	0.641679	0	0
0	0	0	51.195294	6.350508	44.931854	6.350508	4.745404E+13	0.000544	1839.558798	19.299247	0.63803	0	0
0	0	0	51.096224	6.351848	44.802464	6.351848	4.563725E+13	0.000543	1842.854628	19.342418	0.634341	0	0
0	0	0	50.988171	6.353733	44.660905	6.353733	4.373288E+13	0.000549	1820.384559	19.294585	0.631393	0	0
0	0	0	50.892776	6.355222	44.536091	6.355222	4.211613E+13	0.000554	1806.067902	19.243296	0.628127	0	0
0	0	0	50.787459	6.356214	44.398934	6.356214	4.039887E+13	0.000548	1824.351964	19.284222	0.624372	0	0
0	0	0	50.681365	6.357253	44.260716	6.357253	3.873812E+13	0.000544	1838.66954	19.29916	0.621186	0	0
0	0	0	50.581234	6.358086	44.130405	6.358086	3.723199E+13	0.000538	1859.728896	19.23404	0.618343	0	0
0	0	0	50.472282	6.358706	43.988899	6.358706	3.565821E+13	0.000526	1900.377134	19.226834	0.614826	0	0
0	0	0	50.361696	6.359326	43.845274	6.359326	3.412746E+13	0.000515	1942.349561	19.277379	0.611243	0	0
0	0	0	50.253684	6.36003	43.704884	6.36003	3.269453E+13	0.000506	1976.211777	19.248646	0.608506	0	0
0	0	0	50.147019	6.360593	43.566374	6.360593	3.133742E+13	0.000495	2018.947113	19.186272	0.605373	0	0
0	0	0	50.036392	6.361509	43.42237	6.361509	2.998831E+13	0.000491	2037.024884	19.20642	0.601988	0	0
0	0	0	49.930176	6.362326	43.284164	6.362326	2.874672E+13	0.000486	2057.338364	19.232455	0.598801	0	0
0	0	0	49.812649	6.363181	43.131281	6.363181	2.743173E+13	0.00048	2081.73528	19.180199	0.596157	0	0
0	0	0	49.703288	6.364151	42.98883	6.364151	2.626135E+13	0.000479	2086.473917	19.150432	0.59309	0	0
0	0	0	49.58523	6.365355	42.834872	6.365355	2.505301E+13	0.000482	2072.682044	19.200691	0.589626	0	0
0	0	0	49.4686	6.366248	42.68308	6.366248	2.39131E+13	0.00048	2082.477497	19.188768	0.586704	0	0
0	0	0	49.35095	6.367381	42.529701	6.367381	2.281502E+13	0.000484	2064.383323	19.121245	0.58402	0	0
0	0	0	49.224397	6.368039	42.365307	6.368039	2.168933E+13	0.000476	2099.322365	19.13589	0.580688	0	0
0	0	0	49.107156	6.36905	42.212566	6.36905	2.069545E+13	0.00048	2083.775523	19.171758	0.577448	0	0
0	0	0	48.977826	6.369648	42.044628	6.369648	1.965121E+13	0.000471	2121.996675	19.110477	0.574857	0	0
0	0	0	48.84915	6.370218	41.877558	6.370218	1.866394E+13	0.000463	2161.473866	19.064792	0.571737	0	0
0	0	0	48.715165	6.370643	41.703774	6.370643	1.768803E+13	0.00045	2223.424359	19.088042	0.56859	0	0
0	0	0	48.579669	6.371091	41.528006	6.371091	1.675247E+13	0.000438	2284.007907	19.098332	0.565589	0	0
0	0	0	48.442173	6.371709	41.349452	6.371709	1.585317E+13	0.000431	2320.570488	19.047779	0.562971	0	0
0	0	0	48.296427	6.371894	41.160706	6.371894	1.495207E+13	0.000411	2431.068922	19.036017	0.559864	0	0
0	0	0	48.148966	6.372411	40.969364	6.372411	1.409203E+13	0.000401	2491.998323	19.075881	0.55673	0	0
0	0	0	47.995257	6.372661	40.770235	6.372661	1.324773E+13	0.000384	2605.872134	19.044981	0.554006	0	0
0	0	0	47.839425	6.372945	40.568316	6.372945	1.244298E+13	0.000368	2720.049628	18.9952	0.551243	0	0
0	0	0	47.678937	6.37326	40.360335	6.37326	1.166489E+13	0.000352	2837.137677	19.023657	0.547991	0	0
0	0	0	47.51216	6.373597	40.144188	6.373597	1.090747E+13	0.000338	2960.454203	19.025614	0.545095	0	0
0	0	0	47.339299	6.373811	39.920307	6.373811	1.017394E+13	0.00032	3123.809182	18.95505	0.542781	0	0
0	0	0	47.157249	6.374369	39.684133	6.374369	9.454382E+12	0.00031	3221.068171	18.957919	0.539701	0	0
0	0	0	46.965848	6.374799	39.436001	6.374799	8.752368E+12	0.000297	3362.377278	19.007028	0.536607	0	0
0	0	0	46.767219	6.375069	39.178701	6.375069	8.078627E+12	0.000281	3563.160289	18.970658	0.534148	0	0
0	0	0	46.560953	6.375747	38.911026	6.375747	7.433564E+12	0.000274	3654.963562	18.902117	0.531424	0	0
0	0	0	46.346235	6.375895	38.633043	6.375895	6.816486E+12	0.000254	3934.266555	18.934502	0.52833	0	0
0	0	0	46.125758	6.376492	38.347059	6.376492	6.235914E+12	0.000246	4072.322507	18.945552	0.525699	0	0
0	0	0	45.896869	6.376949	38.050351	6.376949	5.685258E+12	0.000234	4275.516166	18.878639	0.523412	0	0
0	0	0	45.658057	6.377453	37.740735	6.377453	5.162326E+12	0.000223	4475.870147	18.855482	0.520437	0	0
0	0	0	45.405401	6.377882	37.41329	6.377882	4.661193E+12	0.000211	4737.88724	18.899293	0.517383	0	0
0	0	0	45.146578	6.378294	37.077878	6.378294	4.198097E+12	0.000199	5026.595797	18.874628	0.515082	0	0
0	0	0	44.8733	6.37881	36.723618	6.37881	3.758858E+12	0.000189	5287.442069	18.822165	0.512583	0	0
0	0	0	44.583238	6.379137	36.34787	6.379137	3.342703E+12	0.000175	5712.327741	18.844345	0.509635	0	0
0	0	0	44.2817	6.379584	35.95711	6.379584	2.958763E+12	0.000164	6093.879559	18.855628	0.506937	0	0
0	0	0	43.963869	6.379782	35.54558	6.379782	2.601634E+12	0.000148	6748.442092	18.79161	0.50461	0	0
0	0	0	43.635665	6.38046	35.119982	6.38046	2.277962E+12	0.000143	6998.645359	18.79238	0.501807	0	0
0	0	0	43.290269	6.381041	34.672248	6.381041	1.980672E+12	0.000136	7350.354937	18.837664	0.498833	0	0
0	0	0	42.931479	6.381291	34.207614	6.381291	1.71282E+12	0.000123	8152.358705	18.788174	0.496585	0	0
0	0	0	42.54786	6.381744	33.71056	6.381744	1.466335E+12	0.000114	8786.764892	18.726847	0.494126	0	0
0	0	0	42.161219	6.38191	33.209983	6.38191	1.253757E+12	0.0001	9961.36386	18.7665	0.491151	0	0
0	0	0	41.762205	6.382327	32.69303	6.382327	1.066615E+12	9.277967E-5	10778.223811	18.767738	0.488665	0	0
0	0	0	41.351512	6.382579	32.161185	6.382579	9.031069E+11	8.289225E-5	12063.853959	18.688002	0.486457	0	0
0	0	0	40.921666	6.382928	31.604403	6.382928	7.587398E+11	7.539239E-5	13263.938585	18.680808	0.48372	0	0
0	0	0	40.47818	6.383133	31.03017	6.383133	6.339274E+11	6.61968E-5	15106.470534	18.724567	0.480878	0	0
0	0	0	40.022036	6.383363	30.439507	6.383363	5.269292E+11	5.836348E-5	17134.001904	18.660302	0.478921	0	0
0	0	0	39.549434	6.383718	29.827346	6.383718	4.350739E+11	5.317032E-5	18807.48501	18.620314	0.476541	0	0
0	0	0	39.056659	6.383811	29.189465	6.383811	3.563019E+11	4.476205E-5	22340.353598	18.667953	0.473725	0	0
0	0	0	38.534604	6.383939	28.513633	6.383939	2.883465E+11	3.766395E-5	26550.584104	18.649883	0.47157	0	0
0	0	0	37.990579	6.384318	27.808961	6.384318	2.312809E+11	3.425247E-5	29194.972713	18.573168	0.469732	0	0
0	0	0	37.426993	6.384449	27.079355	6.384449	1.840424E+11	2.858077E-5	34988.563159	18.594831	0.466995	0	0
0	0	0	36.845766	6.38441	26.327191	6.38441	1.454077E+11	2.225885E-5	44925.943391	18.628929	0.464655	0	0
0	0	0	36.243957	6.384658	25.547912	6.384658	1.139281E+11	1.917348E-5	52155.367119	18.554566	0.462817	0	0
0	0	0	35.622955	6.384876	24.74383	6.384876	8.857131E+10	1.633515E-5	61217.6833	18.526588	0.46045	0	0
0	0	0	34.992152	6.384791	23.927577	6.384791	6.858485E+10	1.218969E-5	82036.564048	18.576943	0.457753	0	0
0	0	0	34.353631	6.38502	23.100784	6.38502	5.294234E+10	1.04236E-5	95936.133697	18.549708	0.45569	0	0
0	0	0	33.703023	6.385172	22.258474	6.385172	4.066762E+10	8.619325E-6	116018.36234	18.490054	0.453575	0	0
0	0	0	33.030036	6.385309	21.387218	6.385309	3.09566E+10	7.047656E-6	141891.157478	18.507996	0.45097	0	0
0	0	0	32.353578	6.385445	20.511463	6.385445	2.35313E+10	5.783874E-6	172894.500267	18.517423	0.448736	0	0
0	0	0	31.668952	6.385545	19.625196	6.385545	1.78279E+10	4.655423E-6	214803.23761	18.442557	0.446911	0	0
0	0	0	30.975506	6.385518	18.72775	6.385518	1.345863E+10	3.456894E-6	289277.0572	18.447293	0.444426	0	0
0	0	0	30.274546	6.385611	17.820348	6.385611	1.012927E+10	2.757919E-6	362592.268976	18.479642	0.441861	0	0
0	0	0	29.559416	6.385795	16.894419	6.385795	7.579843E+9	2.343125E-6	426780.561603	18.397142	0.440115	0	0
0	0	0	28.825092	6.385852	15.943892	6.385852	5.62811E+9	1.815971E-6	550669.557626	18.361481	0.437722	0	0
0	0	0	28.075618	6.385944	14.973681	6.385944	4.153337E+9	1.442107E-6	693429.651793	18.411505	0.435131	0	0
0	0	0	27.314261	6.385937	13.988289	6.385937	3.050277E+9	1.053324E-6	949375.329577	18.393832	0.433161	0	0
0	0	0	26.53465	6.386022	12.979078	6.386022	2.223654E+9	8.254201E-7	1211504.330541	18.328131	0.431111	0	0
0	0	0	25.75561	6.386219	11.970357	6.386219	1.621421E+9	7.290444E-7	1371658.561683	18.356614	0.428639	0	0
0	0	0	24.982737	6.386092	10.970314	6.386092	1.18525E+9	4.693301E-7	2130696.665013	18.358181	0.426391	0	0
0	0	0	24.205943	6.386247	9.964579	6.386247	8.650352E+8	4.011654E-7	2492737.439505	18.267972	0.424567	0	0
0	0	0	23.417797	6.386445	8.944043	6.386445	6.284326E+8	3.725829E-7	2683966.381141	18.273159	0.422213	0	0
0	0	0	22.650641	6.386487	7.951017	6.386487	4.604468E+8	2.903272E-7	3444389.864909	18.327242	0.419728	0	0
0	0	0	21.88716	6.386044	6.963879	6.386044	3.378683E+8	1.278833E-7	7819628.922388	18.261045	0.417982	0	0
0	0	0	21.136012	6.386494	5.990615	6.386494	2.491649E+8	1.588039E-7	6297075.470387	18.203376	0.415959	0	0
0	0	0	20.395195	6.386508	5.031742	6.386508	1.845208E+8	1.201757E-7	8321151.389507	18.244818	0.413553	0	0
0	0	0	19.660218	6.386783	4.079791	6.386783	1.369721E+8	1.553718E-7	6436172.342948	18.215058	0.411702	0	0
0	0	0	18.940433	6.386508	3.148841	6.386508	1.023043E+8	6.663228E-8	1.500774E+7	18.147333	0.409811	0	0
0	0	0	18.238329	6.386593	2.239896	6.386593	7.696069E+7	5.768461E-8	1.733565E+7	18.173861	0.407524	0	0
0	0	0	17.548477	6.386726	1.346677	6.386726	5.818368E+7	5.728851E-8	1.745551E+7	18.17021	0.405554	0	0
0	0	0	16.873815	6.386578	0.473835	6.386578	4.425967E+7	3.236147E-8	3.090094E+7	18.085369	0.403848	0	0
0	0	0	16.225657	6.38686	-0.365811	6.38686	3.403156E+7	4.881985E-8	2.048347E+7	18.109208	0.401587	0	0
0	0	0	15.593588	6.386593	-1.183206	6.386593	2.633835E+7	1.974206E-8	5.065327E+7	18.144686	0.399498	0	0
0	0	0	14.979447	6.386818	-1.97869	6.386818	2.053297E+7	2.574149E-8	3.884779E+7	18.060403	0.397991	0	0
0	0	0	14.375637	6.38693	-2.760513	6.38693	1.607438E+7	3.036179E-8	3.293613E+7	18.018538	0.395876	0	0
0	0	0	13.786243	6.386804	-3.523035	6.386804	1.26577E+7	1.522853E-8	6.566623E+7	18.073739	0.393522	0	0
0	0	0	13.22478	6.386902	-4.250013	6.386902	1.008077E+7	1.69004E-8	5.917018E+7	18.024502	0.391817	0	0
0	0	0	12.675365	6.386776	-4.960783	6.386776	8067775.125	8.981782E-9	1.113365E+8	17.98478	0.389913	0	0
0	0	0	12.146368	6.38693	-5.645902	6.38693	6510420.875	1.229724E-8	8.131906E+7	18.025949	0.387678	0	0
0	0	0	11.633419	6.386937	-6.309842	6.386937	5287984.625	1.031487E-8	9.694737E+7	17.988409	0.385999	0	0
0	0	0	11.137581	6.386944	-6.951635	6.386944	4324979.75	8.721629E-9	1.146575E+8	17.905444	0.384346	0	0
0	0	0	10.656077	6.386825	-7.574515	6.386825	3557966.25	4.556328E-9	2.19475E+8	17.946293	0.382086	0	0
0	0	0	10.187192	6.386698	-8.181036	6.386698	2941991.375	2.717418E-9	3.679964E+8	17.964235	0.380314	0	0
0	0	0	9.735906	6.387015	-8.766057	6.387015	2450078.875	7.464136E-9	1.33974E+8	17.869327	0.378727	0	0
0	0	0	9.301119	6.386944	-9.328607	6.386944	2054109.75	4.142269E-9	2.414136E+8	17.860463	0.376625	0	0
0	0	0	8.884913	6.387008	-9.867498	6.387008	1735157.375	5.029284E-9	1.988354E+8	17.891591	0.374615	0	0
0	0	0	8.479446	6.387106	-10.392594	6.387106	1472126.625	1.334537E-8	7.493238E+7	17.809733	0.373201	0	0
0	0	0	8.088763	6.386966	-10.897849	6.386966	1256476.625	2.819763E-9	3.546398E+8	17.79396	0.37131	0	0
0	0	0	7.708206	6.387057	-11.390685	6.387057	1076829.375	4.729987E-9	2.114171E+8	17.856209	0.369234	0	0
0	0	0	7.341984	6.387113	-11.864866	6.387113	928246.125	9.922953E-9	1.007764E+8	17.774114	0.367846	0	0
0	0	0	6.988257	6.387113	-12.322704	6.387113	804229	8.597215E-9	1.163167E+8	17.729208	0.365968	0	0
0	0	0	6.64866	6.386951	-12.761763	6.386951	700784	1.462633E-9	6.836985E+8	17.777225	0.364064	0	0
0	0	0	6.317231	6.387127	-13.191277	6.387127	612670.125	1.020835E-8	9.795898E+7	17.747334	0.362491	0	0
0	0	0	5.994907	6.387156	-13.608556	6.387156	537616.625	-7.635693E-8	-1.309639E+7	17.681958	0.360957	0	0
0	0	0	5.680302	6.387198	-14.015889	6.387198	473236	-4.397006E-9	-2.274275E+8	17.729713	0.358842	0	0
0	0	0	5.367208	6.387134	-14.420941	6.387134	416820.125	9.636987E-9	1.037669E+8	17.70925	0.357335	0	0
0	0	0	5.058524	6.387015	-14.820107	6.387015	367787	1.120462E-9	8.924889E+8	17.607648	0.355854	0	0
0	0	0	4.773771	6.387198	-15.189242	6.387198	327685.75	-3.044644E-9	-3.284456E+8	17.650613	0.353725	0	0
0	0	0	4.489099	6.387191	-15.557681	6.387191	291966.625	-3.213275E-9	-3.11209E+8	17.665906	0.352046	0	0
0	0	0	4.223212	6.387289	-15.902137	6.387289	262129.75	-8.051574E-10	-1.241993E+9	17.575438	0.350618	0	0
0	0	0	3.989137	6.387029	-16.204286	6.387029	238397	8.089012E-10	1.236245E+9	17.577722	0.348688	0	0
0	0	0	3.783116	6.387261	-16.47168	6.387261	219293.125	-8.483096E-10	-1.178815E+9	17.588696	0.346982	0	0
0	0	0	3.574604	6.387184	-16.741318	6.387184	201516.625	-2.719584E-9	-3.677033E+8	17.496796	0.345792	0	0
0	0	0	3.384551	6.387268	-16.98758	6.387268	186572	-6.777773E-10	-1.475411E+9	17.520476	0.343663	0	0
0	0	0	3.200092	6.387078	-17.225724	6.387078	173128	9.76102E-10	1.024483E+9	17.562427	0.341839	0	0
0	0	0	3.013836	6.387113	-17.466913	6.387113	160535.75	1.716133E-9	5.827053E+8	17.45622	0.340636	0	0
0	0	0	2.830235	6.387156	-17.704689	6.387156	149019.75	-2.116459E-8	-4.724873E+7	17.424432	0.338838	0	0
0	0	0	2.654597	6.387423	-17.932885	6.387423	138777.125	-2.154637E-10	-4.641152E+9	17.470496	0.336973	0	0
0	0	0	2.484186	6.387226	-18.152819	6.387226	129512.625	-7.414094E-10	-1.348782E+9	17.392202	0.33581	0	0
0	0	0	2.323208	6.387289	-18.361383	6.387289	121329.75	-3.726763E-10	-2.683294E+9	17.355918	0.333972	0	0
0	0	0	2.162843	6.387184	-18.568607	6.387184	113692.25	-1.534343E-9	-6.517449E+8	17.425413	0.332015	0	0
0	0	0	2.012605	6.387198	-18.763111	6.387198	106973.75	-9.939302E-10	-1.006107E+9	17.342475	0.330891	0	0
0	0	0	1.863511	6.387296	-18.95641	6.387296	100698.875	-2.941593E-10	-3.399519E+9	17.297188	0.329212	0	0
0	0	0	1.722502	6.387303	-19.138945	6.387303	95103.5	-2.648443E-10	-3.775803E+9	17.360947	0.327467	0	0
0	0	0	1.580431	6.387346	-19.322971	6.387346	89780.25	-1.953111E-10	-5.120036E+9	17.295661	0.326171	0	0
0	0	0	1.447427	6.387303	-19.494986	6.387303	85067.125	-2.36895E-10	-4.221279E+9	17.238765	0.32469	0	0
0	0	0	1.31532	6.387282	-19.665907	6.387282	80630.75	-2.611107E-10	-3.829793E+9	17.289632	0.322747	0	0
0	0	0	1.195056	6.387339	-19.821754	6.387339	76793.5	-1.733825E-10	-5.767594E+9	17.236135	0.321491	0	0
0	0	0	1.075364	6.387275	-19.976467	6.387275	73156	-2.505045E-10	-3.991945E+9	17.139484	0.320116	0	0
0	0	0	0.967923	6.387191	-20.115253	6.387191	70037.625	-7.708073E-10	-1.297341E+9	17.201256	0.318212	0	0
0	0	0	0.869915	6.38731	-20.242503	6.38731	67309.25	-1.790824E-10	-5.584023E+9	17.162727	0.317009	0	0
0	0	0	0.789672	6.387254	-20.34618	6.387254	65154.625	-2.695216E-10	-3.710277E+9	17.10261	0.315594	0	0
0	0	0	0.726048	6.387324	-20.428763	6.387324	63495.5	-1.550997E-10	-6.447466E+9	17.148695	0.31373	0	0
0	0	0	0.667774	6.387177	-20.503699	6.387177	62012.875	-1.081607E-9	-9.245504E+8	17.109505	0.312566	0	0
0	0	0	0.640087	6.387205	-20.539629	6.387205	61320.625	-4.929653E-10	-2.028541E+9	17.017419	0.311323	0	0
0	0	0	0.59774	6.387339	-20.594884	6.387339	60276.875	-1.360917E-10	-7.347988E+9	17.065246	0.309499	0	0
0	0	0	0.581732	6.387134	-20.614927	6.387134	59886.875	1.384604E-9	7.222282E+8	17.048972	0.308229	0	0
0	0	0	0.566581	6.387388	-20.635377	6.387388	59520.25	-1.062361E-10	-9.413E+9	16.979002	0.30696	0	0
0	0	0	0.539588	6.38731	-20.670058	6.38731	58872.375	-1.566353E-10	-6.384258E+9	17.026547	0.305096	0	0
0	0	0	0.51966	6.387388	-20.69611	6.387388	58398.625	-1.042341E-10	-9.593789E+9	17.00387	0.303853	0	0
0	0	0	0.512636	6.387247	-20.704733	6.387247	58232.5	-2.588371E-10	-3.863433E+9	16.911177	0.302584	0	0
0	0	0	0.508062	6.387212	-20.710536	6.387212	58124.625	-4.117766E-10	-2.428501E+9	16.950446	0.300839	0	0
0	0	0	0.503734	6.387296	-20.71642	6.387296	58022.75	-1.694947E-10	-5.899888E+9	16.936696	0.299675	0	0
0	0	0	0.497363	6.387564	-20.725554	6.387564	57873.125	-5.909205E-11	-1.692275E+10	16.838331	0.298393	0	0
0	0	0	0.487481	6.387275	-20.737386	6.387275	57641.625	-1.973793E-10	-5.066386E+9	16.851657	0.296621	0	0
0	0	0	0.475189	6.387198	-20.753039	6.387198	57355.125	-5.329063E-10	-1.876503E+9	16.829114	0.295457	0	0
0	0	0	0.466899	6.387367	-20.76433	6.387367	57162.625	-1.120899E-10	-8.921408E+9	16.748541	0.294175	0	0
0	0	0	0.458201	6.387367	-20.775588	6.387367	56961.375	-1.116953E-10	-8.952928E+9	16.805073	0.292496	0	0
0	0	0	0.451259	6.387296	-20.78434	6.387296	56801.375	-1.659269E-10	-6.026751E+9	16.797434	0.291319	0	0
0	0	0	0.446889	6.387451	-20.79051	6.387451	56700.75	-7.973184E-11	-1.254204E+10	16.694476	0.290103	0	0
0	0	0	0.442397	6.387226	-20.795576	6.387226	56597.625	-3.239993E-10	-3.086426E+9	16.739133	0.288371	0	0
0	0	0	0.440437	6.387205	-20.798043	6.387205	56552.625	-4.546346E-10	-2.199569E+9	16.69141	0.287326	0	0
0	0	0	0.439212	6.387296	-20.799933	6.387296	56524.625	-1.651184E-10	-6.056259E+9	16.600421	0.286176	0	0
0	0	0	0.437701	6.387331	-20.802005	6.387331	56490	-1.325591E-10	-7.543803E+9	16.672893	0.284431	0	0
0	0	0	0.436762	6.387303	-20.803127	6.387303	56468.5	-1.572535E-10	-6.359157E+9	16.632743	0.28332	0	0
0	0	0	0.435496	6.387184	-20.804368	6.387184	56439.5	-7.616835E-10	-1.312881E+9	16.547862	0.282183	0	0
0	0	0	0.434883	6.387346	-20.805699	6.387346	56425.5	-1.2275E-10	-8.146638E+9	16.605624	0.280464	0	0
0	0	0	0.434842	6.387289	-20.805565	6.387289	56424.5	-1.733134E-10	-5.769894E+9	16.539451	0.27942	0	0
0	0	0	0.43325	6.387212	-20.807369	6.387212	56388.125	-3.994746E-10	-2.503288E+9	16.446291	0.278335	0	0
0	0	0	0.433536	6.387353	-20.807467	6.387353	56394.625	-1.183661E-10	-8.448366E+9	16.526419	0.27655	0	0
0	0	0	0.431412	6.387416	-20.810426	6.387416	56346.125	-8.982018E-11	-1.113336E+10	16.466507	0.275784	0	0
0	0	0	0.42884	6.387177	-20.81296	6.387177	56287.375	-9.817446E-10	-1.018595E+9	16.408284	0.274409	0	0
0	0	0	0.426103	6.387268	-20.816806	6.387268	56225	-2.042537E-10	-4.895872E+9	16.454194	0.272835	0	0
0	0	0	0.424102	6.387451	-20.820004	6.387451	56179.375	-7.899869E-11	-1.265844E+10	16.357668	0.272015	0	0
0	0	0	0.419896	6.387296	-20.824934	6.387296	56083.625	-1.638302E-10	-6.10388E+9	16.310178	0.27068	0	0
0	0	0	0.417242	6.387219	-20.828112	6.387219	56023.375	-3.547578E-10	-2.818824E+9	16.376806	0.269133	0	0
0	0	0	0.41079	6.387247	-20.836557	6.387247	55877	-2.483672E-10	-4.026297E+9	16.307003	0.268247	0	0
0	0	0	0.405154	6.38736	-20.844225	6.38736	55749.375	-1.130345E-10	-8.846857E+9	16.298272	0.266806	0	0
0	0	0	0.401193	6.387423	-20.849563	6.387423	55660	-8.641706E-11	-1.157179E+10	16.348983	0.265312	0	0
0	0	0	0.396579	6.387289	-20.855091	6.387289	55556	-1.706457E-10	-5.860094E+9	16.212085	0.264704	0	0
0	0	0	0.391597	6.387317	-20.861633	6.387317	55443.875	-1.412148E-10	-7.081409E+9	16.219704	0.262892	0	0
0	0	0	0.390331	6.387177	-20.862804	6.387177	55415.375	-9.665355E-10	-1.034623E+9	16.242025	0.261782	0	0
0	0	0	0.385553	6.387353	-20.869573	6.387353	55308.125	-1.160856E-10	-8.61433E+9	16.136639	0.260922	0	0
0	0	0	0.382858	6.387289	-20.872851	6.387289	55247.75	-1.696989E-10	-5.89279E+9	16.166488	0.25927	0	0
0	0	0	0.38004	6.387317	-20.876592	6.387317	55184.625	-1.405545E-10	-7.114676E+9	16.173616	0.258133	0	0
0	0	0	0.377345	6.387353	-20.880197	6.387353	55124.375	-1.157E-10	-8.643045E+9	16.034233	0.25726	0	0
0	0	0	0.376201	6.38731	-20.881537	6.38731	55098.875	-1.465955E-10	-6.82149E+9	16.07796	0.255687	0	0
0	0	0	0.375058	6.38717	-20.882548	6.38717	55073.375	-1.3575E-9	-7.36648E+8	16.056677	0.254616	0	0
0	0	0	0.372403	6.387134	-20.885867	6.387134	55014.125	1.271944E-9	7.861979E+8	15.942705	0.253677	0	0
0	0	0	0.370321	6.387388	-20.889406	6.387388	54967.625	-9.81102E-11	-1.019262E+10	16.017696	0.251958	0	0
0	0	0	0.368442	6.38724	-20.891345	6.38724	54925.75	-2.637959E-10	-3.790809E+9	15.965408	0.251138	0	0
0	0	0	0.367462	6.387346	-20.892965	6.387346	54904	-1.194401E-10	-8.372397E+9	15.88635	0.249948	0	0
0	0	0	0.367095	6.38736	-20.893488	6.38736	54895.75	-1.113037E-10	-8.984425E+9	15.945549	0.248428	0	0
0	0	0	0.366237	6.38736	-20.894598	6.38736	54876.75	-1.112652E-10	-8.987536E+9	15.845488	0.247701	0	0
0	0	0	0.36636	6.387134	-20.89369	6.387134	54879.375	1.268829E-9	7.881283E+8	15.817407	0.246299	0	0
0	0	0	0.365379	6.38717	-20.895075	6.38717	54857.625	-1.352182E-9	-7.395452E+8	15.86279	0.244977	0	0
0	0	0	0.365053	6.387339	-20.89606	6.387339	54850.375	-1.238399E-10	-8.074945E+9	15.739348	0.244422	0	0
0	0	0	0.365829	6.387099	-20.89426	6.387099	54867.625	4.317781E-10	2.316005E+9	15.762238	0.242994	0	0
0	0	0	0.365298	6.387289	-20.895579	6.387289	54855.875	-1.684952E-10	-5.934887E+9	15.78438	0.24183	0	0
0	0	0	0.3664	6.38762	-20.895253	6.38762	54880.375	-4.928694E-11	-2.028935E+10	15.666184	0.241103	0	0
0	0	0	0.365339	6.387198	-20.895222	6.387198	54856.75	-5.09693E-10	-1.961965E+9	15.700608	0.239583	0	0
0	0	0	0.365543	6.387289	-20.895262	6.387289	54861.25	-1.685117E-10	-5.934305E+9	15.674608	0.23871	0	0
0	0	0	0.36542	6.387275	-20.895374	6.387275	54858.5	-1.878492E-10	-5.323418E+9	15.583804	0.237785	0	0
0	0	0	0.365706	6.387296	-20.895074	6.387296	54864.875	-1.6027E-10	-6.23947E+9	15.644488	0.236396	0	0
0	0	0	0.365502	6.387289	-20.895315	6.387289	54860.375	-1.68509E-10	-5.9344E+9	15.57639	0.235629	0	0
0	0	0	0.365094	6.387268	-20.895773	6.387268	54851.25	-1.992632E-10	-5.018489E+9	15.509194	0.234651	0	0
0	0	0	0.364808	6.387346	-20.896401	6.387346	54844.875	-1.193115E-10	-8.381423E+9	15.557162	0.233263	0	0
0	0	0	0.365298	6.387324	-20.895696	6.387324	54855.875	-1.339958E-10	-7.462921E+9	15.441067	0.232681	0	0
0	0	0	0.365134	6.387289	-20.895791	6.387289	54852.125	-1.684837E-10	-5.935293E+9	15.431908	0.231332	0	0
0	0	0	0.365094	6.387254	-20.895726	6.387254	54851.25	-2.269002E-10	-4.407224E+9	15.477247	0.230156	0	0
0	0	0	0.364604	6.387374	-20.896759	6.387374	54840.375	-1.041137E-10	-9.604884E+9	15.339741	0.22964	0	0
0	0	0	0.36493	6.387381	-20.896359	6.387381	54847.625	-1.009156E-10	-9.909267E+9	15.405698	0.228199	0	0
0	0	0	0.364889	6.387374	-20.896389	6.387374	54846.75	-1.041258E-10	-9.603768E+9	15.369883	0.227472	0	0
0	0	0	0.364971	6.38724	-20.895838	6.38724	54848.5	-2.634249E-10	-3.796149E+9	15.281944	0.226626	0	0
0	0	0	0.36542	6.387346	-20.895608	6.387346	54858.5	-1.193411E-10	-8.379341E+9	15.355653	0.22525	0	0
0	0	0	0.365461	6.387134	-20.894852	6.387134	54859.375	1.268367E-9	7.884156E+8	15.24744	0.224669	0	0
0	0	0	0.366033	6.38736	-20.894862	6.38736	54872.125	-1.112558E-10	-8.988294E+9	15.197715	0.223545	0	0
0	0	0	0.364726	6.387324	-20.896436	6.387324	54843.125	-1.339646E-10	-7.464656E+9	15.258155	0.222262	0	0
0	0	0	0.364644	6.38736	-20.896659	6.38736	54841.25	-1.111932E-10	-8.993354E+9	15.137829	0.221681	0	0
0	0	0	0.364685	6.387191	-20.896044	6.387191	54842.125	-6.035714E-10	-1.656805E+9	15.174068	0.220398	0	0
0	0	0	0.36395	6.387275	-20.897277	6.387275	54825.875	-1.877375E-10	-5.326586E+9	15.155859	0.219618	0	0
0	0	0	0.363705	6.387268	-20.89757	6.387268	54820.375	-1.99151E-10	-5.021316E+9	15.045281	0.218864	0	0
0	0	0	0.363338	6.387324	-20.898233	6.387324	54812.25	-1.338892E-10	-7.468861E+9	15.115776	0.217384	0	0
0	0	0	0.36297	6.387275	-20.898545	6.387275	54804	-1.876626E-10	-5.328712E+9	15.005404	0.216947	0	0
0	0	0	0.362603	6.387219	-20.898833	6.387219	54795.875	-3.469849E-10	-2.88197E+9	14.974218	0.215744	0	0
0	0	0	0.362398	6.387381	-20.899636	6.387381	54791.375	-1.008121E-10	-9.91944E+9	15.024942	0.214475	0	0
0	0	0	0.361745	6.387324	-20.900295	6.387324	54776.875	-1.338028E-10	-7.473685E+9	14.895816	0.214039	0	0
0	0	0	0.362194	6.387219	-20.899362	6.387219	54786.875	-3.469279E-10	-2.882443E+9	14.953556	0.212756	0	0
0	0	0	0.361092	6.387261	-20.90093	6.387261	54762.375	-2.118417E-10	-4.720505E+9	14.9318	0.212082	0	0
0	0	0	0.361296	6.387149	-20.900291	6.387149	54766.875	5.632531E-9	1.775401E+8	14.827031	0.211103	0	0
0	0	0	0.360847	6.38724	-20.901176	6.38724	54756.875	-2.629848E-10	-3.802501E+9	14.896777	0.20994	0	0
0	0	0	0.359785	6.387261	-20.902621	6.387261	54733.375	-2.117296E-10	-4.723006E+9	14.774491	0.209411	0	0
0	0	0	0.360683	6.387198	-20.901247	6.387198	54753.25	-5.087314E-10	-1.965674E+9	14.768245	0.208181	0	0
0	0	0	0.360112	6.387085	-20.901613	6.387085	54740.625	3.408457E-10	2.933878E+9	14.779193	0.207295	0	0
0	0	0	0.359662	6.387282	-20.90285	6.387282	54730.625	-1.77237E-10	-5.642162E+9	14.660332	0.206753	0	0
0	0	0	0.359662	6.387444	-20.903389	6.387444	54730.625	-7.881955E-11	-1.268721E+10	14.722119	0.205312	0	0
0	0	0	0.358519	6.387141	-20.903861	6.387141	54705.25	2.065311E-9	4.841885E+8	14.656844	0.204783	0	0
0	0	0	0.357661	6.387261	-20.90537	6.387261	54686.25	-2.115473E-10	-4.727076E+9	14.60722	0.203911	0	0
0	0	0	0.356477	6.38724	-20.906832	6.38724	54660	-2.625196E-10	-3.80924E+9	14.653053	0.202668	0	0
0	0	0	0.356355	6.387177	-20.90678	6.387177	54657.25	-9.533126E-10	-1.048974E+9	14.486582	0.202284	0	0
0	0	0	0.357253	6.387198	-20.905687	6.387198	54677.125	-5.080241E-10	-1.968411E+9	14.521977	0.201028	0	0
0	0	0	0.355946	6.387339	-20.907847	6.387339	54648.25	-1.233835E-10	-8.104811E+9	14.46288	0.200301	0	0
0	0	0	0.356436	6.387275	-20.907002	6.387275	54659.125	-1.871665E-10	-5.342836E+9	14.406434	0.199349	0	0
0	0	0	0.355701	6.387282	-20.907977	6.387282	54642.75	-1.769524E-10	-5.651236E+9	14.484685	0.198331	0	0
0	0	0	0.357294	6.387317	-20.906033	6.387317	54678.125	-1.392645E-10	-7.180582E+9	14.365949	0.197908	0	0
0	0	0	0.357008	6.387184	-20.905958	6.387184	54671.75	-7.378267E-10	-1.355332E+9	14.395844	0.196679	0	0
0	0	0	0.358233	6.387036	-20.90388	6.387036	54698.875	1.96792E-10	5.081507E+9	14.382787	0.195925	0	0
0	0	0	0.359091	6.387289	-20.903613	6.387289	54717.875	-1.680713E-10	-5.949855E+9	14.275408	0.195303	0	0
0	0	0	0.359172	6.387247	-20.903367	6.387247	54719.75	-2.432233E-10	-4.111448E+9	14.360793	0.193915	0	0
0	0	0	0.359295	6.387254	-20.903232	6.387254	54722.5	-2.263676E-10	-4.417593E+9	14.241413	0.193479	0	0
0	0	0	0.35954	6.387247	-20.902891	6.387247	54727.875	-2.432594E-10	-4.110837E+9	14.234402	0.192342	0	0
0	0	0	0.359907	6.387282	-20.902533	6.387282	54736.125	-1.772548E-10	-5.641595E+9	14.228475	0.191522	0	0
0	0	0	0.359499	6.38712	-20.902523	6.38712	54727	7.127706E-10	1.402976E+9	14.090527	0.19094	0	0
0	0	0	0.359172	6.387388	-20.903836	6.387388	54719.75	-9.766778E-11	-1.023879E+10	14.171349	0.189645	0	0
0	0	0	0.359091	6.38717	-20.903215	6.38717	54717.875	-1.348738E-9	-7.41434E+8	14.062394	0.189367	0	0
0	0	0	0.360438	6.387149	-20.901401	6.387149	54747.875	5.630577E-9	1.776017E+8	14.076458	0.188217	0	0
0	0	0	0.359907	6.387247	-20.902416	6.387247	54736.125	-2.432961E-10	-4.110218E+9	14.073879	0.18737	0	0
0	0	0	0.360152	6.387437	-20.902731	6.387437	54741.5	-8.078561E-11	-1.237844E+10	13.931966	0.186868	0	0
0	0	0	0.360479	6.387388	-20.902144	6.387388	54748.75	-9.771954E-11	-1.023337E+10	14.016406	0.185533	0	0
0	0	0	0.360234	6.387106	-20.901524	6.387106	54743.375	4.962715E-10	2.015026E+9	13.896028	0.185202	0	0
0	0	0	0.361173	6.387381	-20.901222	6.387381	54764.125	-1.00762E-10	-9.924376E+9	13.891535	0.184158	0	0
0	0	0	0.361541	6.387388	-20.90077	6.387388	54772.25	-9.776148E-11	-1.022898E+10	13.883679	0.183351	0	0
0	0	0	0.361418	6.387141	-20.900109	6.387141	54769.625	2.067742E-9	4.836194E+8	13.753216	0.182743	0	0
0	0	0	0.361132	6.387339	-20.901134	6.387339	54763.25	-1.236431E-10	-8.087792E+9	13.83094	0.181712	0	0
0	0	0	0.360642	6.387303	-20.901652	6.387303	54752.375	-1.524745E-10	-6.558475E+9	13.718194	0.181368	0	0
0	0	0	0.360765	6.387163	-20.901025	6.387163	54755.125	-2.300118E-9	-4.347603E+8	13.767943	0.180032	0	0
0	0	0	0.360438	6.387324	-20.901986	6.387324	54747.875	-1.33732E-10	-7.477643E+9	13.71901	0.179636	0	0
0	0	0	0.360112	6.387353	-20.902503	6.387353	54740.625	-1.148945E-10	-8.703635E+9	13.640456	0.178763	0	0
0	0	0	0.359295	6.387296	-20.903372	6.387296	54722.5	-1.598541E-10	-6.255704E+9	13.691965	0.177745	0	0
0	0	0	0.359091	6.387099	-20.902981	6.387099	54717.875	4.305996E-10	2.322343E+9	13.517412	0.177467	0	0
0	0	0	0.358519	6.387198	-20.904049	6.387198	54705.25	-5.082854E-10	-1.967399E+9	13.580264	0.176264	0	0
0	0	0	0.357743	6.387254	-20.90524	6.387254	54688	-2.262249E-10	-4.42038E+9	13.486088	0.175762	0	0
0	0	0	0.357743	6.387177	-20.904983	6.387177	54688	-9.538489E-10	-1.048384E+9	13.450812	0.17481	0	0
0	0	0	0.356845	6.387423	-20.906966	6.387423	54668.125	-8.487709E-11	-1.178174E+10	13.451243	0.174043	0	0
0	0	0	0.355619	6.387254	-20.907989	6.387254	54641	-2.260305E-10	-4.424182E+9	13.312317	0.17358	0	0
0	0	0	0.355089	6.387317	-20.908887	6.387317	54629.25	-1.3914E-10	-7.187006E+9	13.404682	0.172523	0	0
0	0	0	0.354231	6.387367	-20.910161	6.387367	54610.25	-1.07085E-10	-9.338377E+9	13.292496	0.172192	0	0
0	0	0	0.354844	6.387296	-20.909134	6.387296	54623.75	-1.595657E-10	-6.267013E+9	13.330715	0.171095	0	0
0	0	0	0.354231	6.387156	-20.909458	6.387156	54610.25	-7.756013E-9	-1.289322E+8	13.290553	0.170447	0	0
0	0	0	0.353986	6.387324	-20.910337	6.387324	54604.875	-1.333827E-10	-7.497226E+9	13.211755	0.169746	0	0
0	0	0	0.353904	6.387317	-20.91042	6.387317	54603	-1.390731E-10	-7.190461E+9	13.263648	0.168847	0	0
0	0	0	0.352883	6.387233	-20.91146	6.387233	54580.375	-2.850914E-10	-3.507648E+9	13.120796	0.168384	0	0
0	0	0	0.351658	6.387198	-20.912929	6.387198	54553.375	-5.068743E-10	-1.972876E+9	13.188933	0.167379	0	0
0	0	0	0.349494	6.38724	-20.915871	6.38724	54505.5	-2.617775E-10	-3.820038E+9	13.050127	0.167102	0	0
0	0	0	0.3488	6.387254	-20.916816	6.387254	54490.125	-2.254064E-10	-4.436432E+9	13.076239	0.165965	0	0
0	0	0	0.346676	6.387205	-20.9194	6.387205	54443.25	-4.376771E-10	-2.28479E+9	13.024651	0.165462	0	0
0	0	0	0.347575	6.387275	-20.918472	6.387275	54463	-1.864949E-10	-5.362076E+9	12.952915	0.164735	0	0
0	0	0	0.347371	6.387493	-20.919463	6.387493	54458.5	-6.70895E-11	-1.490546E+10	12.985343	0.164008	0	0
0	0	0	0.347575	6.387191	-20.918191	6.387191	54463	-5.993989E-10	-1.668338E+9	12.847499	0.163598	0	0
0	0	0	0.347003	6.387261	-20.919165	6.387261	54450.5	-2.106353E-10	-4.747542E+9	12.940667	0.162434	0	0
0	0	0	0.349494	6.387184	-20.915683	6.387184	54505.5	-7.35583E-10	-1.359466E+9	12.818136	0.162157	0	0
0	0	0	0.35027	6.387367	-20.915288	6.387367	54522.625	-1.069132E-10	-9.353385E+9	12.83282	0.161139	0	0
0	0	0	0.351985	6.387346	-20.912998	6.387346	54560.5	-1.186928E-10	-8.425108E+9	12.813823	0.160716	0	0
0	0	0	0.352189	6.387071	-20.91182	6.387071	54565	2.810731E-10	3.557794E+9	12.728447	0.160081	0	0
0	0	0	0.352638	6.387261	-20.911871	6.387261	54575	-2.111169E-10	-4.736712E+9	12.775163	0.159129	0	0
0	0	0	0.353088	6.387395	-20.911735	6.387395	54584.875	-9.459651E-11	-1.057121E+10	12.627306	0.158746	0	0
0	0	0	0.353782	6.387261	-20.910391	6.387261	54600.25	-2.112146E-10	-4.734522E+9	12.690967	0.157767	0	0
0	0	0	0.354435	6.387254	-20.909522	6.387254	54614.75	-2.259219E-10	-4.426308E+9	12.543725	0.157622	0	0
0	0	0	0.356028	6.387198	-20.907273	6.387198	54650	-5.07772E-10	-1.969388E+9	12.577032	0.156564	0	0
0	0	0	0.355211	6.387247	-20.908494	6.387247	54631.875	-2.428327E-10	-4.118061E+9	12.491277	0.156234	0	0
0	0	0	0.35615	6.38731	-20.907489	6.38731	54652.75	-1.454086E-10	-6.877173E+9	12.479507	0.155387	0	0
0	0	0	0.356885	6.387289	-20.906468	6.387289	54669	-1.679212E-10	-5.955174E+9	12.478322	0.154739	0	0
0	0	0	0.356477	6.387233	-20.906809	6.387233	54660	-2.855073E-10	-3.502538E+9	12.369392	0.154277	0	0
0	0	0	0.356314	6.387184	-20.906856	6.387184	54656.375	-7.376192E-10	-1.355713E+9	12.450289	0.153444	0	0
0	0	0	0.356395	6.387282	-20.907078	6.387282	54658.125	-1.770022E-10	-5.649646E+9	12.300454	0.153087	0	0
0	0	0	0.356559	6.387289	-20.90689	6.387289	54661.75	-1.678989E-10	-5.955964E+9	12.379434	0.152069	0	0
0	0	0	0.357988	6.38743	-20.905509	6.38743	54693.5	-8.276234E-11	-1.208279E+10	12.219959	0.151976	0	0
0	0	0	0.358192	6.387092	-20.90412	6.387092	54698	3.80275E-10	2.629676E+9	12.293221	0.150786	0	0
0	0	0	0.358805	6.387296	-20.904007	6.387296	54711.625	-1.598224E-10	-6.256947E+9	12.18452	0.150614	0	0
0	0	0	0.359091	6.387388	-20.903941	6.387388	54717.875	-9.766443E-11	-1.023914E+10	12.181365	0.149808	0	0
0	0	0	0.358315	6.387289	-20.904618	6.387289	54700.75	-1.680187E-10	-5.951717E+9	12.132915	0.149504	0	0
0	0	0	0.35758	6.38724	-20.905405	6.38724	54684.375	-2.626366E-10	-3.807542E+9	12.053763	0.148697	0	0
0	0	0	0.357008	6.38736	-20.906543	6.38736	54671.75	-1.108496E-10	-9.021236E+9	12.120635	0.14801	0	0
0	0	0	0.35713	6.38731	-20.906221	6.38731	54674.5	-1.454665E-10	-6.874437E+9	11.989769	0.147613	0	0
0	0	0	0.356314	6.38724	-20.907044	6.38724	54656.375	-2.625022E-10	-3.809493E+9	12.066374	0.146701	0	0
0	0	0	0.356885	6.38736	-20.906702	6.38736	54669	-1.10844E-10	-9.02169E+9	11.905704	0.146436	0	0
0	0	0	0.354925	6.387247	-20.908864	6.387247	54625.625	-2.42805E-10	-4.118532E+9	11.972337	0.145445	0	0
0	0	0	0.355374	6.387219	-20.908189	6.387219	54635.625	-3.459702E-10	-2.890423E+9	11.833058	0.14526	0	0
0	0	0	0.352475	6.387423	-20.912621	6.387423	54571.375	-8.472687E-11	-1.180263E+10	11.891184	0.144162	0	0
0	0	0	0.352312	6.38743	-20.912856	6.38743	54567.75	-8.257205E-11	-1.211064E+10	11.772253	0.144096	0	0
0	0	0	0.350882	6.387402	-20.914612	6.387402	54536.125	-9.18437E-11	-1.088806E+10	11.811952	0.143104	0	0
0	0	0	0.351168	6.387191	-20.913539	6.387191	54542.5	-6.002738E-10	-1.665906E+9	11.705459	0.1428	0	0
0	0	0	0.351536	6.387226	-20.913181	6.387226	54550.625	-3.122811E-10	-3.202243E+9	11.683664	0.142073	0	0
0	0	0	0.349494	6.387177	-20.91566	6.387177	54505.5	-9.506658E-10	-1.051894E+9	11.645093	0.14165	0	0
0	0	0	0.350801	6.387198	-20.914039	6.387198	54534.375	-5.066977E-10	-1.973563E+9	11.592532	0.140949	0	0
0	0	0	0.350678	6.387303	-20.914549	6.387303	54531.625	-1.518597E-10	-6.585024E+9	11.566705	0.140513	0	0
0	0	0	0.348146	6.387317	-20.917873	6.387317	54475.75	-1.38749E-10	-7.207257E+9	11.497137	0.139878	0	0
0	0	0	0.347044	6.387289	-20.919206	6.387289	54451.375	-1.672527E-10	-5.978975E+9	11.545657	0.139098	0	0
0	0	0	0.34537	6.387324	-20.92149	6.387324	54414.375	-1.329173E-10	-7.523473E+9	11.445239	0.138688	0	0
0	0	0	0.345084	6.387233	-20.921556	6.387233	54408.125	-2.841916E-10	-3.518752E+9	11.476335	0.137855	0	0
0	0	0	0.344267	6.387388	-20.923128	6.387388	54390.125	-9.707944E-11	-1.030084E+10	11.340463	0.137657	0	0
0	0	0	0.343164	6.387296	-20.924251	6.387296	54365.75	-1.58812E-10	-6.296754E+9	11.399414	0.136824	0	0
0	0	0	0.342797	6.387247	-20.924562	6.387247	54357.625	-2.416137E-10	-4.138838E+9	11.262558	0.13648	0	0
0	0	0	0.342838	6.387198	-20.924346	6.387198	54358.5	-5.050636E-10	-1.979949E+9	11.333888	0.135674	0	0
0	0	0	0.343614	6.387346	-20.923833	6.387346	54375.625	-1.182907E-10	-8.453753E+9	11.183519	0.135462	0	0
0	0	0	0.343532	6.387219	-20.923517	6.387219	54373.875	-3.443127E-10	-2.904337E+9	11.277974	0.134431	0	0
0	0	0	0.344675	6.387296	-20.922295	6.387296	54399.125	-1.589095E-10	-6.292891E+9	11.137911	0.134127	0	0
0	0	0	0.346105	6.387331	-20.920562	6.387331	54430.625	-1.277266E-10	-7.829222E+9	11.173763	0.133453	0	0
0	0	0	0.347044	6.387367	-20.919464	6.387367	54451.375	-1.067735E-10	-9.365624E+9	11.051787	0.133188	0	0
0	0	0	0.348514	6.387324	-20.91742	6.387324	54483.75	-1.330868E-10	-7.513893E+9	11.079728	0.132302	0	0
0	0	0	0.349739	6.387409	-20.916116	6.387409	54510.875	-8.928055E-11	-1.120065E+10	10.940592	0.132078	0	0
0	0	0	0.349984	6.387212	-20.915143	6.387212	54516.25	-3.862136E-10	-2.589241E+9	10.997962	0.131179	0	0
0	0	0	0.351372	6.387324	-20.91372	6.387324	54547	-1.332413E-10	-7.505181E+9	10.900373	0.130954	0	0
0	0	0	0.350433	6.387198	-20.914514	6.387198	54526.25	-5.066222E-10	-1.973857E+9	10.945477	0.130028	0	0
0	0	0	0.352108	6.387127	-20.912113	6.387127	54563.25	9.091402E-10	1.09994E+9	10.787083	0.129949	0	0
0	0	0	0.3537	6.387261	-20.910497	6.387261	54598.5	-2.112078E-10	-4.734673E+9	10.842181	0.12901	0	0
0	0	0	0.354231	6.38724	-20.909739	6.38724	54610.25	-2.622806E-10	-3.81271E+9	10.766249	0.128825	0	0
0	0	0	0.354558	6.387282	-20.909457	6.387282	54617.5	-1.768707E-10	-5.653849E+9	10.793367	0.127939	0	0
0	0	0	0.35517	6.387289	-20.908688	6.387289	54631	-1.678045E-10	-5.959316E+9	10.687958	0.127781	0	0
0	0	0	0.354354	6.38736	-20.909979	6.38736	54612.875	-1.107302E-10	-9.030961E+9	10.672821	0.126987	0	0
0	0	0	0.354354	6.38736	-20.909979	6.38736	54612.875	-1.107302E-10	-9.030961E+9	10.597209	0.126657	0	0
0	0	0	0.355538	6.387191	-20.907884	6.387191	54639.125	-6.013372E-10	-1.66296E+9	10.631252	0.125771	0	0
0	0	0	0.356926	6.387127	-20.905876	6.387127	54669.875	9.109168E-10	1.097795E+9	10.535423	0.125625	0	0
0	0	0	0.357457	6.387261	-20.905634	6.387261	54681.75	-2.115299E-10	-4.727465E+9	10.529855	0.124845	0	0
0	0	0	0.358111	6.387254	-20.904765	6.387254	54696.125	-2.262585E-10	-4.419723E+9	10.437052	0.124687	0	0
0	0	0	0.357008	6.387092	-20.905653	6.387092	54671.75	3.800925E-10	2.630938E+9	10.459844	0.123814	0	0
0	0	0	0.35664	6.387134	-20.906269	6.387134	54663.625	1.263841E-9	7.912389E+8	0	0	0	0
0	0	0	0.35664	6.387226	-20.906574	6.387226	54663.625	-3.129279E-10	-3.195624E+9	0	0	0	0
0	0	0	0.356885	6.38731	-20.906538	6.38731	54669	-1.454518E-10	-6.875129E+9	0	0	0	0
0	0	0	0.35566	6.387261	-20.90796	6.387261	54641.875	-2.113756E-10	-4.730915E+9	0	0	0	0
0	0	0	0.355619	6.387233	-20.907919	6.387233	54641	-2.85408E-10	-3.503756E+9	0	0	0	0
0	0	0	0.354027	6.387367	-20.910425	6.387367	54605.75	-1.070762E-10	-9.339147E+9	0	0	0	0
0	0	0	0.354394	6.387367	-20.909949	6.387367	54613.875	-1.070921E-10	-9.337757E+9	0	0	0	0
0	0	0	0.352189	6.38717	-20.912148	6.38717	54565	-1.344969E-9	-7.435113E+8	0	0	0	0
0	0	0	0.351127	6.387367	-20.914178	6.387367	54541.625	-1.069504E-10	-9.350127E+9	0	0	0	0
0	0	0	0.350719	6.38705	-20.913652	6.38705	54532.5	2.231061E-10	4.482172E+9	0	0	0	0
0	0	0	0.350066	6.387353	-20.915505	6.387353	54518.125	-1.144275E-10	-8.739157E+9	0	0	0	0
0	0	0	0.349698	6.387303	-20.915817	6.387303	54510	-1.517995E-10	-6.587637E+9	0	0	0	0
0	0	0	0.348677	6.387367	-20.917349	6.387367	54487.375	-1.06844E-10	-9.359436E+9	0	0	0	0
0	0	0	0.348065	6.387205	-20.917603	6.387205	54473.875	-4.379233E-10	-2.283505E+9	0	0	0	0
0	0	0	0.34978	6.387247	-20.915524	6.387247	54511.75	-2.422988E-10	-4.127136E+9	0	0	0	0
0	0	0	0.345696	6.387198	-20.920646	6.387198	54421.625	-5.056501E-10	-1.977652E+9	0	0	0	0
0	0	0	0.346186	6.387346	-20.920503	6.387346	54432.375	-1.184141E-10	-8.444939E+9	0	0	0	0
0	0	0	0.346513	6.387479	-20.920526	6.387479	54439.625	-6.995578E-11	-1.429474E+10	0	0	0	0
0	0	0	0.346145	6.387191	-20.920041	6.387191	54431.5	-5.990522E-10	-1.669304E+9	0	0	0	0
0	0	0	0.342348	0	0.342348	0	54347.75	0	0	0	0	0	0
0	0	0	0.340306	0	0.340306	0	54302.75	0	0	0	0	0	0
