Vload_(V)	ILoad_(A)	RsLoad (ohm)	SunsVoc_Voltage_(V)	SunsVoc_Current_(A)	Model_Voltage_(V)	Model_Current_(A)	Carrier_Density_(cm-3)	Lifetime_(s)	Inverse_Lifetime_(s-1)	Efficiency_(%)	Intensity_(suns)	Dark_IV_Voltage_(V)	Dark_IV_Current_(A)
2.974566	6.030495	0	51.912753	-0.789581	52.37355	-0.789581	9.918477E+15	0.000647	1382.434666	18.965012	1.201017	0	0
2.966864	6.032081	-0.511509	52.434154	-1.004365	53.004919	-1.004365	1.152977E+16	0.000729	1150.924344	18.912875	1.200937	0	0
3.031144	6.031941	-0.522568	52.539962	-0.833955	53.011293	-0.833955	1.188552E+16	0.00077	1063.811998	18.84238	1.200799	0	0
3.618792	6.030453	0.731866	52.511254	-0.495721	52.791842	-0.495721	1.178799E+16	0.000804	1013.886053	18.843363	1.200185	0	0
5.596744	6.027713	3.850666	52.425783	-0.118799	52.493323	-0.118799	1.150206E+16	0.000832	982.212374	18.8913	1.198125	0	0
8.098341	6.020599	4.419928	52.313931	0.272151	52.158311	0.272151	1.113776E+16	0.00086	956.306413	18.876296	1.195985	0	0
10.659596	5.999273	4.701173	52.196812	0.637955	51.829825	0.637955	1.076797E+16	0.000888	933.298419	18.807283	1.193192	0	0
12.707205	5.981542	4.609779	52.072424	0.975447	51.50773	0.975447	1.038791E+16	0.000914	914.801189	18.746156	1.191251	0	0
14.729691	5.980215	4.286792	51.951057	1.288484	51.200551	1.288484	1.002924E+16	0.000941	895.913133	18.761337	1.188993	0	0
16.839372	5.98156	3.918759	51.833325	1.572897	50.911718	1.572897	9.69244E+15	0.000967	877.909308	18.769014	1.187428	0	0
19.040985	5.979077	3.577661	51.709631	1.850198	50.618823	1.850198	9.350001E+15	0.000995	859.92822	18.727335	1.186001	0	0
21.272074	5.977988	3.216158	51.579894	2.104457	50.331165	2.104457	9.002994E+15	0.00102	845.75187	18.680446	1.18507	0	0
23.399183	5.977263	2.867034	51.459916	2.329168	50.069642	2.329168	8.692809E+15	0.001045	831.73272	18.713696	1.182792	0	0
25.584576	5.980025	2.473741	51.337365	2.54634	49.808298	2.54634	8.386257E+15	0.001071	817.198472	18.777392	1.180257	0	0
27.704302	5.976275	2.156821	51.223431	2.746403	49.565036	2.746403	8.110288E+15	0.001099	801.082232	18.792327	1.176909	0	0
29.887212	5.974111	1.812188	51.100227	2.94377	49.312002	2.94377	7.821349E+15	0.001127	785.624864	18.73036	1.174433	0	0
32.057167	5.969027	1.494087	50.97298	3.128524	49.060833	3.128524	7.532939E+15	0.001155	771.808561	18.69951	1.171561	0	0
32.77004	5.970854	1.359014	50.859128	3.28983	48.83739	3.28983	7.283235E+15	0.001182	757.853292	18.730441	1.16849	0	0
33.481807	5.966966	1.272481	50.736822	3.447351	48.605898	3.447351	7.023494E+15	0.00121	744.888108	18.771048	1.164845	0	0
34.176967	5.966224	1.162154	50.624767	3.585302	48.396771	3.585302	6.793015E+15	0.001236	732.574289	18.732829	1.161834	0	0
34.887934	5.964323	1.058198	50.509485	3.720946	48.184599	3.720946	6.563149E+15	0.001264	719.550989	18.672395	1.159497	0	0
35.598185	5.958034	0.986622	50.391549	3.84511	47.975765	3.84511	6.335368E+15	0.00129	708.812753	18.676574	1.1571	0	0
36.304785	5.95432	0.892962	50.281698	3.955856	47.783573	3.955856	6.129712E+15	0.001314	698.470135	18.736437	1.154109	0	0
37.008865	5.944021	0.84015	50.161843	4.06505	47.580452	4.06505	5.912269E+15	0.001338	689.28102	18.75512	1.15092	0	0
37.718299	5.925884	0.820688	50.055137	4.164649	47.397448	4.164649	5.7246E+15	0.001365	678.294126	18.720436	1.147572	0	0
38.420453	5.90093	0.814541	49.935527	4.2648	47.198944	4.2648	5.52066E+15	0.001391	668.386715	18.689783	1.144383	0	0
39.111256	5.874594	0.792858	49.818407	4.355114	47.008893	4.355114	5.32735E+15	0.001415	659.847448	18.735776	1.1405	0	0
39.82116	5.838488	0.778531	49.708516	4.438168	46.831099	4.438168	5.15154E+15	0.001439	650.790234	18.776314	1.13636	0	0
40.526812	5.793315	0.766242	49.594092	4.518914	46.649138	4.518914	4.974037E+15	0.001464	642.077486	18.751333	1.132636	0	0
41.225072	5.734268	0.760153	49.484772	4.593771	46.476286	4.593771	4.809596E+15	0.001489	633.117029	18.692308	1.129407	0	0
41.923522	5.66277	0.749664	49.371696	4.663388	46.30213	4.663388	4.644636E+15	0.001511	625.861492	18.685613	1.126198	0	0
42.628406	5.574488	0.73637	49.259844	4.730471	46.130583	4.730471	4.486449E+15	0.001535	617.976549	18.742642	1.122078	0	0
43.326323	5.472515	0.716106	49.149177	4.791288	45.964112	4.791288	4.334674E+15	0.001556	611.4671	18.773311	1.118017	0	0
44.007813	5.340779	0.705153	49.037612	4.852271	45.796108	4.852271	4.186298E+15	0.001581	603.596723	18.732805	1.114332	0	0
44.679181	5.192102	0.685765	48.925066	4.908388	45.62985	4.908388	4.041192E+15	0.001602	597.08011	18.688341	1.110985	0	0
45.359064	5.014183	0.664147	48.817993	4.961201	45.471719	4.961201	3.907284E+15	0.001625	589.854078	18.713288	1.106726	0	0
46.016974	4.792937	0.650979	48.70169	5.012775	45.303508	5.012775	3.766277E+15	0.001646	583.899847	18.770348	1.102031	0	0
46.669421	4.52938	0.639542	48.598251	5.058006	45.154041	5.058006	3.644642E+15	0.001667	577.770739	18.758032	1.097673	0	0
47.310853	4.231742	0.626598	48.484807	5.104981	44.991601	5.104981	3.515214E+15	0.00169	571.353884	18.697728	1.093949	0	0
47.945596	3.890554	0.611979	48.377162	5.146996	44.838934	5.146996	3.396135E+15	0.00171	565.661722	18.681243	1.090304	0	0
48.564023	3.4988	0.603152	48.268822	5.186015	44.687271	5.186015	3.279855E+15	0.001728	560.940729	18.733003	1.086243	0	0
49.161991	3.076369	0.595402	48.159053	5.223772	44.534585	5.223772	3.165587E+15	0.001746	556.24314	18.775233	1.081945	0	0
49.726197	2.62558	0.591469	48.051081	5.259695	44.38501	5.259695	3.056575E+15	0.001764	551.381006	18.745766	1.07826	0	0
50.282531	2.153552	0.592826	47.944416	5.292539	44.238872	5.292539	2.952087E+15	0.00178	547.478095	18.700419	1.074912	0	0
50.793538	1.664838	0.615223	47.832279	5.325695	44.085981	5.325695	2.845577E+15	0.001796	543.343723	18.721524	1.07097	0	0
51.269397	1.191604	0.621569	47.72496	5.355275	43.940976	5.355275	2.746759E+15	0.00181	540.083496	18.778663	1.066791	0	0
51.700613	0.75001	0.602539	47.618949	5.384776	43.797353	5.384776	2.652052E+15	0.001827	535.660053	18.797618	1.062472	0	0
42.346213	5.611801	0.742213	47.504565	5.413643	43.644297	5.413643	2.553019E+15	0.001841	532.329582	18.746065	1.058669	0	0
52.327303	0	0	47.400432	5.439625	43.505001	5.439625	2.465625E+15	0.001856	528.621085	18.714756	1.054965	0	0
0	0	0	47.28854	5.464515	43.357326	5.464515	2.374576E+15	0.001866	526.444989	18.753609	1.050686	0	0
0	0	0	47.18555	5.488067	43.220793	5.488067	2.293314E+15	0.001881	522.974715	18.801941	1.046249	0	0
0	0	0	47.07574	5.510268	43.077174	5.510268	2.209284E+15	0.001889	521.236408	18.786691	1.042366	0	0
0	0	0	46.970586	5.531872	42.939259	5.531872	2.131276E+15	0.001901	518.386272	18.733643	1.038662	0	0
0	0	0	46.860777	5.552373	42.796602	5.552373	2.052311E+15	0.001909	516.714206	18.724741	1.035017	0	0
0	0	0	46.759665	5.570878	42.665402	5.570878	1.981798E+15	0.001918	514.829063	18.771829	1.031174	0	0
0	0	0	46.646058	5.59119	42.518211	5.59119	1.905015E+15	0.001929	512.36938	18.823483	1.026737	0	0
0	0	0	46.545436	5.607498	42.388979	5.607498	1.839111E+15	0.001934	511.421827	18.793964	1.023052	0	0
0	0	0	46.436239	5.625397	42.248474	5.625397	1.769765E+15	0.001943	509.361122	18.745734	1.019487	0	0
0	0	0	46.328063	5.641323	42.110519	5.641323	1.703239E+15	0.001947	508.822886	18.753431	1.015901	0	0
0	0	0	46.227074	5.656037	41.981754	5.656037	1.643034E+15	0.001952	507.847459	18.81805	1.011623	0	0
0	0	0	46.117061	5.670705	41.842409	5.670705	1.57948E+15	0.001953	507.926067	18.844336	1.007463	0	0
0	0	0	46.014887	5.684535	41.712753	5.684535	1.522304E+15	0.001957	507.030919	18.803483	1.003976	0	0
0	0	0	45.906548	5.69762	41.576381	5.69762	1.463571E+15	0.001956	507.724526	18.764905	1.00045	0	0
0	0	0	45.801884	5.710391	41.444457	5.710391	1.408632E+15	0.001958	507.546704	18.79206	0.996667	0	0
0	0	0	45.692768	5.722967	41.307406	5.722967	1.353192E+15	0.001957	507.838785	18.847886	0.992626	0	0
0	0	0	45.589574	5.73403	41.178356	5.73403	1.302439E+15	0.001954	508.874817	18.841862	0.988902	0	0
0	0	0	45.4805	5.746071	41.041611	5.746071	1.250521E+15	0.001956	508.695217	18.79017	0.985415	0	0
0	0	0	45.373345	5.756245	40.908481	5.756245	1.201199E+15	0.001948	510.848786	18.768169	0.981889	0	0
0	0	0	45.269089	5.766798	40.778383	5.766798	1.15477E+15	0.001948	511.123713	18.812917	0.978066	0	0
0	0	0	45.158054	5.776368	40.641058	5.776368	1.106967E+15	0.001938	514.035744	18.860535	0.973886	0	0
0	0	0	45.056943	5.785835	40.515363	5.785835	1.064874E+15	0.001936	514.602709	18.834031	0.970479	0	0
0	0	0	44.942723	5.795648	40.373998	5.795648	1.018927E+15	0.00193	516.40075	18.783792	0.967072	0	0
0	0	0	44.839406	5.804075	40.246427	5.804075	9.787938E+14	0.001923	518.424687	18.778819	0.963705	0	0
0	0	0	44.729433	5.812636	40.110906	5.812636	9.375236E+14	0.001914	520.920587	18.836035	0.959624	0	0
0	0	0	44.623503	5.820787	39.980389	5.820787	8.991459E+14	0.001907	522.953569	18.869191	0.955761	0	0
0	0	0	44.513857	5.829124	39.845322	5.829124	8.608047E+14	0.001902	524.647534	18.834259	0.952255	0	0
0	0	0	44.409683	5.835522	39.71817	5.835522	8.256455E+14	0.001884	529.721312	18.782693	0.949165	0	0
0	0	0	44.297709	5.843812	39.580314	5.843812	7.891943E+14	0.001881	530.724506	18.797695	0.94552	0	0
0	0	0	44.193943	5.850154	39.4536	5.850154	7.566218E+14	0.001866	534.85695	18.85626	0.941499	0	0
0	0	0	44.08642	5.856989	39.322043	5.856989	7.24061E+14	0.001856	537.810753	18.85949	0.937854	0	0
0	0	0	43.975059	5.863194	39.186458	5.863194	6.915806E+14	0.001839	543.018309	18.821033	0.934407	0	0
0	0	0	43.875622	5.868745	39.065348	5.868745	6.636178E+14	0.001825	547.192341	18.776649	0.931178	0	0
0	0	0	43.762096	5.875162	38.926973	5.875162	6.328589E+14	0.001812	551.093045	18.802459	0.927613	0	0
0	0	0	43.656779	5.880708	38.798902	5.880708	6.054044E+14	0.001798	555.577159	18.854216	0.923888	0	0
0	0	0	43.547173	5.886209	38.665805	5.886209	5.779049E+14	0.001782	560.700134	18.860718	0.920184	0	0
0	0	0	43.439732	5.891845	38.535098	5.891845	5.519802E+14	0.001771	564.157504	18.810269	0.917015	0	0
0	0	0	43.328738	5.896446	38.401053	5.896446	5.262396E+14	0.001746	572.168177	18.774943	0.913925	0	0
0	0	0	43.225095	5.901091	38.275565	5.901091	5.031315E+14	0.00173	577.753242	18.808388	0.910478	0	0
0	0	0	43.110385	5.906352	38.136544	5.906352	4.785693E+14	0.001715	582.756009	18.855393	0.906813	0	0
0	0	0	43.007681	5.910404	38.0126	5.910404	4.574546E+14	0.001695	589.792808	18.853873	0.903446	0	0
0	0	0	42.893379	5.9149	37.874643	5.9149	4.348995E+14	0.001674	597.193419	18.807836	0.900316	0	0
0	0	0	42.78651	5.919378	37.745395	5.919378	4.146829E+14	0.00166	602.075896	18.785205	0.897325	0	0
0	0	0	42.674577	5.922961	37.610939	5.922961	3.943832E+14	0.001631	612.682432	18.826625	0.893759	0	0
0	0	0	42.567626	5.926219	37.482588	5.926219	3.757967E+14	0.001603	623.534894	18.874533	0.889936	0	0
0	0	0	42.454917	5.929313	37.347598	5.929313	3.570382E+14	0.00157	636.851908	18.853692	0.886727	0	0
0	0	0	42.347925	5.933411	37.218431	5.933411	3.399923E+14	0.001558	641.711916	18.80273	0.883676	0	0
0	0	0	42.225456	5.937761	37.070844	5.937761	3.213589E+14	0.001542	648.52561	18.780368	0.880665	0	0
0	0	0	42.113972	5.940999	36.937098	5.940999	3.051837E+14	0.001517	659.074556	18.828247	0.87706	0	0
0	0	0	41.997915	5.944051	36.79812	5.944051	2.891124E+14	0.001488	672.006589	18.860535	0.873494	0	0
0	0	0	41.890474	5.947155	36.669198	5.947155	2.749074E+14	0.001467	681.367532	18.834363	0.870127	0	0
0	0	0	41.779439	5.950484	36.535835	5.950484	2.608828E+14	0.00145	689.324491	18.781687	0.867373	0	0
0	0	0	41.664647	5.954028	36.397848	5.954028	2.470587E+14	0.001437	695.673894	18.775092	0.864303	0	0
0	0	0	41.551285	5.956417	36.262541	5.956417	2.340547E+14	0.001406	711.393351	18.821229	0.860737	0	0
0	0	0	41.44221	5.958769	36.13229	5.958769	2.221273E+14	0.001378	725.804402	18.850184	0.857033	0	0
0	0	0	41.328603	5.961422	35.996427	5.961422	2.102905E+14	0.001354	738.307322	18.816647	0.853963	0	0
0	0	0	41.224021	5.963593	35.871586	5.963593	1.999026E+14	0.001329	752.278371	18.764601	0.85117	0	0
0	0	0	41.10878	5.966606	35.733446	5.966606	1.889983E+14	0.001316	759.852975	18.767942	0.84804	0	0
0	0	0	41.000644	5.968823	35.604358	5.968823	1.792631E+14	0.001293	773.328578	18.814163	0.844633	0	0
0	0	0	40.890345	5.970775	35.472951	5.970775	1.698083E+14	0.001265	790.551826	18.841472	0.841225	0	0
0	0	0	40.777881	5.972933	35.338801	5.972933	1.60642E+14	0.001241	805.464211	18.803876	0.838234	0	0
0	0	0	40.66946	5.974748	35.209701	5.974748	1.522395E+14	0.001215	823.124013	18.757915	0.83552	0	0
0	0	0	40.558466	5.976677	35.077462	5.976677	1.440606E+14	0.001191	839.758195	18.774773	0.83241	0	0
0	0	0	40.441142	5.979037	34.937373	5.979037	1.358603E+14	0.001174	851.417437	18.812533	0.829241	0	0
0	0	0	40.331619	5.980875	34.806918	5.980875	1.285996E+14	0.001153	867.347506	18.830688	0.825834	0	0
0	0	0	40.221115	5.982683	34.675328	5.982683	1.216428E+14	0.001132	883.557091	18.785886	0.823061	0	0
0	0	0	40.10812	5.984592	34.540703	5.984592	1.148951E+14	0.001113	898.092269	18.738156	0.820386	0	0
0	0	0	39.999617	5.985932	34.411879	5.985932	1.087482E+14	0.001086	921.165151	18.74957	0.817455	0	0
0	0	0	39.883723	5.987585	34.274062	5.987585	1.025258E+14	0.001063	940.834442	18.792812	0.814147	0	0
0	0	0	39.77473	5.989035	34.144539	5.989035	9.698235E+13	0.001041	960.999288	18.8165	0.810918	0	0
0	0	0	39.657897	5.99032	34.005942	5.99032	9.135622E+13	0.001012	988.55915	18.771198	0.808026	0	0
0	0	0	39.547148	5.991678	33.874424	5.991678	8.63106E+13	0.000989	1010.997907	18.717324	0.80551	0	0
0	0	0	39.431703	5.993149	33.737267	5.993149	8.133424E+13	0.000969	1032.204866	18.729941	0.802499	0	0
0	0	0	39.31883	5.994439	33.603297	5.994439	7.673454E+13	0.000947	1056.27882	18.765654	0.799428	0	0
0	0	0	39.204651	5.995609	33.467897	5.995609	7.233553E+13	0.000922	1084.164344	18.786364	0.796061	0	0
0	0	0	39.092351	5.996919	33.334563	5.996919	6.824555E+13	0.000904	1105.975297	18.737266	0.793248	0	0
0	0	0	38.97466	5.998049	33.195055	5.998049	6.41982E+13	0.00088	1136.118555	18.677183	0.790732	0	0
0	0	0	38.862359	5.999489	33.06158	5.999489	6.05525E+13	0.000869	1151.096064	18.70031	0.787583	0	0
0	0	0	38.745934	6.000572	32.923589	6.000572	5.69842E+13	0.000847	1180.44483	18.748861	0.784294	0	0
0	0	0	38.625384	6.00167	32.780725	6.00167	5.350409E+13	0.000826	1211.081238	18.760311	0.781105	0	0
0	0	0	38.510633	6.002538	32.6449	6.002538	5.038324E+13	0.000802	1247.382396	18.710233	0.778272	0	0
0	0	0	38.389104	6.003641	32.500864	6.003641	4.727082E+13	0.000783	1277.06075	18.653697	0.775875	0	0
0	0	0	38.271944	6.004797	32.361908	6.004797	4.444772E+13	0.000769	1299.719201	18.662361	0.773082	0	0
0	0	0	38.151312	6.005504	32.219305	6.005504	4.171271E+13	0.000742	1346.843239	18.715795	0.769675	0	0
0	0	0	38.026679	6.006079	32.072118	6.006079	3.905951E+13	0.000712	1405.210781	18.728245	0.766605	0	0
0	0	0	37.90519	6.00709	31.928193	6.00709	3.663222E+13	0.000696	1436.2578	18.674786	0.764089	0	0
0	0	0	37.78219	6.007735	31.782849	6.007735	3.432522E+13	0.000671	1490.564553	18.630881	0.761455	0	0
0	0	0	37.65768	6.008782	31.63532	6.008782	3.213496E+13	0.000658	1518.93545	18.625573	0.75884	0	0
0	0	0	37.529861	6.009408	31.484316	6.009408	3.002918E+13	0.000633	1578.606959	18.672542	0.75567	0	0
0	0	0	37.408617	6.010286	31.340786	6.010286	2.815721E+13	0.00062	1613.421266	18.689083	0.752719	0	0
0	0	0	37.280227	6.011166	31.188842	6.011166	2.629993E+13	0.000605	1652.18723	18.647605	0.750163	0	0
0	0	0	37.151592	6.011703	31.03695	6.011703	2.456012E+13	0.000581	1720.072176	18.601897	0.74743	0	0
0	0	0	37.02165	6.012394	30.88336	6.012394	2.291783E+13	0.000563	1775.509986	18.595492	0.745072	0	0
0	0	0	36.892606	6.013209	30.730695	6.013209	2.139416E+13	0.000551	1816.35675	18.646651	0.741923	0	0
0	0	0	36.762868	6.01388	30.577354	6.01388	1.996315E+13	0.000534	1870.943994	18.664355	0.73905	0	0
0	0	0	36.627903	6.014463	30.41795	6.014463	1.857481E+13	0.000515	1940.275042	18.625382	0.736456	0	0
0	0	0	36.494817	6.015132	30.260662	6.015132	1.729936E+13	0.000501	1996.430564	18.567032	0.734118	0	0
0	0	0	36.355891	6.015827	30.096469	6.015827	1.606035E+13	0.000487	2053.056865	18.557421	0.731622	0	0
0	0	0	36.221457	6.016372	29.937714	6.016372	1.494516E+13	0.000471	2124.310518	18.595979	0.728611	0	0
0	0	0	36.079876	6.01693	29.770532	6.01693	1.385359E+13	0.000454	2201.238669	18.622792	0.725679	0	0
0	0	0	35.941073	6.017302	29.606809	6.017302	1.286023E+13	0.000434	2306.251711	18.588346	0.723084	0	0
0	0	0	35.794796	6.017874	29.434076	6.017874	1.188981E+13	0.000419	2386.264356	18.531375	0.720866	0	0
0	0	0	35.65146	6.0182	29.265061	6.0182	1.100947E+13	0.000398	2510.588237	18.525387	0.718469	0	0
0	0	0	35.499915	6.018777	29.086115	6.018777	1.014906E+13	0.000385	2595.435494	18.560768	0.715636	0	0
0	0	0	35.355149	6.018899	28.915629	6.018899	9.389638E+12	0.00036	2776.241479	18.599659	0.712625	0	0
0	0	0	35.201767	6.019275	28.734729	6.019275	8.646583E+12	0.000343	2916.961624	18.563588	0.71011	0	0
0	0	0	35.050794	6.019933	28.556358	6.019933	7.972359E+12	0.000336	2978.269071	18.506174	0.707752	0	0
0	0	0	34.893778	6.020262	28.371223	6.020262	7.326601E+12	0.000319	3139.646786	18.494152	0.705355	0	0
0	0	0	34.739497	6.020612	28.189284	6.020612	6.742849E+12	0.000303	3295.092004	18.527931	0.702701	0	0
0	0	0	34.578152	6.021	27.998985	6.021	6.181865E+12	0.00029	3452.664818	18.558653	0.699928	0	0
0	0	0	34.420563	6.02128	27.813223	6.02128	5.678867E+12	0.000274	3647.851576	18.538065	0.697313	0	0
0	0	0	34.255093	6.021558	27.618185	6.021558	5.194555E+12	0.000259	3867.751511	18.4836	0.694916	0	0
0	0	0	34.090277	6.02177	27.423986	6.02177	4.753096E+12	0.000242	4126.613228	18.44994	0.692777	0	0
0	0	0	33.920683	6.022021	27.224118	6.022021	4.337863E+12	0.000228	4391.310108	18.481553	0.690023	0	0
0	0	0	33.746229	6.022399	27.018388	6.022399	3.948454E+12	0.000217	4609.482963	18.511885	0.68727	0	0
0	0	0	33.573163	6.022842	26.814215	6.022842	3.596615E+12	0.000209	4783.564623	18.497691	0.684615	0	0
0	0	0	33.393686	6.02299	26.602824	6.02299	3.264751E+12	0.000194	5167.75028	18.449951	0.682199	0	0
0	0	0	33.211188	6.023426	26.387549	6.023426	2.958623E+12	0.000186	5371.125721	18.398952	0.680198	0	0
0	0	0	33.028485	6.023707	26.172205	6.023707	2.680856E+12	0.000176	5691.867044	18.4126	0.677781	0	0
0	0	0	32.83496	6.023785	25.944354	6.023785	2.414979E+12	0.00016	6245.863197	18.450563	0.675008	0	0
0	0	0	32.633717	6.024081	25.707168	6.024081	2.166389E+12	0.00015	6655.491945	18.447446	0.672373	0	0
0	0	0	32.441785	6.024377	25.480937	6.024377	1.95315E+12	0.000142	7041.712087	18.395548	0.670095	0	0
0	0	0	32.239359	6.024661	25.242365	6.024661	1.750926E+12	0.000133	7490.809334	18.333941	0.668134	0	0
0	0	0	32.036156	6.025087	25.002709	6.025087	1.568962E+12	0.000129	7748.206805	18.34894	0.665519	0	0
0	0	0	31.83185	6.025378	24.761911	6.025378	1.405054E+12	0.000122	8187.674736	18.393598	0.662885	0	0
0	0	0	31.622113	6.025236	24.515226	6.025236	1.254569E+12	0.000106	9423.36607	18.398823	0.66029	0	0
0	0	0	31.411193	6.025684	24.26645	6.025684	1.119474E+12	0.000104	9660.981752	18.353352	0.658091	0	0
0	0	0	31.19582	6.025786	24.012841	6.025786	9.965183E+11	9.413948E-5	10622.535443	18.300824	0.655773	0	0
0	0	0	30.968769	6.025848	23.745534	6.025848	8.814795E+11	8.438267E-5	11850.775123	18.27978	0.653733	0	0
0	0	0	30.744127	6.026299	23.480592	6.026299	7.8073E+11	8.277025E-5	12081.635862	18.317046	0.651178	0	0
0	0	0	30.516381	6.026783	23.211952	6.026783	6.90332E+11	8.271492E-5	12089.717398	18.342639	0.648385	0	0
0	0	0	30.282633	6.026654	22.936986	6.026654	6.084199E+11	7.046665E-5	14191.109487	18.298807	0.646027	0	0
0	0	0	30.043453	6.026897	22.655174	6.026897	5.346524E+11	6.609983E-5	15128.631139	18.236973	0.643928	0	0
0	0	0	29.799495	6.027132	22.367744	6.027132	4.686146E+11	6.198374E-5	16133.262119	18.215213	0.64159	0	0
0	0	0	29.554189	6.027426	22.078652	6.027426	4.104322E+11	5.94818E-5	16811.865106	18.245164	0.639134	0	0
0	0	0	29.298716	6.027294	21.778118	6.027294	3.57502E+11	4.968484E-5	20126.864475	18.283269	0.636321	0	0
0	0	0	29.041854	6.02762	21.475378	6.02762	3.111628E+11	4.814241E-5	20771.705557	18.262672	0.634102	0	0
0	0	0	28.776824	6.027826	21.163171	6.027826	2.696361E+11	4.493273E-5	22255.489836	18.210421	0.631844	0	0
0	0	0	28.506323	6.027878	20.844715	6.027878	2.329606E+11	3.959917E-5	25253.055386	18.158462	0.630022	0	0
0	0	0	28.231942	6.02803	20.521566	6.02803	2.008514E+11	3.623747E-5	27595.744806	18.174628	0.627645	0	0
0	0	0	27.951313	6.028101	20.191162	6.028101	1.725835E+11	3.206375E-5	31187.86481	18.212031	0.625089	0	0
0	0	0	27.665906	6.028258	19.855023	6.028258	1.479112E+11	2.940734E-5	34005.116408	18.208412	0.622672	0	0
0	0	0	27.375149	6.028295	19.512741	6.028295	1.263996E+11	2.555234E-5	39135.356442	18.156042	0.620692	0	0
0	0	0	27.080554	6.02851	19.165706	6.02851	1.077925E+11	2.415924E-5	41392.037567	18.098396	0.61875	0	0
0	0	0	26.779956	6.028786	18.811522	6.028786	9.162661E+10	2.384044E-5	41945.535658	18.094218	0.61675	0	0
0	0	0	26.472334	6.028649	18.449614	6.028649	7.758986E+10	1.869407E-5	53492.909515	18.12931	0.614293	0	0
0	0	0	26.156871	6.028684	18.078249	6.028684	6.542549E+10	1.607326E-5	62215.117348	18.138714	0.611936	0	0
0	0	0	25.839816	6.029018	17.704606	6.029018	5.512068E+10	1.660319E-5	60229.377461	18.104996	0.609658	0	0
0	0	0	25.515492	6.028914	17.322996	6.028914	4.625677E+10	1.301333E-5	76844.260416	18.041444	0.607816	0	0
0	0	0	25.18884	6.028836	16.938612	6.028836	3.87694E+10	1.039334E-5	96215.443009	18.013475	0.606033	0	0
0	0	0	24.857737	6.029096	16.548524	6.029096	3.241587E+10	1.030571E-5	97033.629249	18.044718	0.603557	0	0
0	0	0	24.519896	6.029157	16.150777	6.029157	2.700499E+10	8.975646E-6	111412.593797	18.081825	0.601041	0	0
0	0	0	24.174541	6.029383	15.743952	6.029383	2.240609E+10	8.965135E-6	111543.212945	18.05674	0.598882	0	0
0	0	0	23.82159	6.029471	15.328379	6.029471	1.851419E+10	8.038096E-6	124407.569424	17.999205	0.596901	0	0
0	0	0	23.46623	6.029704	14.90976	6.029704	1.527839E+10	8.586156E-6	116466.556489	17.96128	0.595178	0	0
0	0	0	23.08841	6.029605	14.465174	6.029605	1.245596E+10	6.22287E-6	160697.568635	17.972873	0.5929	0	0
0	0	0	22.717042	6.029592	14.028061	6.029592	1.019041E+10	5.019246E-6	199233.107305	18.010085	0.590503	0	0
0	0	0	22.347757	6.029533	13.593467	6.029533	8.346318E+9	3.8577E-6	259221.814515	18.013465	0.588324	0	0
0	0	0	21.972428	6.029891	13.151148	6.029891	6.813639E+9	5.020779E-6	199172.281551	17.96176	0.586363	0	0
0	0	0	21.591545	6.02966	12.703155	6.02966	5.545739E+9	2.952144E-6	338736.822078	17.906842	0.58458	0	0
0	0	0	21.206946	6.029892	12.250103	6.029892	4.504713E+9	3.322548E-6	300973.813099	17.89243	0.582698	0	0
0	0	0	20.819815	6.029799	11.794553	6.029799	3.6541E+9	2.336105E-6	428063.035818	17.929473	0.58038	0	0
0	0	0	20.429009	6.029892	11.334398	6.029892	2.958223E+9	2.18331E-6	458020.100269	17.950769	0.578142	0	0
0	0	0	20.03171	6.02972	10.867001	6.02972	2.386475E+9	1.369582E-6	730149.963446	17.914617	0.576141	0	0
0	0	0	19.63437	6.029899	10.399022	6.029899	1.925189E+9	1.437345E-6	695727.122254	17.85548	0.574457	0	0
0	0	0	19.229597	6.029853	9.922639	6.029853	1.546838E+9	1.071506E-6	933265.693301	17.816395	0.572615	0	0
0	0	0	18.820496	6.029966	9.440913	6.029966	1.239938E+9	1.042136E-6	959568.085673	17.831744	0.570515	0	0
0	0	0	18.409599	6.030112	8.957018	6.030112	9.929637E+8	1.152677E-6	867545.843469	17.867824	0.568416	0	0
0	0	0	17.995475	6.029893	8.469899	6.029893	7.937968E+8	5.864155E-7	1705275.472225	17.860458	0.566217	0	0
0	0	0	17.581269	6.030165	7.981907	6.030165	6.345504E+8	8.553379E-7	1169128.597791	17.806307	0.564335	0	0
0	0	0	17.160775	6.030125	7.487006	6.030125	5.055295E+8	6.081169E-7	1644420.541877	17.750837	0.562612	0	0
0	0	0	16.735789	6.030125	6.986754	6.030125	4.017651E+8	4.833338E-7	2068963.627287	17.744846	0.560769	0	0
0	0	0	16.312191	6.030019	6.488309	6.030019	3.19539E+8	2.98666E-7	3348221.337346	17.769078	0.558729	0	0
0	0	0	15.885938	6.030099	5.986438	6.030099	2.537771E+8	2.848804E-7	3510244.497144	17.794606	0.556431	0	0
0	0	0	15.459482	6.030145	5.484379	6.030145	2.015269E+8	2.562798E-7	3901985.871528	17.752277	0.554609	0	0
0	0	0	15.030861	6.030444	4.979351	6.030444	1.598474E+8	1.390215E-6	719313.365042	17.689056	0.552905	0	0
0	0	0	14.598442	6.030424	4.47038	6.030424	1.265279E+8	7.922094E-7	1262292.462682	17.644324	0.551221	0	0
0	0	0	14.164186	6.030265	3.959482	6.030265	1.000543E+8	1.932482E-7	5174692.688421	17.656581	0.549042	0	0
0	0	0	13.720905	6.030298	3.437637	6.030298	7.873474E+7	1.776739E-7	5628287.657369	17.686489	0.546844	0	0
0	0	0	13.279012	6.030291	2.917494	6.030291	6.200447E+7	1.353663E-7	7387363.45071	17.671873	0.544981	0	0
0	0	0	12.844266	6.030132	2.406028	6.030132	4.90182E+7	6.006444E-8	1.664879E+7	17.623133	0.543199	0	0
0	0	0	12.407151	6.030265	1.891268	6.030265	3.87022E+7	7.475658E-8	1.337675E+7	17.570522	0.541396	0	0
0	0	0	11.968076	6.030378	1.374232	6.030378	3.052487E+7	1.155879E-7	8651426.625158	17.552058	0.539772	0	0
0	0	0	11.531941	6.030437	0.860749	6.030437	2.411361E+7	1.857611E-7	5383258.134924	17.58153	0.537613	0	0
0	0	0	11.097032	6.030437	0.348812	6.030437	1.906155E+7	1.468459E-7	6809859.555857	17.598545	0.535533	0	0
0	0	0	10.663184	6.030265	-0.161565	6.030265	1.50766E+7	2.912261E-8	3.433758E+7	17.568301	0.533492	0	0
0	0	0	10.230357	6.030384	-0.671263	6.030384	1.193132E+7	4.788759E-8	2.088224E+7	17.497692	0.532026	0	0
0	0	0	9.792915	6.030404	-1.186216	6.030404	9418680.375	4.608092E-8	2.170096E+7	17.460104	0.530303	0	0
0	0	0	9.360129	6.030411	-1.695664	6.030411	7453918	3.934001E-8	2.541941E+7	17.462287	0.528302	0	0
0	0	0	8.933019	6.030318	-2.198248	6.030318	5917139.125	1.48546E-8	6.731922E+7	17.489547	0.526163	0	0
0	0	0	8.505052	6.030311	-2.701999	6.030311	4695022	1.136107E-8	8.801987E+7	17.494409	0.524182	0	0
0	0	0	8.081985	6.030411	-3.20018	6.030411	3735200.625	1.971376E-8	5.072599E+7	17.436457	0.522518	0	0
0	0	0	7.659162	6.030159	-3.697413	6.030159	2971992.875	3.929192E-9	2.545052E+8	17.375517	0.520914	0	0
0	0	0	7.239975	6.030557	-4.191594	6.030557	2369380.875	-1.707735E-8	-5.855708E+7	17.349866	0.519269	0	0
0	0	0	6.831323	6.030676	-4.672851	6.030676	1899745.75	-4.664428E-9	-2.143886E+8	17.37529	0.517368	0	0
0	0	0	6.450032	6.030218	-5.120797	6.030218	1545893.25	2.484891E-9	4.024321E+8	17.407814	0.515189	0	0
0	0	0	6.092508	6.030491	-5.542165	6.030491	1274216.875	1.220065E-7	8196282.940789	17.37639	0.513426	0	0
0	0	0	5.745029	6.030451	-5.951109	6.030451	1056004.125	1.05646E-8	9.465574E+7	17.316148	0.511742	0	0
0	0	0	5.407515	6.030477	-6.348452	6.030477	879887.5	2.184355E-8	4.57801E+7	17.254833	0.510177	0	0
0	0	0	5.076003	6.030272	-6.738275	6.030272	735526	1.46296E-9	6.835459E+8	17.235775	0.508533	0	0
0	0	0	4.746044	6.03067	-7.127456	6.03067	615365.625	-1.568347E-9	-6.376138E+8	17.265982	0.506532	0	0
0	0	0	4.428662	6.03059	-7.500894	6.03059	518347.875	-2.429687E-9	-4.115757E+8	17.277009	0.504591	0	0
0	0	0	4.126308	6.030524	-7.856668	6.030524	440187.25	-6.861748E-9	-1.457355E+8	17.231431	0.502868	0	0
0	0	0	3.826199	6.030656	-8.210194	6.030656	374266.375	-1.032379E-9	-9.686364E+8	17.17033	0.501303	0	0
0	0	0	3.542589	6.030424	-8.54357	6.030424	321068.375	2.011305E-9	4.971897E+8	17.129905	0.499916	0	0
0	0	0	3.266371	6.03053	-8.868924	6.03053	276534.625	-3.497347E-9	-2.85931E+8	17.146271	0.497975	0	0
0	0	0	2.998523	6.030577	-9.184304	6.030577	239258.25	-1.303847E-9	-7.669614E+8	17.177415	0.496014	0	0
0	0	0	2.733984	6.030577	-9.495697	6.030577	207377.125	-1.130109E-9	-8.848703E+8	17.172847	0.494112	0	0
0	0	0	2.485493	6.030597	-9.788239	6.030597	181310.375	-7.943206E-10	-1.258937E+9	17.118467	0.492587	0	0
0	0	0	2.244068	6.030437	-10.0721	6.030437	159126.625	1.225993E-9	8.156654E+8	17.050115	0.49116	0	0
0	0	0	2.017057	6.03051	-10.339466	6.03051	140749.75	-4.101897E-9	-2.437896E+8	17.021469	0.489615	0	0
0	0	0	1.806544	6.030471	-10.587181	6.030471	125610.375	2.275559E-9	4.394525E+8	17.040377	0.487852	0	0
0	0	0	1.60914	6.030497	-10.819602	6.030497	112896.5	-2.522471E-8	-3.964367E+7	17.070974	0.485891	0	0
0	0	0	1.437096	6.030484	-11.022091	6.030484	102870.25	4.056066E-9	2.465443E+8	17.053634	0.484029	0	0
0	0	0	1.28012	6.030491	-11.206882	6.030491	94501	9.049033E-9	1.10509E+8	16.999739	0.482504	0	0
0	0	0	1.136579	6.030331	-11.375515	6.030331	87445.5	2.37304E-10	4.214005E+9	16.942546	0.481058	0	0
0	0	0	1.012273	6.03067	-11.522541	6.03067	81762.375	-2.08383E-10	-4.798856E+9	16.914419	0.479691	0	0
0	0	0	0.901034	6.030437	-11.652998	6.030437	76990.625	5.931753E-10	1.685842E+9	16.93085	0.477888	0	0
0	0	0	0.801107	6.030564	-11.770886	6.030564	72942	-4.746844E-10	-2.106663E+9	16.95535	0.475868	0	0
0	0	0	0.713267	6.030391	-11.873923	6.030391	69559.375	2.969754E-10	3.367282E+9	16.928518	0.474085	0	0
0	0	0	0.638087	6.030378	-11.962391	6.030378	66789.125	2.52928E-10	3.953694E+9	16.860602	0.472659	0	0
0	0	0	0.567766	6.030603	-12.045638	6.030603	64297.875	-2.644073E-10	-3.782043E+9	16.814373	0.471292	0	0
0	0	0	0.504878	6.030656	-12.119776	6.030656	62148.75	-1.714315E-10	-5.833234E+9	16.801766	0.469786	0	0
0	0	0	0.453506	6.030676	-12.180289	6.030676	60446.625	-1.484137E-10	-6.737924E+9	16.826926	0.467845	0	0
0	0	0	0.413527	6.030583	-12.227154	6.030583	59154.25	-2.981253E-10	-3.354294E+9	16.832029	0.466102	0	0
0	0	0	0.364809	6.030637	-12.284612	6.030637	57616.625	-1.813146E-10	-5.515276E+9	16.792401	0.464458	0	0
0	0	0	0.341287	6.030537	-12.312091	6.030537	56888.625	-6.052703E-10	-1.652154E+9	16.730446	0.463032	0	0
0	0	0	0.302329	6.030583	-12.358047	6.030583	55703.125	-2.807323E-10	-3.562112E+9	16.682951	0.461685	0	0
0	0	0	0.275417	6.030683	-12.389934	6.030683	54898.625	-1.300288E-10	-7.690604E+9	16.692118	0.459961	0	0
0	0	0	0.257939	6.030637	-12.41041	6.030637	54382.375	-1.711367E-10	-5.843283E+9	16.706688	0.458218	0	0
0	0	0	0.222901	6.030564	-12.4515	6.030564	53362	-3.472637E-10	-2.879656E+9	16.708233	0.456554	0	0
0	0	0	0.203177	6.030424	-12.474424	6.030424	52796.125	3.30737E-10	3.023551E+9	16.66502	0.45485	0	0
0	0	0	0.193091	6.030232	-12.485893	6.030232	52509	8.865592E-11	1.127956E+10	16.604722	0.453543	0	0
0	0	0	0.173203	6.03051	-12.509888	6.03051	51947.5	-1.513914E-9	-6.605393E+8	16.551026	0.452236	0	0
0	0	0	0.145067	6.030623	-12.543246	6.030623	51163.375	-1.776914E-10	-5.627735E+9	16.54759	0.450671	0	0
0	0	0	0.130161	6.030537	-12.560609	6.030537	50752.75	-5.399873E-10	-1.851895E+9	16.581481	0.448729	0	0
0	0	0	0.125874	6.030524	-12.565629	6.030524	50635.25	-7.893125E-10	-1.266925E+9	16.566217	0.447244	0	0
0	0	0	0.118033	6.030471	-12.574746	6.030471	50421.125	9.1343E-10	1.094775E+9	16.528631	0.44558	0	0
0	0	0	0.100963	6.03071	-12.595342	6.03071	49958	-1.036733E-10	-9.645683E+9	16.466943	0.444114	0	0
0	0	0	0.079606	6.030743	-12.620552	6.030743	49384.5	-8.87455E-11	-1.126818E+10	16.4096	0.443123	0	0
0	0	0	0.065109	6.030809	-12.637757	6.030809	48999	-6.943694E-11	-1.440156E+10	16.413559	0.4414	0	0
0	0	0	0.056819	6.030378	-12.646606	6.030378	48779.875	1.847277E-10	5.413375E+9	16.448513	0.439538	0	0
0	0	0	0.053634	6.030418	-12.650439	6.030418	48696	2.789793E-10	3.584496E+9	16.440457	0.437874	0	0
0	0	0	0.049958	6.030378	-12.654682	6.030378	48599.375	1.840441E-10	5.43348E+9	16.38656	0.436606	0	0
0	0	0	0.042649	6.03065	-12.663859	6.03065	48407.75	-1.392591E-10	-7.180861E+9	16.318139	0.435259	0	0
0	0	0	0.029908	6.030517	-12.678577	6.030517	48075.375	-9.765022E-10	-1.024063E+9	16.269607	0.434051	0	0
0	0	0	0.016187	6.030471	-12.694631	6.030471	47720.125	8.644987E-10	1.15674E+9	16.260786	0.432526	0	0
0	0	0	0.003405	6.03053	-12.709802	6.03053	47391.625	-5.993634E-10	-1.668437E+9	16.279615	0.430782	0	0
0	0	0	-0.006151	6.03069	-12.721386	6.03069	47147.375	-1.078585E-10	-9.271406E+9	16.264338	0.429317	0	0
0	0	0	-0.013012	6.03063	-12.729336	6.03063	46972.875	-1.551014E-10	-6.447397E+9	16.22531	0.427732	0	0
0	0	0	-0.015584	6.030491	-12.732071	6.030491	46907.625	4.491691E-9	2.226333E+8	16.147853	0.426563	0	0
0	0	0	-0.017789	6.030749	-12.735212	6.030749	46851.75	-8.199579E-11	-1.219575E+10	16.106401	0.425335	0	0
0	0	0	-0.018933	6.030477	-12.735984	6.030477	46822.75	1.162405E-9	8.60285E+8	16.099429	0.423889	0	0
0	0	0	-0.020444	6.030358	-12.737511	6.030358	46784.5	1.514942E-10	6.600911E+9	16.114677	0.422225	0	0
0	0	0	-0.022077	6.030597	-12.739938	6.030597	46743.25	-2.047821E-10	-4.88324E+9	16.116709	0.420502	0	0
0	0	0	-0.022935	6.030504	-12.740751	6.030504	46721.5	-2.409006E-9	-4.151089E+8	16.069313	0.419254	0	0
0	0	0	-0.024282	6.030351	-12.742015	6.030351	46687.5	1.442133E-10	6.934172E+9	16.016498	0.417827	0	0
0	0	0	-0.025467	6.030557	-12.743843	6.030557	46657.625	-3.362824E-10	-2.973691E+9	15.961551	0.416896	0	0
0	0	0	-0.028039	6.030564	-12.746886	6.030564	46592.875	-3.032123E-10	-3.298019E+9	15.960508	0.41545	0	0
0	0	0	-0.029959	6.030683	-12.749397	6.030683	46544.5	-1.102418E-10	-9.070967E+9	15.987559	0.413965	0	0
0	0	0	-0.032531	6.030537	-12.752117	6.030537	46479.875	-4.945257E-10	-2.022139E+9	15.984921	0.41236	0	0
0	0	0	-0.034042	6.030736	-12.754316	6.030736	46441.875	-8.575661E-11	-1.166091E+10	15.959821	0.410874	0	0
0	0	0	-0.037269	6.030431	-12.757469	6.030431	46360.875	3.203645E-10	3.121444E+9	15.906248	0.409646	0	0
0	0	0	-0.039596	6.030683	-12.760741	6.030683	46302.625	-1.096689E-10	-9.118351E+9	15.864672	0.408438	0	0
0	0	0	-0.042577	6.030351	-12.76355	6.030351	46228.125	1.427944E-10	7.003078E+9	15.839805	0.407131	0	0
0	0	0	-0.045272	6.03063	-12.767311	6.03063	46160.75	-1.524198E-10	-6.560828E+9	15.84051	0.405823	0	0
0	0	0	-0.047968	6.030504	-12.770217	6.030504	46093.625	-2.376632E-9	-4.207634E+8	15.863725	0.40412	0	0
0	0	0	-0.048989	6.03067	-12.771769	6.03067	46068.125	-1.174111E-10	-8.51708E+9	15.841671	0.402673	0	0
0	0	0	-0.052664	6.030457	-12.775647	6.030457	45976.75	5.406646E-10	1.849576E+9	15.779007	0.401445	0	0
0	0	0	-0.053889	6.030378	-12.776921	6.030378	45946.25	1.739968E-10	5.747232E+9	15.712357	0.400494	0	0
0	0	0	-0.055441	6.030643	-12.779308	6.030643	45907.75	-1.379894E-10	-7.246935E+9	15.676844	0.399128	0	0
0	0	0	-0.05736	6.030603	-12.781483	6.030603	45860.125	-1.885872E-10	-5.302588E+9	15.679993	0.39786	0	0
0	0	0	-0.061525	6.030676	-12.786541	6.030676	45757	-1.123465E-10	-8.901037E+9	15.694868	0.396335	0	0
0	0	0	-0.064547	6.030736	-12.790224	6.030736	45682.25	-8.435394E-11	-1.185481E+10	15.682513	0.394908	0	0
0	0	0	-0.068672	6.030404	-12.794379	6.030404	45580.5	2.230093E-10	4.484118E+9	15.613461	0.393641	0	0
0	0	0	-0.071857	6.030736	-12.798828	6.030736	45502.125	-8.402133E-11	-1.190174E+10	15.559028	0.392452	0	0
0	0	0	-0.075451	6.030544	-12.802652	6.030544	45413.875	-4.169944E-10	-2.398114E+9	15.520693	0.391363	0	0
0	0	0	-0.079044	6.030404	-12.806588	6.030404	45325.75	2.217629E-10	4.50932E+9	15.519612	0.390075	0	0
0	0	0	-0.080964	6.030583	-12.809226	6.030583	45278.625	-2.28195E-10	-4.382217E+9	15.528837	0.388569	0	0
0	0	0	-0.083087	6.030398	-12.811333	6.030398	45226.75	2.062256E-10	4.849059E+9	15.526166	0.387104	0	0
0	0	0	-0.084598	6.030444	-12.81321	6.030444	45189.875	3.933824E-10	2.542056E+9	15.496218	0.385776	0	0
0	0	0	-0.08713	6.03057	-12.816456	6.03057	45128	-2.6769E-10	-3.735664E+9	15.435891	0.384746	0	0
0	0	0	-0.088804	6.030544	-12.818371	6.030544	45087.25	-4.139953E-10	-2.415487E+9	15.371742	0.383617	0	0
0	0	0	-0.089294	6.030537	-12.818934	6.030537	45075.25	-4.795811E-10	-2.085153E+9	15.358886	0.382369	0	0
0	0	0	-0.090234	6.030583	-12.820137	6.030583	45052.375	-2.270547E-10	-4.404225E+9	15.363205	0.380923	0	0
0	0	0	-0.091173	6.030444	-12.820949	6.030444	45029.5	3.919863E-10	2.55111E+9	15.383001	0.379517	0	0
0	0	0	-0.092235	6.030597	-12.822521	6.030597	45003.625	-1.971608E-10	-5.072002E+9	15.359108	0.37817	0	0
0	0	0	-0.092929	6.030331	-12.822777	6.030331	44986.75	1.220821E-10	8.191206E+9	15.310278	0.377001	0	0
0	0	0	-0.092888	6.030663	-12.82343	6.030663	44987.75	-1.191896E-10	-8.389996E+9	15.236285	0.375991	0	0
0	0	0	-0.093215	6.030484	-12.823436	6.030484	44979.875	1.773511E-9	5.638534E+8	15.209061	0.374703	0	0
0	0	0	-0.094603	6.030398	-12.824888	6.030398	44946.125	2.04946E-10	4.879334E+9	15.195123	0.373574	0	0
0	0	0	-0.095379	6.03059	-12.826208	6.03059	44927.25	-2.105903E-10	-4.748558E+9	15.201016	0.372148	0	0
0	0	0	-0.095828	6.030537	-12.826625	6.030537	44916.25	-4.778894E-10	-2.092534E+9	15.192784	0.370761	0	0
0	0	0	-0.096522	6.030457	-12.827274	6.030457	44899.5	5.279966E-10	1.893952E+9	15.134466	0.369731	0	0
0	0	0	-0.097257	6.030504	-12.828237	6.030504	44881.625	-2.31414E-9	-4.321259E+8	15.073278	0.368642	0	0
0	0	0	-0.097094	6.03057	-12.828185	6.03057	44885.625	-2.662523E-10	-3.755836E+9	15.026721	0.367453	0	0
0	0	0	-0.097788	6.030358	-12.828554	6.030358	44868.75	1.452908E-10	6.882748E+9	14.997934	0.366423	0	0
0	0	0	-0.098973	6.030617	-12.830494	6.030617	44840	-1.6424E-10	-6.08865E+9	15.01094	0.364937	0	0
0	0	0	-0.099463	6.030378	-12.830567	6.030378	44828.125	1.697625E-10	5.890582E+9	15.013149	0.36359	0	0
0	0	0	-0.09983	6.030371	-12.830985	6.030371	44819.25	1.606525E-10	6.224615E+9	14.990328	0.362223	0	0
0	0	0	-0.098891	6.03059	-12.830342	6.03059	44842	-2.101907E-10	-4.757585E+9	14.924392	0.361233	0	0
0	0	0	-0.099299	6.030345	-12.830304	6.030345	44832.125	1.323817E-10	7.553914E+9	14.850261	0.360183	0	0
0	0	0	-0.099136	6.030391	-12.83021	6.030391	44836.125	1.914225E-10	5.224047E+9	14.816868	0.359193	0	0
0	0	0	-0.098809	6.030437	-12.829924	6.030437	44844	3.455012E-10	2.894346E+9	14.801815	0.358143	0	0
0	0	0	-0.098442	6.030643	-12.829925	6.030643	44852.875	-1.348186E-10	-7.417372E+9	14.820356	0.356697	0	0
0	0	0	-0.098891	6.030517	-12.830188	6.030517	44842	-9.108262E-10	-1.097904E+9	14.810413	0.355389	0	0
0	0	0	-0.098728	6.030431	-12.829813	6.030431	44846	3.098964E-10	3.226885E+9	14.784791	0.354062	0	0
0	0	0	-0.09787	6.030524	-12.829	6.030524	44866.75	-6.99392E-10	-1.429813E+9	14.73438	0.353151	0	0
0	0	0	-0.097462	6.030564	-12.828603	6.030564	44876.625	-2.920434E-10	-3.424148E+9	14.666737	0.352022	0	0
0	0	0	-0.098319	6.030404	-12.829277	6.030404	44855.875	2.19464E-10	4.556556E+9	14.626975	0.351269	0	0
0	0	0	-0.098033	6.030218	-12.828548	6.030218	44862.875	7.211333E-11	1.386706E+10	14.641802	0.349942	0	0
0	0	0	-0.097788	6.030517	-12.82889	6.030517	44868.75	-9.113696E-10	-1.09725E+9	14.649598	0.348535	0	0
0	0	0	-0.097748	6.03055	-12.828912	6.03055	44869.75	-3.623598E-10	-2.759688E+9	14.642278	0.347347	0	0
0	0	0	-0.09689	6.03063	-12.828071	6.03063	44890.5	-1.482255E-10	-6.746478E+9	14.609228	0.346178	0	0
0	0	0	-0.096522	6.030637	-12.827652	6.030637	44899.5	-1.412949E-10	-7.077398E+9	14.549627	0.345089	0	0
0	0	0	-0.096686	6.030656	-12.827886	6.030656	44895.5	-1.2384E-10	-8.074934E+9	14.477387	0.344395	0	0
0	0	0	-0.095992	6.03065	-12.827055	6.03065	44912.375	-1.292036E-10	-7.739723E+9	14.438961	0.343326	0	0
0	0	0	-0.096155	6.030464	-12.826855	6.030464	44908.375	6.404629E-10	1.561371E+9	14.431136	0.342018	0	0
0	0	0	-0.096604	6.030437	-12.827328	6.030437	44897.5	3.459134E-10	2.890897E+9	14.437683	0.34081	0	0
0	0	0	-0.097094	6.03063	-12.828311	6.03063	44885.625	-1.482094E-10	-6.747211E+9	14.431052	0.339403	0	0
0	0	0	-0.096972	6.030643	-12.828195	6.030643	44888.625	-1.349261E-10	-7.411465E+9	14.393151	0.338433	0	0
0	0	0	-0.098115	6.03059	-12.829429	6.03059	44860.875	-2.102791E-10	-4.755583E+9	14.320495	0.337561	0	0
0	0	0	-0.09836	6.030656	-12.829857	6.030656	44854.875	-1.23728E-10	-8.082247E+9	14.260976	0.336591	0	0
0	0	0	-0.099463	6.030384	-12.830581	6.030384	44828.125	1.799279E-10	5.557781E+9	14.238096	0.3356	0	0
0	0	0	-0.100647	6.030431	-12.832073	6.030431	44799.5	3.09575E-10	3.230235E+9	14.223425	0.334352	0	0
0	0	0	-0.101382	6.030384	-12.83284	6.030384	44781.75	1.797418E-10	5.563536E+9	14.238538	0.333104	0	0
0	0	0	-0.102362	6.030464	-12.834162	6.030464	44758	6.383183E-10	1.566616E+9	14.205501	0.332034	0	0
0	0	0	-0.104567	6.030703	-12.837262	6.030703	44704.625	-9.573541E-11	-1.044546E+10	14.172419	0.330826	0	0
0	0	0	-0.104976	6.030597	-12.837518	6.030597	44694.75	-1.958076E-10	-5.107054E+9	14.096333	0.329895	0	0
0	0	0	-0.107589	6.030464	-12.840314	6.030464	44631.625	6.36516E-10	1.571052E+9	14.032062	0.328964	0	0
0	0	0	-0.107262	6.030451	-12.839902	6.030451	44639.5	4.4659E-10	2.23919E+9	13.991168	0.328152	0	0
0	0	0	-0.110407	6.030484	-12.843673	6.030484	44563.75	1.757103E-9	5.691185E+8	13.993953	0.326845	0	0
0	0	0	-0.111305	6.030504	-12.844773	6.030504	44542.125	-2.296636E-9	-4.354195E+8	14.012609	0.325656	0	0
0	0	0	-0.114368	6.030411	-12.848182	6.030411	44468.375	2.346994E-10	4.260769E+9	13.99132	0.324666	0	0
0	0	0	-0.114205	6.030291	-12.847737	6.030291	44472.375	9.709938E-11	1.029873E+10	13.940348	0.323556	0	0
0	0	0	-0.115471	6.03051	-12.84969	6.03051	44441.875	-1.295177E-9	-7.720954E+8	13.890957	0.322625	0	0
0	0	0	-0.118247	6.030444	-12.852819	6.030444	44375.25	3.86291E-10	2.588722E+9	13.833047	0.321714	0	0
0	0	0	-0.121719	6.030696	-12.857437	6.030696	44292.125	-9.798247E-11	-1.020591E+10	13.803307	0.320803	0	0
0	0	0	-0.123311	6.030398	-12.858681	6.030398	44254	2.0179E-10	4.955646E+9	13.796849	0.319693	0	0
0	0	0	-0.125394	6.030464	-12.861273	6.030464	44204.125	6.304192E-10	1.586246E+9	13.79727	0.318545	0	0
0	0	0	-0.129233	6.030384	-12.865623	6.030384	44112.5	1.770556E-10	5.647943E+9	13.789855	0.317435	0	0
0	0	0	-0.12764	6.030411	-12.863804	6.030411	44150.5	2.330217E-10	4.291445E+9	13.758414	0.316227	0	0
0	0	0	-0.127272	6.03051	-12.863582	6.03051	44159.25	-1.28694E-9	-7.770369E+8	13.691793	0.315454	0	0
0	0	0	-0.128538	6.030484	-12.865016	6.030484	44129	1.739962E-9	5.747253E+8	13.631158	0.314583	0	0
0	0	0	-0.128212	6.030796	-12.86529	6.030796	44136.875	-6.530822E-11	-1.531201E+10	13.580961	0.313691	0	0
0	0	0	-0.127722	6.03055	-12.864195	6.03055	44148.5	-3.565352E-10	-2.804773E+9	13.556271	0.312681	0	0
0	0	0	-0.127436	6.03055	-12.863858	6.03055	44155.375	-3.565907E-10	-2.804336E+9	13.558425	0.311532	0	0
0	0	0	-0.125557	6.03063	-12.861815	6.03063	44200.25	-1.459463E-10	-6.851834E+9	13.546663	0.310324	0	0
0	0	0	-0.125026	6.030537	-12.860994	6.030537	44212.875	-4.704058E-10	-2.125824E+9	13.509146	0.309294	0	0
0	0	0	-0.123189	6.030617	-12.858999	6.030617	44256.875	-1.621042E-10	-6.168873E+9	13.465481	0.308343	0	0
0	0	0	-0.123434	6.030617	-12.859288	6.030617	44251	-1.620826E-10	-6.169692E+9	13.400625	0.307511	0	0
0	0	0	-0.120698	6.03061	-12.856053	6.03061	44316.5	-1.717054E-10	-5.82393E+9	13.346155	0.306639	0	0
0	0	0	-0.119105	6.030544	-12.854038	6.030544	44354.75	-4.072694E-10	-2.455377E+9	13.319981	0.305589	0	0
0	0	0	-0.118247	6.030583	-12.853113	6.030583	44375.25	-2.236422E-10	-4.471429E+9	13.303379	0.304698	0	0
0	0	0	-0.118411	6.030663	-12.853473	6.030663	44371.25	-1.175562E-10	-8.506568E+9	13.30944	0.303589	0	0
0	0	0	-0.117676	6.03051	-12.852286	6.03051	44389	-1.293636E-9	-7.730151E+8	13.309228	0.30246	0	0
0	0	0	-0.115185	6.030464	-12.849255	6.030464	44448.75	6.339079E-10	1.577516E+9	13.266462	0.301449	0	0
0	0	0	-0.114981	6.030491	-12.849071	6.030491	44453.75	4.256718E-9	2.349228E+8	13.216487	0.300657	0	0
0	0	0	-0.114736	6.030484	-12.848769	6.030484	44459.5	1.752993E-9	5.70453E+8	13.136141	0.299964	0	0
0	0	0	-0.112285	6.030643	-12.846221	6.030643	44518.5	-1.338136E-10	-7.473084E+9	13.089989	0.299092	0	0
0	0	0	-0.11008	6.03059	-12.843513	6.03059	44571.625	-2.089233E-10	-4.786445E+9	13.063645	0.298102	0	0
0	0	0	-0.109468	6.030564	-12.842736	6.030564	44586.375	-2.901546E-10	-3.446439E+9	13.057411	0.297091	0	0
0	0	0	-0.108651	6.030729	-12.842125	6.030729	44606	-8.469993E-11	-1.180638E+10	13.067755	0.295923	0	0
0	0	0	-0.108365	6.03069	-12.841704	6.03069	44613	-1.020606E-10	-9.798096E+9	13.049649	0.295011	0	0
0	0	0	-0.10763	6.030637	-12.840727	6.030637	44630.625	-1.404487E-10	-7.120035E+9	13.018954	0.29408	0	0
0	0	0	-0.108814	6.03053	-12.841897	6.03053	44602.125	-5.640845E-10	-1.772784E+9	12.969206	0.293169	0	0
0	0	0	-0.108447	6.030431	-12.841254	6.030431	44611	3.082725E-10	3.243884E+9	12.924174	0.292357	0	0
0	0	0	-0.109141	6.03067	-12.842576	6.03067	44594.25	-1.136548E-10	-8.798576E+9	12.859253	0.291664	0	0
0	0	0	-0.110203	6.03063	-12.843741	6.03063	44568.625	-1.471627E-10	-6.795201E+9	12.843355	0.290614	0	0
0	0	0	-0.111142	6.030783	-12.845169	6.030783	44546	-6.89581E-11	-1.450156E+10	12.825247	0.289703	0	0
0	0	0	-0.115348	6.030504	-12.849532	6.030504	44444.875	-2.291621E-9	-4.363723E+8	12.798321	0.288791	0	0
0	0	0	-0.115266	6.030431	-12.849281	6.030431	44446.875	3.071383E-10	3.255862E+9	12.786845	0.287623	0	0
0	0	0	-0.119922	6.03053	-12.854972	6.03053	44335.125	-5.607078E-10	-1.78346E+9	12.73088	0.286969	0	0
0	0	0	-0.117839	6.03059	-12.852646	6.03059	44385	-2.080485E-10	-4.806571E+9	12.679765	0.285979	0	0
0	0	0	-0.120779	6.030364	-12.855631	6.030364	44314.5	1.507801E-10	6.632173E+9	12.632857	0.285047	0	0
0	0	0	-0.122862	6.030245	-12.85783	6.030245	44264.75	7.870117E-11	1.270629E+10	12.557947	0.284453	0	0
0	0	0	-0.124332	6.030464	-12.860023	6.030464	44229.5	6.307811E-10	1.585336E+9	12.539541	0.283403	0	0
0	0	0	-0.126905	6.030418	-12.862953	6.030418	44168	2.530384E-10	3.95197E+9	12.520284	0.282571	0	0
0	0	0	-0.129396	6.030564	-12.866194	6.030564	44108.625	-2.870455E-10	-3.483768E+9	12.519875	0.281343	0	0
0	0	0	-0.129886	6.03061	-12.866869	6.03061	44097	-1.708549E-10	-5.85292E+9	12.492588	0.28065	0	0
0	0	0	-0.132785	6.030491	-12.870029	6.030491	44027.875	4.215938E-9	2.371952E+8	12.461122	0.279659	0	0
0	0	0	-0.133725	6.030703	-12.871583	6.030703	44005.5	-9.423823E-11	-1.06114E+10	12.403715	0.278748	0	0
0	0	0	-0.134827	6.030564	-12.872587	6.030564	43979.25	-2.862036E-10	-3.494016E+9	12.336024	0.278134	0	0
0	0	0	-0.138298	6.030577	-12.876701	6.030577	43896.875	-2.392175E-10	-4.180296E+9	12.274018	0.277263	0	0
0	0	0	-0.141483	6.03059	-12.880478	6.03059	43821.375	-2.054066E-10	-4.868392E+9	12.245487	0.276629	0	0
0	0	0	-0.141157	6.030577	-12.880066	6.030577	43829.125	-2.388483E-10	-4.186758E+9	12.233692	0.275579	0	0
0	0	0	-0.143444	6.030703	-12.883024	6.030703	43774.875	-9.374434E-11	-1.066731E+10	12.251026	0.274489	0	0
0	0	0	-0.143648	6.030464	-12.88276	6.030464	43770.125	6.242297E-10	1.601974E+9	12.218812	0.273618	0	0
0	0	0	-0.146384	6.030311	-12.885658	6.030311	43705.375	1.057595E-10	9.455411E+9	12.197356	0.272489	0	0
0	0	0	-0.145363	6.030557	-12.884975	6.030557	43729.5	-3.151781E-10	-3.172809E+9	12.137556	0.271835	0	0
0	0	0	-0.143893	6.03063	-12.883398	6.03063	43764.25	-1.445067E-10	-6.920095E+9	12.082196	0.271181	0	0
0	0	0	-0.143362	6.030331	-12.882143	6.030331	43776.875	1.187989E-10	8.417589E+9	12.016232	0.270349	0	0
0	0	0	-0.140789	6.030311	-12.879072	6.030311	43837.75	1.060799E-10	9.426859E+9	11.966317	0.269596	0	0
0	0	0	-0.140993	6.030378	-12.879453	6.030378	43833	1.65994E-10	6.024314E+9	11.936387	0.268824	0	0
0	0	0	-0.140013	6.030298	-12.878131	6.030298	43856.125	9.897792E-11	1.010326E+10	11.931793	0.267695	0	0
0	0	0	-0.138176	6.030603	-12.876613	6.030603	43899.75	-1.805257E-10	-5.539379E+9	11.92303	0.266883	0	0
0	0	0	-0.136175	6.030583	-12.874215	6.030583	43947.25	-2.214851E-10	-4.514976E+9	11.883011	0.265971	0	0
0	0	0	-0.135889	6.030617	-12.873949	6.030617	43954	-1.609948E-10	-6.211381E+9	11.851439	0.26512	0	0
0	0	0	-0.133725	6.030457	-12.871065	6.030457	44005.5	5.174836E-10	1.932428E+9	11.787106	0.264228	0	0
0	0	0	-0.132744	6.03061	-12.870233	6.03061	44028.875	-1.705909E-10	-5.861976E+9	11.727861	0.263495	0	0
0	0	0	-0.131029	6.030471	-12.86792	6.030471	44069.625	7.983662E-10	1.252558E+9	11.665645	0.262941	0	0
0	0	0	-0.129968	6.030471	-12.86667	6.030471	44095	7.988259E-10	1.251837E+9	11.624703	0.262089	0	0
0	0	0	-0.128906	6.030358	-12.865182	6.030358	44120.375	1.428675E-10	6.999494E+9	11.59955	0.261178	0	0
0	0	0	-0.127803	6.030484	-12.864151	6.030484	44146.625	1.740657E-9	5.744959E+8	11.596094	0.260346	0	0
0	0	0	-0.128252	6.030517	-12.86475	6.030517	44135.875	-8.964835E-10	-1.11547E+9	11.564903	0.259533	0	0
0	0	0	-0.126211	6.030305	-12.861898	6.030305	44184.625	1.031938E-10	9.690501E+9	11.564193	0.258543	0	0
0	0	0	-0.12421	6.030617	-12.860201	6.030617	44232.5	-1.620149E-10	-6.172273E+9	11.524945	0.25779	0	0
0	0	0	-0.122045	6.030444	-12.857289	6.030444	44284.25	3.854988E-10	2.594042E+9	11.474345	0.256919	0	0
0	0	0	-0.119636	6.030583	-12.854747	6.030583	44342	-2.234746E-10	-4.474782E+9	11.43382	0.256245	0	0
0	0	0	-0.119146	6.03063	-12.854268	6.03063	44353.75	-1.464532E-10	-6.828121E+9	11.364939	0.255512	0	0
0	0	0	-0.119677	6.030404	-12.854417	6.030404	44341	2.169449E-10	4.609466E+9	11.331174	0.25474	0	0
0	0	0	-0.117962	6.030391	-12.85237	6.030391	44382.125	1.894842E-10	5.277486E+9	11.290632	0.254126	0	0
0	0	0	-0.118492	6.03057	-12.853373	6.03057	44369.375	-2.6319E-10	-3.799537E+9	11.276021	0.253234	0	0
0	0	0	-0.120208	6.030597	-12.855448	6.030597	44328.25	-1.94202E-10	-5.149278E+9	11.26693	0.252323	0	0
0	0	0	-0.121147	6.03055	-12.856456	6.03055	44305.75	-3.578051E-10	-2.794818E+9	11.250349	0.251392	0	0
0	0	0	-0.122576	6.03059	-12.858222	6.03059	44271.5	-2.075165E-10	-4.818893E+9	0	0	0	0
0	0	0	-0.124904	6.030331	-12.860416	6.030331	44215.875	1.199902E-10	8.334014E+9	0	0	0	0
0	0	0	-0.125598	6.03057	-12.861737	6.03057	44199.25	-2.621808E-10	-3.814161E+9	0	0	0	0
0	0	0	-0.129845	6.030451	-12.866484	6.030451	44097.875	4.411714E-10	2.266693E+9	0	0	0	0
0	0	0	-0.133439	6.030424	-12.870658	6.030424	44012.25	2.757111E-10	3.626985E+9	0	0	0	0
0	0	0	-0.132336	6.030564	-12.869655	6.030564	44038.5	-2.865892E-10	-3.489315E+9	0	0	0	0
0	0	0	-0.137522	6.030491	-12.875605	6.030491	43915.25	4.205153E-9	2.378035E+8	0	0	0	0
0	0	0	-0.136542	6.030484	-12.874438	6.030484	43938.5	1.73245E-9	5.772171E+8	0	0	0	0
0	0	0	-0.137645	6.030411	-12.875581	6.030411	43912.375	2.317649E-10	4.314717E+9	0	0	0	0
0	0	0	-0.140136	6.030305	-12.878289	6.030305	43853.25	1.024199E-10	9.763727E+9	0	0	0	0
0	0	0	-0.142178	6.03051	-12.881127	6.03051	43804.875	-1.276613E-9	-7.83323E+8	0	0	0	0
0	0	0	-0.14328	6.030683	-12.88279	6.030683	43778.75	-1.036911E-10	-9.644031E+9	0	0	0	0
0	0	0	-0.142137	6.030378	-12.880799	6.030378	43805.875	1.658913E-10	6.028044E+9	0	0	0	0
0	0	0	-0.145159	6.030484	-12.88458	6.030484	43734.375	1.724402E-9	5.799112E+8	0	0	0	0
0	0	0	-0.146425	6.030484	-12.88607	6.030484	43704.5	1.723224E-9	5.803076E+8	0	0	0	0
0	0	0	-0.147446	6.030557	-12.887426	6.030557	43680.375	-3.148241E-10	-3.176377E+9	0	0	0	0
0	0	0	-0.149242	6.030358	-12.889121	6.030358	43637.875	1.413051E-10	7.076887E+9	0	0	0	0
0	0	0	-0.151039	6.030437	-12.891404	6.030437	43595.5	3.358821E-10	2.977235E+9	0	0	0	0
0	0	0	-0.151978	6.030398	-12.892425	6.030398	43573.375	1.986865E-10	5.033055E+9	0	0	0	0
0	0	0	-0.151774	6.030577	-12.892564	6.030577	43578.25	-2.374812E-10	-4.21086E+9	0	0	0	0
0	0	0	-0.152183	6.030424	-12.892722	6.030424	43568.625	2.729321E-10	3.663915E+9	0	0	0	0
0	0	0	-0.150508	6.030504	-12.890919	6.030504	43608	-2.248471E-9	-4.447467E+8	0	0	0	0
0	0	0	-0.151652	6.030371	-12.891985	6.030371	43581.125	1.562145E-10	6.401455E+9	0	0	0	0
0	0	0	-0.149692	6.030285	-12.889495	6.030285	43627.375	9.224956E-11	1.084016E+10	0	0	0	0
0	0	0	-0.148344	6.030451	-12.888259	6.030451	43659.125	4.36782E-10	2.289472E+9	0	0	0	0
0	0	0	-0.148916	6.030331	-12.88868	6.030331	43645.625	1.184427E-10	8.442902E+9	0	0	0	0
0	0	0	-0.146629	6.030623	-12.886605	6.030623	43699.625	-1.517696E-10	-6.588933E+9	0	0	0	0
0	0	0	-0.14569	6.030444	-12.885121	6.030444	43721.875	3.806033E-10	2.627408E+9	0	0	0	0
0	0	0	-0.144791	6.030464	-12.884106	6.030464	43743	6.238429E-10	1.602968E+9	0	0	0	0
0	0	0	-0.14328	6.03069	-12.882804	6.03069	43778.75	-1.001521E-10	-9.984809E+9	0	0	0	0
0	0	0	-0.141157	6.030504	-12.879911	6.030504	43829.125	-2.259873E-9	-4.425028E+8	0	0	0	0
0	0	0	-0.140136	6.030564	-12.878836	6.030564	43853.25	-2.853836E-10	-3.504055E+9	0	0	0	0
0	0	0	-0.139156	0	-0.139156	0	43876.5	0	0	0	0	0	0
0	0	0	-0.138666	0	-0.138666	0	43888.125	0	0	0	0	0	0
