Vload_(V)	ILoad_(A)	RsLoad (ohm)	SunsVoc_Voltage_(V)	SunsVoc_Current_(A)	Model_Voltage_(V)	Model_Current_(A)	Carrier_Density_(cm-3)	Lifetime_(s)	Inverse_Lifetime_(s-1)	Efficiency_(%)	Intensity_(suns)	Dark_IV_Voltage_(V)	Dark_IV_Current_(A)
3.370088	6.391052	0	66.033839	-1.384251	66.415886	-1.384251	4.8701E+15	0.000263	3763.87509	19.854134	1.196341	0	0
3.341189	6.390986	0.025305	65.996106	-1.102871	66.302595	-1.102871	4.827862E+15	0.00027	3658.989677	19.839422	1.196024	0	0
4.817043	6.389497	3.009935	65.855423	-0.67649	66.048227	-0.67649	4.673255E+15	0.000278	3566.412836	19.809244	1.195945	0	0
7.730313	6.382021	5.824016	65.686523	-0.216535	65.750084	-0.216535	4.493484E+15	0.000285	3469.439032	19.806695	1.194598	0	0
11.080013	6.364378	6.181034	65.513376	0.222027	65.446262	0.222027	4.315607E+15	0.000294	3374.338877	19.816803	1.192537	0	0
13.782097	6.362419	5.795389	65.33733	0.625542	65.142681	0.625542	4.141186E+15	0.000302	3288.093188	19.83627	1.189467	0	0
16.583506	6.359193	5.411752	65.16553	0.996877	64.846684	0.996877	3.977016E+15	0.000309	3204.786928	19.816152	1.18707	0	0
19.439937	6.358226	4.978185	65.002225	1.335299	64.564125	1.335299	3.826313E+15	0.000318	3123.302238	19.785612	1.184812	0	0
22.277109	6.355351	4.576938	64.834754	1.653175	64.27838	1.653175	3.677006E+15	0.000326	3047.033838	19.748736	1.183544	0	0
25.188245	6.352977	4.152631	64.668181	1.946326	63.996776	1.946326	3.533593E+15	0.000334	2975.698766	19.744833	1.182237	0	0
28.22499	6.351646	3.69257	64.503651	2.221954	63.718703	2.221954	3.396763E+15	0.000342	2904.675075	19.773814	1.180276	0	0
31.706196	6.25046	3.781093	64.340958	2.477326	63.445442	2.477326	3.266028E+15	0.00035	2836.894744	19.806129	1.178136	0	0
34.648871	6.248944	3.315984	64.178673	2.717302	63.174141	2.717302	3.140001E+15	0.000359	2770.747673	19.824888	1.175165	0	0
37.543359	6.242235	2.876501	64.011897	2.941611	62.899667	2.941611	3.0149E+15	0.000367	2710.440264	19.805271	1.17257	0	0
40.429055	6.23827	2.427343	63.851368	3.149668	62.634939	3.149668	2.898579E+15	0.000375	2649.968092	19.779327	1.169301	0	0
42.817455	6.331263	1.594859	63.689818	3.343039	62.371435	3.343039	2.785445E+15	0.000384	2593.857891	19.750412	1.166607	0	0
45.677318	6.317328	1.241234	63.53566	3.51845	62.12071	3.51845	2.681047E+15	0.000392	2540.451561	19.751835	1.163418	0	0
46.634216	6.306813	1.152335	63.379419	3.68216	61.86958	3.68216	2.578681E+15	0.0004	2491.43308	19.76718	1.160546	0	0
47.572413	6.296631	1.056563	63.228365	3.838716	61.625049	3.838716	2.482909E+15	0.000408	2438.55894	19.789952	1.157674	0	0
48.493707	6.277271	0.996924	63.07241	3.985118	61.376561	3.985118	2.38723E+15	0.000417	2391.386863	19.795379	1.154881	0	0
49.438444	6.257881	0.919139	62.92205	4.120602	61.137258	4.120602	2.297973E+15	0.000425	2344.885542	19.778754	1.152543	0	0
50.373583	6.229947	0.858193	62.770219	4.246265	60.898441	4.246265	2.210734E+15	0.000433	2303.008598	19.762873	1.149889	0	0
51.325659	6.191774	0.804896	62.625903	4.362578	60.671059	4.362578	2.130429E+15	0.000441	2260.644758	19.756246	1.147373	0	0
52.267006	6.14284	0.756971	62.478074	4.4723	60.440678	4.4723	2.05074E+15	0.000449	2221.880625	19.782263	1.143768	0	0
53.216633	6.081157	0.709358	62.332206	4.575662	60.214017	4.575662	1.974587E+15	0.000457	2183.651024	19.798989	1.140281	0	0
54.13633	5.99899	0.672913	62.185398	4.672625	59.987682	4.672625	1.900361E+15	0.000464	2148.126008	19.802478	1.1363	0	0
55.072047	5.89305	0.637278	62.041	4.764299	59.765424	4.764299	1.829654E+15	0.000472	2112.450714	19.779621	1.132912	0	0
55.991785	5.762913	0.601857	61.893662	4.850442	59.540852	4.850442	1.759795E+15	0.00048	2080.337209	19.751115	1.129505	0	0
56.910268	5.589233	0.574559	61.751877	4.931673	59.324353	4.931673	1.694691E+15	0.000487	2046.642797	19.739979	1.125999	0	0
57.801927	5.375714	0.549975	61.606417	5.008011	59.10453	5.008011	1.630004E+15	0.000495	2016.845128	19.749046	1.122235	0	0
58.712627	5.102636	0.526287	61.464796	5.079089	58.891076	5.079089	1.569017E+15	0.000502	1987.820055	19.768135	1.118353	0	0
59.595332	4.76914	0.507242	61.321296	5.146242	58.676255	5.146242	1.509173E+15	0.000509	1961.113058	19.776713	1.115104	0	0
60.45743	4.369269	0.489255	61.18625	5.208885	58.473488	5.208885	1.454602E+15	0.000517	1932.50601	19.772153	1.112053	0	0
61.314813	3.886792	0.472939	61.041729	5.268444	58.259499	5.268444	1.39803E+15	0.000523	1909.631099	19.754931	1.109181	0	0
62.123546	3.34851	0.459324	60.90411	5.323944	58.055571	5.323944	1.34587E+15	0.000529	1885.768072	19.749706	1.106091	0	0
62.90772	2.740856	0.446752	60.766899	5.376206	57.853146	5.376206	1.295484E+15	0.000536	1863.349659	19.755922	1.102704	0	0
63.641294	2.095456	0.442168	60.632832	5.425955	57.655382	5.425955	1.247774E+15	0.000543	1839.926927	19.774028	1.098762	0	0
64.31504	1.429447	0.45552	60.494396	5.473539	57.452569	5.473539	1.200046E+15	0.000549	1818.940998	19.791439	1.094859	0	0
64.895946	0.815683	0.474484	60.357144	5.518984	57.251809	5.518984	1.154231E+15	0.000556	1797.62265	19.792019	1.090957	0	0
53.99447	6.014455	0.67654	60.22463	5.561319	57.058258	5.561319	1.111381E+15	0.000562	1776.433953	19.781808	1.087173	0	0
65.669764	0	0	60.095831	5.600058	56.870979	5.600058	1.071005E+15	0.000568	1757.463545	19.766102	1.083588	0	0
0	0	0	59.969728	5.63731	56.687525	5.63731	1.032658E+15	0.000575	1736.996067	19.754205	1.079705	0	0
0	0	0	59.837662	5.67184	56.497529	5.67184	9.937247E+14	0.00058	1722.474135	19.757352	1.075902	0	0
0	0	0	59.713111	5.703936	56.318199	5.703936	9.581294E+14	0.000585	1706.840493	19.776063	1.071683	0	0
0	0	0	59.58615	5.735234	56.135839	5.735234	9.229404E+14	0.000591	1691.303194	19.795681	1.067344	0	0
0	0	0	59.464048	5.764309	55.960703	5.764309	8.901165E+14	0.000596	1676.009673	19.793241	1.063244	0	0
0	0	0	59.335005	5.793175	55.776364	5.793175	8.564859E+14	0.000601	1661.683435	19.777706	1.059262	0	0
0	0	0	59.206002	5.820345	55.592755	5.820345	8.239284E+14	0.000606	1648.929684	19.762687	1.055281	0	0
0	0	0	59.086187	5.845307	55.422076	5.845307	7.946185E+14	0.000611	1635.03633	19.752936	1.0512	0	0
0	0	0	58.960084	5.869618	55.243355	5.869618	7.647134E+14	0.000616	1623.362293	19.765901	1.047377	0	0
0	0	0	58.840923	5.892338	55.07435	5.892338	7.37323E+14	0.000621	1610.36912	19.788674	1.043237	0	0
0	0	0	58.719556	5.913804	54.903017	5.913804	7.102727E+14	0.000625	1599.802932	19.801972	1.039235	0	0
0	0	0	58.596148	5.935004	54.72894	5.935004	6.836235E+14	0.000629	1588.387152	19.793184	1.035472	0	0
0	0	0	58.477355	5.954315	54.561843	5.954315	6.58767E+14	0.000633	1578.571873	19.771955	1.031728	0	0
0	0	0	58.356887	5.973264	54.392576	5.973264	6.343392E+14	0.000637	1568.282492	19.762574	1.027865	0	0
0	0	0	58.237399	5.991124	54.225084	5.991124	6.108669E+14	0.000641	1558.968283	19.767239	1.024101	0	0
0	0	0	58.119912	6.007805	54.060782	6.007805	5.885052E+14	0.000645	1550.753192	19.790413	1.019743	0	0
0	0	0	58.001567	6.02399	53.895501	6.02399	5.666828E+14	0.000648	1542.495461	19.803358	1.015524	0	0
0	0	0	57.886163	6.039337	53.73444	6.039337	5.460655E+14	0.000652	1533.843716	19.808366	1.011384	0	0
0	0	0	57.770269	6.053634	53.573287	6.053634	5.260041E+14	0.000654	1527.647487	19.800303	1.007303	0	0
0	0	0	57.654089	6.067565	53.411851	6.067565	5.065251E+14	0.000657	1520.928358	19.778221	1.003579	0	0
0	0	0	57.539583	6.081146	53.252686	6.081146	4.879313E+14	0.000661	1512.630446	19.772045	0.999915	0	0
0	0	0	57.422545	6.093508	53.090919	6.093508	4.695316E+14	0.000662	1509.232207	19.777085	0.99625	0	0
0	0	0	57.313144	6.105756	52.939079	6.105756	4.528725E+14	0.000666	1500.362433	19.79746	0.992328	0	0
0	0	0	57.196147	6.116857	52.777989	6.116857	4.356203E+14	0.000667	1499.114381	19.81469	0.988445	0	0
0	0	0	57.088951	6.127883	52.629657	6.127883	4.203126E+14	0.00067	1491.251377	19.81643	0.984563	0	0
0	0	0	56.973751	6.138215	52.471229	6.138215	4.043812E+14	0.000671	1489.172799	19.803435	0.980759	0	0
0	0	0	56.863002	6.148405	52.318619	6.148405	3.895603E+14	0.000674	1483.546217	19.780783	0.977154	0	0
0	0	0	56.751069	6.157823	52.164918	6.157823	3.750616E+14	0.000675	1481.10721	19.774489	0.973549	0	0
0	0	0	56.642526	6.166648	52.016	6.166648	3.614522E+14	0.000676	1478.737619	19.781748	0.969943	0	0
0	0	0	56.5339	6.175337	51.866981	6.175337	3.482656E+14	0.000678	1475.316287	19.806263	0.966001	0	0
0	0	0	56.426745	6.183843	51.719935	6.183843	3.356712E+14	0.00068	1470.324035	19.824973	0.962178	0	0
0	0	0	56.315057	6.191353	51.56761	6.191353	3.229707E+14	0.000679	1472.771446	19.819882	0.958375	0	0
0	0	0	56.214885	6.199051	51.430177	6.199051	3.11941E+14	0.000682	1466.080079	19.804708	0.95471	0	0
0	0	0	56.100828	6.206207	51.274851	6.206207	2.997877E+14	0.000681	1468.666731	19.782083	0.951303	0	0
0	0	0	55.998696	6.213341	51.135125	6.213341	2.892621E+14	0.000683	1463.378468	19.781338	0.947619	0	0
0	0	0	55.891623	6.219802	50.989363	6.219802	2.785801E+14	0.000683	1464.256052	19.786115	0.943954	0	0
0	0	0	55.786877	6.226152	50.846678	6.226152	2.68471E+14	0.000683	1463.056796	19.810872	0.940151	0	0
0	0	0	55.681763	6.232236	50.703656	6.232236	2.586562E+14	0.000684	1462.552932	19.819691	0.936565	0	0
0	0	0	55.581469	6.238367	50.566868	6.238367	2.495914E+14	0.000686	1457.169981	19.804624	0.933198	0	0
0	0	0	55.479541	6.24343	50.428733	6.24343	2.406716E+14	0.000684	1461.072744	19.790548	0.930008	0	0
0	0	0	55.37312	6.248777	50.284406	6.248777	2.316651E+14	0.000684	1462.899879	19.771289	0.926819	0	0
0	0	0	55.274704	6.254275	50.150429	6.254275	2.236073E+14	0.000686	1457.060721	19.780386	0.923392	0	0
0	0	0	55.168162	6.258752	50.006544	6.258752	2.151702E+14	0.000683	1464.636102	19.799811	0.919866	0	0
0	0	0	55.067704	6.263966	49.870008	6.263966	2.074799E+14	0.000685	1459.058694	19.820852	0.916221	0	0
0	0	0	54.968389	6.268245	49.735706	6.268245	2.001231E+14	0.000684	1461.7672	19.824294	0.912695	0	0
0	0	0	54.86058	6.272805	49.58994	6.272805	1.924064E+14	0.000683	1463.94389	19.812631	0.90911	0	0
0	0	0	54.761838	6.276938	49.456425	6.276938	1.855777E+14	0.000683	1464.769626	19.788231	0.906139	0	0
0	0	0	54.659787	6.281349	49.318275	6.281349	1.787538E+14	0.000684	1461.907305	19.781892	0.90287	0	0
0	0	0	54.552713	6.285209	49.173935	6.285209	1.718418E+14	0.000682	1467.213168	19.790232	0.899404	0	0
0	0	0	54.45785	6.288791	49.045879	6.288791	1.659241E+14	0.000681	1468.118612	19.815217	0.89566	0	0
0	0	0	54.349837	6.293007	48.899913	6.293007	1.594149E+14	0.000683	1465.071971	19.82822	0.892094	0	0
0	0	0	54.249257	6.296136	48.764643	6.296136	1.535664E+14	0.000679	1472.337465	19.826375	0.888608	0	0
0	0	0	54.153168	6.298992	48.635501	6.298992	1.48165E+14	0.000676	1480.087945	19.806108	0.88522	0	0
0	0	0	54.045319	6.302188	48.490529	6.302188	1.423127E+14	0.000672	1487.468459	19.787882	0.881952	0	0
0	0	0	53.946413	6.305262	48.35742	6.305262	1.371352E+14	0.000671	1490.224366	19.779967	0.878921	0	0
0	0	0	53.847874	6.308758	48.224389	6.308758	1.321519E+14	0.000674	1483.403488	19.797916	0.875573	0	0
0	0	0	53.742189	6.311377	48.082686	6.311377	1.269953E+14	0.000669	1494.52086	19.810512	0.872344	0	0
0	0	0	53.643405	6.31417	47.949899	6.31417	1.223462E+14	0.000668	1496.93329	19.824787	0.869056	0	0
0	0	0	53.542253	6.31682	47.81409	6.31682	1.177513E+14	0.000666	1501.734114	19.822055	0.865867	0	0
0	0	0	53.440692	6.319652	47.67755	6.319652	1.133012E+14	0.000666	1501.168311	19.80826	0.862896	0	0
0	0	0	53.342562	6.322515	47.545477	6.322515	1.091521E+14	0.000669	1495.742908	19.796632	0.859904	0	0
0	0	0	53.240185	6.324275	47.40879	6.324275	1.049764E+14	0.00066	1515.324198	19.790173	0.857171	0	0
0	0	0	53.141197	6.326263	47.276345	6.326263	1.010827E+14	0.000655	1526.83741	19.804439	0.853744	0	0
0	0	0	53.039595	6.328061	47.140608	6.328061	9.722865E+13	0.000648	1543.295909	19.816185	0.850594	0	0
0	0	0	52.939178	6.33058	47.005741	6.33058	9.355664E+13	0.000649	1539.734289	19.825017	0.847345	0	0
0	0	0	52.839047	6.332917	46.871397	6.332917	9.002647E+13	0.00065	1538.287304	19.815423	0.844255	0	0
0	0	0	52.734873	6.335116	46.731823	6.335116	8.648842E+13	0.000649	1540.650823	19.801137	0.841185	0	0
0	0	0	52.636171	6.336905	46.59984	6.336905	8.325876E+13	0.000645	1549.226024	19.787497	0.838114	0	0
0	0	0	52.53314	6.338978	46.461853	6.338978	8.001037E+13	0.000645	1550.386828	19.779479	0.835123	0	0
0	0	0	52.430272	6.34037	46.324716	6.34037	7.68882E+13	0.000637	1570.221632	19.792862	0.831894	0	0
0	0	0	52.332469	6.342082	46.193941	6.342082	7.402812E+13	0.000635	1575.809567	19.812234	0.828467	0	0
0	0	0	52.226906	6.343948	46.052753	6.343948	7.105568E+13	0.000633	1579.153945	19.817434	0.825417	0	0
0	0	0	52.123835	6.345927	45.914725	6.345927	6.826416E+13	0.000635	1574.682735	19.804497	0.822386	0	0
0	0	0	52.024929	6.347349	45.782724	6.347349	6.568479E+13	0.000631	1584.949894	19.787403	0.819256	0	0
0	0	0	51.916875	6.34899	45.638413	6.34899	6.297415E+13	0.000628	1591.09807	19.767193	0.816542	0	0
0	0	0	51.819725	6.350118	45.508993	6.350118	6.062937E+13	0.000622	1608.314294	19.774688	0.813531	0	0
0	0	0	51.716531	6.351373	45.371454	6.351373	5.823108E+13	0.000616	1623.221215	19.788133	0.810402	0	0
0	0	0	51.604393	6.352544	45.222173	6.352544	5.572894E+13	0.000608	1646.029278	19.810456	0.807153	0	0
0	0	0	51.496136	6.353873	45.077844	6.353873	5.341226E+13	0.000603	1658.143959	19.819911	0.803964	0	0
0	0	0	51.388654	6.354663	44.935072	6.354663	5.120464E+13	0.000591	1692.899663	19.804738	0.801131	0	0
0	0	0	51.287297	6.355767	44.800064	6.355767	4.92041E+13	0.000585	1708.291762	19.77808	0.798278	0	0
0	0	0	51.180918	6.357286	44.657982	6.357286	4.718611E+13	0.000587	1704.652858	19.755133	0.795406	0	0
0	0	0	51.074375	6.358347	44.516141	6.358347	4.524577E+13	0.000581	1721.913491	19.765656	0.792356	0	0
0	0	0	50.95991	6.359722	44.363496	6.359722	4.324772E+13	0.000579	1725.700534	19.766865	0.789563	0	0
0	0	0	50.856961	6.36066	44.226505	6.36066	4.15243E+13	0.000574	1743.498952	19.79351	0.786215	0	0
0	0	0	50.744171	6.361785	44.076307	6.361785	3.971302E+13	0.00057	1755.562149	19.797339	0.783362	0	0
0	0	0	50.642447	6.362832	43.940799	6.362832	3.814578E+13	0.000567	1762.277063	19.782692	0.780708	0	0
0	0	0	50.530595	6.363631	43.792162	6.363631	3.649225E+13	0.000559	1789.961354	19.766875	0.777657	0	0
0	0	0	50.420908	6.36462	43.646173	6.36462	3.49389E+13	0.000555	1802.109736	19.745124	0.775142	0	0
0	0	0	50.308853	6.365387	43.497281	6.365387	3.341889E+13	0.000547	1829.405129	19.743288	0.77223	0	0
0	0	0	50.195163	6.365989	43.3464	6.365989	3.194299E+13	0.000535	1869.101865	19.763976	0.769338	0	0
0	0	0	50.078575	6.366632	43.191635	6.366632	3.049588E+13	0.000524	1907.562023	19.780623	0.766426	0	0
0	0	0	49.965335	6.367339	43.041218	6.367339	2.915201E+13	0.000516	1937.675648	19.777903	0.763514	0	0
0	0	0	49.839109	6.368229	42.873432	6.368229	2.772254E+13	0.00051	1961.1417	19.769204	0.760622	0	0
0	0	0	49.719131	6.369153	42.713854	6.369153	2.642781E+13	0.000507	1973.908522	19.748903	0.758126	0	0
0	0	0	49.596662	6.369765	42.551317	6.369765	2.516759E+13	0.000496	2014.801096	19.732783	0.755432	0	0
0	0	0	49.471335	6.370589	42.384759	6.370589	2.393923E+13	0.000491	2036.200028	19.730733	0.752738	0	0
0	0	0	49.3398	6.371264	42.210153	6.371264	2.271357E+13	0.000482	2075.31174	19.742687	0.750004	0	0
0	0	0	49.206959	6.371808	42.033958	6.371808	2.153857E+13	0.00047	2128.313821	19.757503	0.747211	0	0
0	0	0	49.071831	6.372566	41.854492	6.372566	2.040491E+13	0.000463	2158.133273	19.766466	0.744319	0	0
0	0	0	48.931312	6.373374	41.667832	6.373374	1.928851E+13	0.000458	2183.27127	19.750392	0.741724	0	0
0	0	0	48.787485	6.374103	41.476879	6.374103	1.820835E+13	0.000451	2217.414044	19.730906	0.739069	0	0
0	0	0	48.637288	6.37451	41.277866	6.37451	1.714418E+13	0.000435	2298.514787	19.711006	0.736415	0	0
0	0	0	48.485295	6.375115	41.07624	6.375115	1.612994E+13	0.000425	2353.64331	19.709092	0.733899	0	0
0	0	0	48.325909	6.37581	40.864729	6.37581	1.513016E+13	0.000417	2399.662943	19.735241	0.731027	0	0
0	0	0	48.161542	6.376203	40.646977	6.376203	1.416342E+13	0.0004	2497.359385	19.752358	0.728254	0	0
0	0	0	47.990845	6.376735	40.420685	6.376735	1.322425E+13	0.000388	2578.893424	19.746679	0.725698	0	0
0	0	0	47.813165	6.377234	40.185192	6.377234	1.231223E+13	0.000374	2673.448211	19.74341	0.722806	0	0
0	0	0	47.629768	6.377871	39.941965	6.377871	1.143632E+13	0.000364	2745.560199	19.714992	0.720488	0	0
0	0	0	47.433426	6.378094	39.682114	6.378094	1.056707E+13	0.000342	2921.043713	19.69294	0.717953	0	0
0	0	0	47.228712	6.378436	39.411045	6.378436	9.730605E+12	0.000324	3088.519396	19.690181	0.715378	0	0
0	0	0	47.015463	6.379052	39.128345	6.379052	8.929205E+12	0.000312	3201.193369	19.703016	0.712723	0	0
0	0	0	46.794415	6.379232	38.835865	6.379232	8.167732E+12	0.00029	3447.377644	19.71842	0.710029	0	0
0	0	0	46.56181	6.379728	38.527702	6.379728	7.436133E+12	0.000276	3627.583639	19.727069	0.707335	0	0
0	0	0	46.324304	6.380209	38.213067	6.380209	6.756405E+12	0.000262	3822.801803	19.719795	0.704681	0	0
0	0	0	46.082715	6.380242	37.893597	6.380242	6.128453E+12	0.000238	4201.846199	19.703132	0.702185	0	0
0	0	0	45.826343	6.380903	37.553766	6.380903	5.52556E+12	0.000229	4375.484767	19.684694	0.699887	0	0
0	0	0	45.560864	6.381317	37.202199	6.381317	4.963489E+12	0.000214	4671.956931	19.669692	0.697411	0	0
0	0	0	45.281419	6.38156	36.832382	6.38156	4.433328E+12	0.000196	5100.40793	19.680822	0.694875	0	0
0	0	0	44.986947	6.38192	36.442528	6.38192	3.935661E+12	0.000181	5527.174328	19.700213	0.692102	0	0
0	0	0	44.676507	6.382478	36.031283	6.382478	3.471241E+12	0.00017	5883.444249	19.710337	0.689468	0	0
0	0	0	44.353939	6.382571	35.604621	6.382571	3.04653E+12	0.000151	6631.274096	19.703528	0.686793	0	0
0	0	0	44.017364	6.383098	35.158831	6.383098	2.658579E+12	0.00014	7126.775889	19.67668	0.684476	0	0
0	0	0	43.67405	6.383176	34.704745	6.383176	2.313638E+12	0.000123	8109.275315	19.661399	0.682118	0	0
0	0	0	43.313586	6.383548	34.227556	6.383548	1.99946E+12	0.000112	8939.928888	19.650403	0.679702	0	0
0	0	0	42.941238	6.383764	33.734865	6.383764	1.719603E+12	9.904949E-5	10095.962798	19.649602	0.677285	0	0
0	0	0	42.556149	6.384006	33.225278	6.384006	1.471267E+12	8.766459E-5	11407.114732	19.667002	0.67467	0	0
0	0	0	42.147987	6.384529	32.684755	6.384529	1.247054E+12	8.026359E-5	12458.950056	19.673008	0.672194	0	0
0	0	0	41.727615	6.384571	32.128788	6.384571	1.051771E+12	6.812422E-5	14679.067602	19.670825	0.66948	0	0
0	0	0	41.296503	6.385036	31.557968	6.385036	8.831997E+11	6.163636E-5	16224.188791	19.663372	0.667163	0	0
0	0	0	40.854366	6.385351	30.972781	6.385351	7.383265E+11	5.436562E-5	18393.976726	19.641193	0.664845	0	0
0	0	0	40.395036	6.385634	30.364894	6.385634	6.129223E+11	4.748793E-5	21057.983492	19.626626	0.662567	0	0
0	0	0	39.925578	6.385773	29.743829	6.385773	5.067268E+11	4.029482E-5	24817.084229	19.634153	0.66019	0	0
0	0	0	39.435702	6.385847	29.095859	6.385847	4.154731E+11	3.351108E-5	29840.875799	19.64269	0.657654	0	0
0	0	0	38.922795	6.386195	28.416977	6.386195	3.374838E+11	2.916946E-5	34282.436454	19.648932	0.655218	0	0
0	0	0	38.382854	6.386443	27.702491	6.386443	2.711437E+11	2.46949E-5	40494.198409	19.652767	0.652583	0	0
0	0	0	37.820248	6.386688	26.958021	6.386688	2.158502E+11	2.076557E-5	48156.645869	19.64146	0.650285	0	0
0	0	0	37.240858	6.387079	26.191088	6.387079	1.706661E+11	1.80363E-5	55443.748626	19.611447	0.648205	0	0
0	0	0	36.650647	6.387167	25.410356	6.387167	1.343489E+11	1.451659E-5	68886.722759	19.59765	0.645808	0	0
0	0	0	36.036792	6.387442	24.598009	6.387442	1.047505E+11	1.218274E-5	82083.35756	19.597689	0.64353	0	0
0	0	0	35.403539	6.387744	23.759943	6.387744	8.103279E+10	1.028547E-5	97224.570093	19.606552	0.641054	0	0
0	0	0	34.761914	6.387553	22.911701	6.387553	6.247267E+10	7.495443E-6	133414.395497	19.622749	0.638558	0	0
0	0	0	34.114042	6.387747	22.05448	6.387747	4.804166E+10	6.102718E-6	163861.415137	19.625963	0.636122	0	0
0	0	0	33.454449	6.387905	21.181814	6.387905	3.676897E+10	4.905543E-6	203851.011709	19.611511	0.633923	0	0
0	0	0	32.773009	6.388224	20.279928	6.388224	2.789314E+10	4.141654E-6	241449.422758	19.59318	0.631645	0	0
0	0	0	32.079195	6.388353	19.362033	6.388353	2.105397E+10	3.275332E-6	305312.553371	19.581596	0.629347	0	0
0	0	0	31.383871	6.38846	18.442175	6.38846	1.588196E+10	2.57288E-6	388669.469367	19.56998	0.627307	0	0
0	0	0	30.670945	6.388511	17.499147	6.388511	1.189529E+10	1.965359E-6	508812.986931	19.588598	0.62495	0	0
0	0	0	29.95018	6.388709	16.545436	6.388709	8.881059E+9	1.591313E-6	628411.973681	19.597233	0.622572	0	0
0	0	0	29.210466	6.388773	15.566935	6.388773	6.579882E+9	1.212146E-6	824982.904606	19.61148	0.620096	0	0
0	0	0	28.447393	6.388963	14.55726	6.388963	4.829013E+9	9.707694E-7	1030110.806789	19.6035	0.617739	0	0
0	0	0	27.674275	6.389055	13.534501	6.389055	3.529634E+9	7.42227E-7	1347296.641531	19.576607	0.615699	0	0
0	0	0	26.887272	6.389253	12.493133	6.389253	2.565406E+9	5.986293E-7	1670483.011962	19.556795	0.613619	0	0
0	0	0	26.088876	6.389253	11.437132	6.389253	1.855993E+9	4.331538E-7	2308648.784334	19.541555	0.611677	0	0
0	0	0	25.29681	6.389408	10.389142	6.389408	1.346205E+9	3.437899E-7	2908753.119773	19.551071	0.60932	0	0
0	0	0	24.511849	6.389436	9.350838	6.389436	9.792576E+8	2.544565E-7	3929944.948154	19.561129	0.607003	0	0
0	0	0	23.72505	6.389464	8.310102	6.389464	7.118019E+8	1.882493E-7	5312103.445878	19.561964	0.604863	0	0
0	0	0	22.922815	6.389697	7.248446	6.389697	5.14166E+8	1.592793E-7	6278279.000448	19.568278	0.602526	0	0
0	0	0	22.142673	6.389711	6.216536	6.389711	3.747465E+8	1.17312E-7	8524278.703139	19.563339	0.600188	0	0
0	0	0	21.370494	6.38964	5.195372	6.38964	2.740148E+8	8.150587E-8	1.226906E+7	19.527734	0.598306	0	0
0	0	0	20.612036	6.39021	4.190717	6.39021	2.014774E+8	1.005023E-7	9950019.836538	19.510734	0.596306	0	0
0	0	0	19.865911	6.39021	3.203816	6.39021	1.488847E+8	7.426937E-8	1.34645E+7	19.501113	0.594226	0	0
0	0	0	19.125993	6.390217	2.225107	6.390217	1.102978E+8	5.548541E-8	1.802276E+7	19.517407	0.591948	0	0
0	0	0	18.401837	6.390076	1.267644	6.390076	8.223546E+7	3.540143E-8	2.824744E+7	19.525848	0.589808	0	0
0	0	0	17.697325	6.390372	0.334986	6.390372	6.180306E+7	3.81683E-8	2.619976E+7	19.530744	0.58761	0	0
0	0	0	17.00588	6.390168	-0.579033	6.390168	4.669408E+7	2.21814E-8	4.508282E+7	19.531006	0.585371	0	0
0	0	0	16.334158	6.390252	-1.467753	6.390252	3.556203E+7	1.867719E-8	5.354123E+7	19.513123	0.58343	0	0
0	0	0	15.685673	6.390245	-2.325486	6.390245	2.734026E+7	1.423391E-8	7.025476E+7	19.494891	0.581449	0	0
0	0	0	15.056177	6.39052	-3.158904	6.39052	2.118177E+7	1.671352E-8	5.98318E+7	19.471101	0.579607	0	0
0	0	0	14.439177	6.390456	-3.974838	6.390456	1.649386E+7	1.163069E-8	8.597945E+7	19.467186	0.577507	0	0
0	0	0	13.836511	6.390639	-4.772525	6.390639	1.291832E+7	1.314833E-8	7.605531E+7	19.476502	0.575427	0	0
0	0	0	13.250465	6.390484	-5.547246	6.390484	1.01863E+7	7.539209E-9	1.326399E+8	19.488853	0.573208	0	0
0	0	0	12.690269	6.390365	-6.287871	6.390365	8116672.875	4.961478E-9	2.015529E+8	19.486394	0.571227	0	0
0	0	0	12.143467	6.390491	-7.01151	6.390491	6502768.625	4.873353E-9	2.051975E+8	19.476256	0.569326	0	0
0	0	0	11.617573	6.390499	-7.707138	6.390499	5254120.75	3.987655E-9	2.507739E+8	19.461965	0.567305	0	0
0	0	0	11.107361	6.390548	-8.382154	6.390548	4272311.75	3.559333E-9	2.809516E+8	19.442921	0.565423	0	0
0	0	0	10.615076	6.390695	-9.033762	6.390695	3499309.875	4.124296E-9	2.424656E+8	19.432904	0.563621	0	0
0	0	0	10.139411	6.390499	-9.662326	6.390499	2885548.375	2.190012E-9	4.566186E+8	19.427046	0.56168	0	0
0	0	0	9.672976	6.390731	-10.280012	6.390731	2388357.75	3.12331E-9	3.201731E+8	19.44345	0.55954	0	0
0	0	0	9.229531	6.390773	-10.866701	6.390773	1995347.75	3.004321E-9	3.328539E+8	19.450924	0.557539	0	0
0	0	0	8.801401	6.390702	-11.432779	6.390702	1677390.625	2.016806E-9	4.958336E+8	19.44165	0.555539	0	0
0	0	0	8.389768	6.390864	-11.977772	6.390864	1419563.25	3.180402E-9	3.144257E+8	19.433945	0.553538	0	0
0	0	0	7.993734	6.390611	-12.500806	6.390611	1208988.125	1.151946E-9	8.680963E+8	19.413636	0.551676	0	0
0	0	0	7.608686	6.390745	-13.010549	6.390745	1034245.375	1.414492E-9	7.069674E+8	19.393181	0.550012	0	0
0	0	0	7.235399	6.390794	-13.504466	6.390794	888988	1.448112E-9	6.905542E+8	19.387689	0.54811	0	0
0	0	0	6.878406	6.390513	-13.975754	6.390513	769196.375	5.990232E-10	1.669384E+9	19.382998	0.546328	0	0
0	0	0	6.533704	6.390695	-14.432296	6.390695	668871.875	7.883356E-10	1.268495E+9	19.404277	0.54403	0	0
0	0	0	6.204602	6.390935	-14.868396	6.390935	585322.625	2.099441E-9	4.763172E+8	19.402738	0.542029	0	0
0	0	0	5.88432	6.390794	-15.291578	6.390794	514044.625	8.373504E-10	1.194243E+9	19.39524	0.540127	0	0
0	0	0	5.572533	6.390984	-15.704621	6.390984	453003.875	2.804701E-9	3.565443E+8	19.375222	0.538245	0	0
0	0	0	5.270424	6.390836	-16.103739	6.390836	400781	7.80693E-10	1.280913E+9	19.343135	0.536522	0	0
0	0	0	4.976033	6.390899	-16.493352	6.390899	355689.875	9.810161E-10	1.019351E+9	19.325706	0.534838	0	0
0	0	0	4.67666	6.390871	-16.889248	6.390871	315034.75	7.333349E-10	1.363633E+9	19.332515	0.532937	0	0
0	0	0	4.399175	6.390935	-17.256501	6.390935	281513.75	1.009737E-9	9.903571E+8	19.347017	0.530976	0	0
0	0	0	4.125897	6.390794	-17.617498	6.390794	251988.875	4.104761E-10	2.436195E+9	19.360642	0.528935	0	0
0	0	0	3.857233	6.390836	-17.973012	6.390836	225982.875	4.401987E-10	2.271701E+9	19.360046	0.526934	0	0
0	0	0	3.602739	6.391033	-18.310315	6.391033	203828.375	4.608103E-9	2.17009E+8	19.337755	0.525251	0	0
0	0	0	3.352575	6.390991	-18.641073	6.390991	184168.875	1.272226E-9	7.860237E+8	19.312684	0.523428	0	0
0	0	0	3.110414	6.390998	-18.961413	6.390998	166946.375	1.304204E-9	7.667512E+8	19.297274	0.521705	0	0
0	0	0	2.874501	6.391413	-19.274903	6.391413	151718.25	-1.763091E-10	-5.671855E+9	19.28472	0.519962	0	0
0	0	0	2.646387	6.390942	-19.575004	6.390942	138316	5.278343E-10	1.894534E+9	19.290936	0.5181	0	0
0	0	0	2.426523	6.391082	-19.866317	6.391082	126520	-1.731948E-9	-5.773845E+8	19.293939	0.516317	0	0
0	0	0	2.242759	6.390928	-20.10885	6.390928	117436.25	3.97343E-10	2.516717E+9	19.30509	0.514376	0	0
0	0	0	2.095257	6.391139	-20.304695	6.391139	110619.125	-5.34163E-10	-1.872088E+9	19.300252	0.512632	0	0
0	0	0	1.947388	6.391139	-20.500289	6.391139	104182.25	-5.030803E-10	-1.987754E+9	19.285889	0.510869	0	0
0	0	0	1.805521	6.391251	-20.688339	6.391251	98359	-2.069998E-10	-4.830923E+9	19.256923	0.509146	0	0
0	0	0	1.661776	6.39097	-20.877485	6.39097	92790.625	4.757876E-10	2.101778E+9	19.236131	0.50764	0	0
0	0	0	1.525341	6.391075	-21.058326	6.391075	87797.25	-1.559566E-9	-6.41204E+8	19.236926	0.505759	0	0
0	0	0	1.387355	6.391082	-21.240872	6.391082	83020.25	-1.136474E-9	-8.799143E+8	19.23947	0.504075	0	0
0	0	0	1.255289	6.391132	-21.415736	6.391132	78692	-4.134417E-10	-2.418721E+9	19.247771	0.502213	0	0
0	0	0	1.125837	6.3913	-21.587568	6.3913	74668.375	-1.260336E-10	-7.93439E+9	19.260297	0.500252	0	0
0	0	0	1.001326	6.39111	-21.751589	6.39111	70992.625	-5.068378E-10	-1.973018E+9	19.248837	0.498627	0	0
0	0	0	0.881634	6.39123	-21.910338	6.39123	67629.75	-1.591661E-10	-6.282745E+9	19.224231	0.496983	0	0
0	0	0	0.76133	6.390942	-22.068441	6.390942	64410.25	2.457991E-10	4.068364E+9	19.194724	0.495438	0	0
0	0	0	0.654215	6.391117	-22.210754	6.391117	61672.875	-3.932606E-10	-2.542843E+9	19.178371	0.493715	0	0
0	0	0	0.544528	6.39123	-22.356246	6.39123	58990.375	-1.388334E-10	-7.202878E+9	19.171175	0.49213	0	0
0	0	0	0.44358	6.391124	-22.489396	6.391124	56624.75	-3.262185E-10	-3.06543E+9	19.18388	0.490268	0	0
0	0	0	0.355659	6.391167	-22.605845	6.391167	54641.875	-1.993445E-10	-5.016441E+9	19.187075	0.488545	0	0
0	0	0	0.279172	6.39111	-22.706816	6.39111	52973.375	-3.781929E-10	-2.644153E+9	19.205026	0.486742	0	0
0	0	0	0.218285	6.391096	-22.787304	6.391096	51681.75	-4.850004E-10	-2.061854E+9	19.195783	0.485197	0	0
0	0	0	0.176917	6.391026	-22.841769	6.391026	50822.125	8.333231E-10	1.200015E+9	19.172684	0.483513	0	0
0	0	0	0.127791	6.391117	-22.90708	6.391117	49819.875	-3.176792E-10	-3.147829E+9	19.15076	0.481948	0	0
0	0	0	0.110109	6.391174	-22.930672	6.391174	49464	-1.700597E-10	-5.880286E+9	19.124878	0.480502	0	0
0	0	0	0.087526	6.391061	-22.960138	6.391061	49013.25	-2.150981E-9	-4.649041E+8	19.119862	0.478878	0	0
0	0	0	0.055224	6.391019	-23.002712	6.391019	48375.5	6.222566E-10	1.607054E+9	19.12998	0.477174	0	0
0	0	0	0.041666	6.391244	-23.021458	6.391244	48110.375	-1.049505E-10	-9.528298E+9	19.140512	0.475471	0	0
0	0	0	0.037011	6.390878	-23.026296	6.390878	48019.625	1.163162E-10	8.597257E+9	19.14782	0.473727	0	0
0	0	0	0.029375	6.391103	-23.037209	6.391103	47871.125	-3.882021E-10	-2.575978E+9	19.126015	0.472123	0	0
0	0	0	0.014796	6.391061	-23.056341	6.391061	47589	-2.088477E-9	-4.788178E+8	19.110272	0.470499	0	0
0	0	0	-0.002886	6.391132	-23.079984	6.391132	47249.125	-2.482433E-10	-4.028307E+9	19.090359	0.469112	0	0
0	0	0	-0.018404	6.391195	-23.100739	6.391195	46952.75	-1.376402E-10	-7.26532E+9	19.074416	0.467606	0	0
0	0	0	-0.027552	6.391047	-23.112305	6.391047	46779	4.362475E-9	2.292277E+8	19.069955	0.466002	0	0
0	0	0	-0.032942	6.391117	-23.119689	6.391117	46676.875	-2.976377E-10	-3.359789E+9	19.076935	0.464338	0	0
0	0	0	-0.034126	6.391174	-23.121459	6.391174	46654.375	-1.604001E-10	-6.234409E+9	19.082096	0.462793	0	0
0	0	0	-0.036413	6.39123	-23.124687	6.39123	46611.25	-1.096992E-10	-9.115835E+9	19.08195	0.461109	0	0
0	0	0	-0.038332	6.391089	-23.126718	6.391089	46574.875	-5.186196E-10	-1.928196E+9	19.063561	0.459584	0	0
0	0	0	-0.043478	6.390921	-23.132914	6.390921	46477.875	1.488204E-10	6.71951E+9	19.054298	0.458078	0	0
0	0	0	-0.044989	6.391181	-23.135853	6.391181	46449.375	-1.509973E-10	-6.622634E+9	19.016112	0.456711	0	0
0	0	0	-0.050216	6.390991	-23.142081	6.390991	46351.125	3.201906E-10	3.12314E+9	19.009055	0.455127	0	0
0	0	0	-0.05532	6.390991	-23.148833	6.390991	46255.25	3.195283E-10	3.129613E+9	19.002768	0.4538	0	0
0	0	0	-0.058261	6.391061	-23.152976	6.391061	46200.125	-2.027525E-9	-4.932121E+8	19.014312	0.451838	0	0
0	0	0	-0.061405	6.391096	-23.157262	6.391096	46141.25	-4.330063E-10	-2.309435E+9	19.006276	0.450353	0	0
0	0	0	-0.067408	6.391019	-23.164923	6.391019	46029.125	5.92075E-10	1.688975E+9	18.999674	0.448986	0	0
0	0	0	-0.07092	6.391019	-23.169569	6.391019	45963.625	5.912325E-10	1.691382E+9	19.013913	0.447362	0	0
0	0	0	-0.076106	6.391061	-23.176581	6.391061	45867.125	-2.012911E-9	-4.967929E+8	18.990636	0.445995	0	0
0	0	0	-0.080067	6.391047	-23.18177	6.391047	45793.5	4.27057E-9	2.341608E+8	18.967258	0.444509	0	0
0	0	0	-0.082967	6.391174	-23.186063	6.391174	45739.625	-1.572552E-10	-6.359092E+9	18.941616	0.443142	0	0
0	0	0	-0.085907	6.391244	-23.190206	6.391244	45685.25	-9.966024E-11	-1.003409E+10	18.935429	0.441696	0	0
0	0	0	-0.088806	6.390794	-23.192414	6.390794	45631.5	7.433123E-11	1.34533E+10	18.948629	0.440092	0	0
0	0	0	-0.092237	6.39116	-23.198274	6.39116	45568.125	-1.770647E-10	-5.647653E+9	18.948646	0.438586	0	0
0	0	0	-0.094524	6.390949	-23.200536	6.390949	45525.875	1.856005E-10	5.387915E+9	18.949883	0.436883	0	0
0	0	0	-0.095054	6.391117	-23.201848	6.391117	45516.125	-2.902361E-10	-3.445471E+9	18.937463	0.435417	0	0
0	0	0	-0.097137	6.39111	-23.204578	6.39111	45477.625	-3.246785E-10	-3.07997E+9	18.922918	0.433991	0	0
0	0	0	-0.098444	6.391216	-23.206688	6.391216	45453.5	-1.161332E-10	-8.6108E+9	18.901677	0.432723	0	0
0	0	0	-0.098444	6.391096	-23.206255	6.391096	45453.5	-4.265522E-10	-2.344379E+9	18.880498	0.431455	0	0
0	0	0	-0.100363	6.391012	-23.208489	6.391012	45418.25	4.806327E-10	2.080591E+9	18.86676	0.42993	0	0
0	0	0	-0.101384	6.391335	-23.211009	6.391335	45399.375	-6.713682E-11	-1.489496E+10	18.866024	0.428424	0	0
0	0	0	-0.102283	6.391357	-23.212274	6.391357	45382.875	-6.246903E-11	-1.600793E+10	18.871694	0.426899	0	0
0	0	0	-0.103263	6.391089	-23.212604	6.391089	45364.875	-5.05146E-10	-1.979626E+9	18.884503	0.425374	0	0
0	0	0	-0.104488	6.391146	-23.214428	6.391146	45342.375	-2.025629E-10	-4.936739E+9	18.88546	0.424007	0	0
0	0	0	-0.105427	6.391335	-23.216357	6.391335	45325	-6.702683E-11	-1.49194E+10	18.866096	0.422482	0	0
0	0	0	-0.106366	6.391279	-23.217396	6.391279	45307.875	-8.356554E-11	-1.196666E+10	18.846447	0.421075	0	0
0	0	0	-0.107224	6.391279	-23.21853	6.391279	45292	-8.353626E-11	-1.197085E+10	18.812836	0.419906	0	0
0	0	0	-0.107632	6.391307	-23.219172	6.391307	45284.5	-7.433404E-11	-1.345279E+10	18.784465	0.41854	0	0
0	0	0	-0.10849	6.39116	-23.219772	6.39116	45268.875	-1.759019E-10	-5.684987E+9	18.777029	0.417054	0	0
0	0	0	-0.109184	6.391216	-23.220894	6.391216	45256.125	-1.156289E-10	-8.648354E+9	18.780127	0.415628	0	0
0	0	0	-0.110041	6.391103	-23.221621	6.391103	45240.375	-3.668685E-10	-2.725772E+9	18.805073	0.414003	0	0
0	0	0	-0.110164	6.390998	-23.221402	6.390998	45238.125	3.534055E-10	2.829611E+9	18.802535	0.412676	0	0
0	0	0	-0.111185	6.391124	-23.22321	6.391124	45219.375	-2.605115E-10	-3.838603E+9	18.791878	0.411309	0	0
0	0	0	-0.112247	6.391005	-23.224182	6.391005	45199.875	4.062854E-10	2.461324E+9	18.776587	0.409962	0	0
0	0	0	-0.112818	6.390984	-23.224862	6.390984	45189.5	2.797838E-10	3.574189E+9	18.735918	0.408833	0	0
0	0	0	-0.114003	6.391082	-23.226785	6.391082	45167.75	-6.183068E-10	-1.61732E+9	18.722332	0.407526	0	0
0	0	0	-0.114697	6.391153	-23.227957	6.391153	45155	-1.87678E-10	-5.328274E+9	18.729256	0.40608	0	0
0	0	0	-0.116616	6.391054	-23.23014	6.391054	45119.875	-7.480445E-9	-1.336819E+8	18.729963	0.404594	0	0
0	0	0	-0.117596	6.391117	-23.231665	6.391117	45102	-2.875954E-10	-3.477107E+9	18.731578	0.403227	0	0
0	0	0	-0.119311	6.391033	-23.233629	6.391033	45070.625	1.018947E-9	9.814051E+8	18.735677	0.401821	0	0
0	0	0	-0.120782	6.391167	-23.236057	6.391167	45043.75	-1.643286E-10	-6.085366E+9	18.724096	0.400434	0	0
0	0	0	-0.123028	6.391019	-23.238493	6.391019	45002.75	5.788727E-10	1.727495E+9	18.696168	0.399146	0	0
0	0	0	-0.124293	6.390921	-23.239812	6.390921	44979.75	1.440234E-10	6.943315E+9	18.67791	0.39778	0	0
0	0	0	-0.12658	6.39097	-23.243015	6.39097	44938	2.304214E-10	4.339875E+9	18.656376	0.396651	0	0
0	0	0	-0.129194	6.391047	-23.246752	6.391047	44890.375	4.186348E-9	2.388717E+8	18.645061	0.395442	0	0
0	0	0	-0.128459	6.390913	-23.245296	6.390913	44903.75	1.364593E-10	7.328192E+9	18.642213	0.393957	0	0
0	0	0	-0.129398	6.390836	-23.246258	6.390836	44886.625	8.743599E-11	1.143694E+10	18.643787	0.392491	0	0
0	0	0	-0.130337	6.391068	-23.24834	6.391068	44869.625	-1.134756E-9	-8.812468E+8	18.635432	0.391262	0	0
0	0	0	-0.130909	6.391258	-23.249783	6.391258	44859.25	-9.119226E-11	-1.096584E+10	18.664255	0.389618	0	0
0	0	0	-0.130664	6.390928	-23.248264	6.390928	44863.625	1.517951E-10	6.587827E+9	18.65957	0.38837	0	0
0	0	0	-0.129929	6.391082	-23.247851	6.391082	44877	-6.143266E-10	-1.627799E+9	18.635965	0.387241	0	0
0	0	0	-0.12948	6.390857	-23.246443	6.390857	44885.25	9.692317E-11	1.031745E+10	18.603034	0.386152	0	0
0	0	0	-0.128622	6.391167	-23.246428	6.391167	44900.875	-1.638074E-10	-6.10473E+9	18.575365	0.384904	0	0
0	0	0	-0.130011	6.391146	-23.248188	6.391146	44875.5	-2.004771E-10	-4.9881E+9	18.562728	0.383517	0	0
0	0	0	-0.128704	6.391153	-23.246485	6.391153	44899.375	-1.866156E-10	-5.35861E+9	18.55876	0.38223	0	0
0	0	0	-0.127928	6.391251	-23.245815	6.391251	44913.5	-9.452195E-11	-1.057955E+10	18.560687	0.380823	0	0
0	0	0	-0.127275	6.390899	-23.243679	6.390899	44925.375	1.239072E-10	8.070557E+9	18.569291	0.379436	0	0
0	0	0	-0.128908	6.390984	-23.246144	6.390984	44895.625	2.779643E-10	3.597584E+9	18.575923	0.378208	0	0
0	0	0	-0.129071	6.391019	-23.246488	6.391019	44892.625	5.774562E-10	1.731733E+9	18.554465	0.37698	0	0
0	0	0	-0.130296	6.390899	-23.247676	6.390899	44870.375	1.237555E-10	8.08045E+9	18.539848	0.375712	0	0
0	0	0	-0.129071	6.391012	-23.246462	6.391012	44892.625	4.750703E-10	2.104951E+9	18.52716	0.374524	0	0
0	0	0	-0.12948	6.391019	-23.247028	6.391019	44885.25	5.773613E-10	1.732018E+9	18.499717	0.373296	0	0
0	0	0	-0.129602	6.391117	-23.247546	6.391117	44883	-2.86199E-10	-3.494073E+9	18.46575	0.372266	0	0
0	0	0	-0.127969	6.391096	-23.245309	6.391096	44912.75	-4.214777E-10	-2.372605E+9	18.463509	0.370899	0	0
0	0	0	-0.127152	6.391237	-23.244738	6.391237	44927.625	-1.017256E-10	-9.830371E+9	18.467324	0.369631	0	0
0	0	0	-0.127805	6.391124	-23.245195	6.391124	44915.625	-2.587615E-10	-3.864562E+9	18.48181	0.368244	0	0
0	0	0	-0.127193	6.391328	-23.245122	6.391328	44926.875	-6.812604E-11	-1.467868E+10	18.480177	0.367115	0	0
0	0	0	-0.129521	6.391202	-23.247743	6.391202	44884.5	-1.254172E-10	-7.973387E+9	18.472812	0.365828	0	0
0	0	0	-0.13046	6.391061	-23.248477	6.391061	44867.375	-1.969037E-9	-5.078626E+8	18.452865	0.364639	0	0
0	0	0	-0.130541	6.391005	-23.248381	6.391005	44865.875	4.032832E-10	2.479647E+9	18.421583	0.36347	0	0
0	0	0	-0.132706	6.391174	-23.251855	6.391174	44826.5	-1.541158E-10	-6.488628E+9	18.403565	0.362361	0	0
0	0	0	-0.134666	6.391167	-23.254422	6.391167	44790.875	-1.634061E-10	-6.119723E+9	18.379106	0.361331	0	0
0	0	0	-0.13732	6.391061	-23.257552	6.391061	44742.75	-1.963567E-9	-5.092772E+8	18.378032	0.359964	0	0
0	0	0	-0.141527	6.391089	-23.263217	6.391089	44666.5	-4.973695E-10	-2.010578E+9	18.371054	0.358914	0	0
0	0	0	-0.143813	6.391223	-23.266726	6.391223	44625.125	-1.093363E-10	-9.146097E+9	18.378363	0.357548	0	0
0	0	0	-0.145079	6.390977	-23.267509	6.390977	44602.25	2.501942E-10	3.996896E+9	18.383258	0.356339	0	0
0	0	0	-0.144385	6.390998	-23.266668	6.390998	44614.75	3.485356E-10	2.869147E+9	18.354785	0.355329	0	0
0	0	0	-0.148591	6.391146	-23.272766	6.391146	44538.75	-1.989727E-10	-5.025814E+9	18.328753	0.35414	0	0
0	0	0	-0.151205	6.390977	-23.275612	6.390977	44491.625	2.495736E-10	4.006834E+9	18.304032	0.353071	0	0
0	0	0	-0.152185	6.391019	-23.277061	6.391019	44473.875	5.720698E-10	1.748038E+9	18.287529	0.352021	0	0
0	0	0	-0.15439	6.391272	-23.280894	6.391272	44434.125	-8.456733E-11	-1.18249E+10	18.27575	0.350793	0	0
0	0	0	-0.155248	6.391019	-23.281112	6.391019	44418.75	5.713607E-10	1.750208E+9	18.269248	0.349664	0	0
0	0	0	-0.157943	6.390913	-23.284295	6.390913	44370.25	1.34838E-10	7.416305E+9	18.285776	0.348336	0	0
0	0	0	-0.157861	6.390878	-23.28406	6.390878	44371.625	1.074798E-10	9.304078E+9	18.273473	0.347306	0	0
0	0	0	-0.15974	6.391019	-23.287054	6.391019	44337.875	5.703204E-10	1.7534E+9	18.289338	0.346019	0	0
0	0	0	-0.161822	6.391089	-23.290063	6.391089	44300.5	-4.93294E-10	-2.027189E+9	18.266487	0.344989	0	0
0	0	0	-0.162312	6.390808	-23.289693	6.390808	44291.625	7.631427E-11	1.310371E+10	18.239712	0.344018	0	0
0	0	0	-0.163578	6.391167	-23.292666	6.391167	44268.875	-1.615017E-10	-6.191884E+9	18.214391	0.343087	0	0
0	0	0	-0.165048	6.391103	-23.294382	6.391103	44242.625	-3.587774E-10	-2.787243E+9	18.196528	0.341918	0	0
0	0	0	-0.166233	6.391054	-23.29577	6.391054	44221.375	-7.331482E-9	-1.363981E+8	18.192339	0.34069	0	0
0	0	0	-0.166355	6.391089	-23.296059	6.391089	44219.125	-4.923879E-10	-2.030919E+9	18.171172	0.339759	0	0
0	0	0	-0.166437	6.391047	-23.296014	6.391047	44217.75	4.12362E-9	2.425053E+8	18.173792	0.338551	0	0
0	0	0	-0.1666	6.390928	-23.295798	6.390928	44214.75	1.495997E-10	6.684507E+9	18.179665	0.337303	0	0
0	0	0	-0.166968	6.390935	-23.296309	6.390935	44208.125	1.585663E-10	6.306512E+9	18.181448	0.336174	0	0
0	0	0	-0.166314	6.391103	-23.296056	6.391103	44219.875	-3.585929E-10	-2.788677E+9	18.177719	0.335005	0	0
0	0	0	-0.164558	6.390829	-23.292741	6.390829	44251.375	8.347421E-11	1.197975E+10	18.151488	0.333975	0	0
0	0	0	-0.163905	6.391265	-23.293454	6.391265	44263.125	-8.701664E-11	-1.149205E+10	18.131524	0.332905	0	0
0	0	0	-0.162231	6.390906	-23.289942	6.390906	44293.125	1.280822E-10	7.807488E+9	18.106207	0.332014	0	0
0	0	0	-0.163252	6.39104	-23.291776	6.39104	44274.875	1.611297E-9	6.206182E+8	18.085085	0.331063	0	0
0	0	0	-0.160924	6.391103	-23.288926	6.391103	44316.625	-3.593775E-10	-2.782589E+9	18.075755	0.329973	0	0
0	0	0	-0.161577	6.391054	-23.289612	6.391054	44304.875	-7.345325E-9	-1.36141E+8	18.065686	0.328785	0	0
0	0	0	-0.161373	6.391132	-23.289622	6.391132	44308.5	-2.327934E-10	-4.295654E+9	18.065316	0.327715	0	0
0	0	0	-0.160311	6.390921	-23.287454	6.390921	44327.625	1.419354E-10	7.045461E+9	18.066394	0.326606	0	0
0	0	0	-0.158188	6.391124	-23.285383	6.391124	44365.875	-2.555944E-10	-3.912449E+9	18.060526	0.325477	0	0
0	0	0	-0.159535	6.39097	-23.286606	6.39097	44341.5	2.273628E-10	4.398257E+9	18.056627	0.324427	0	0
0	0	0	-0.157739	6.390984	-23.28428	6.390984	44373.875	2.74734E-10	3.639885E+9	18.043232	0.323476	0	0
0	0	0	-0.159086	6.391089	-23.286444	6.391089	44349.625	-4.93841E-10	-2.024943E+9	18.024853	0.322486	0	0
0	0	0	-0.1588	6.391117	-23.286168	6.391117	44354.75	-2.828305E-10	-3.535686E+9	18.008374	0.321535	0	0
0	0	0	-0.158229	6.391054	-23.285183	6.391054	44365	-7.355293E-9	-1.359565E+8	17.987345	0.320445	0	0
0	0	0	-0.15733	6.391251	-23.284707	6.391251	44381.25	-9.340182E-11	-1.070643E+10	17.964545	0.319455	0	0
0	0	0	-0.155125	6.391153	-23.281434	6.391153	44420.875	-1.846268E-10	-5.416332E+9	17.970223	0.318445	0	0
0	0	0	-0.152797	6.391153	-23.278355	6.391153	44462.875	-1.848013E-10	-5.411216E+9	17.962319	0.317355	0	0
0	0	0	-0.153492	6.391321	-23.279884	6.391321	44450.375	-6.916062E-11	-1.44591E+10	17.956959	0.316246	0	0
0	0	0	-0.155003	6.391392	-23.282137	6.391392	44423.125	-5.482578E-11	-1.823959E+10	17.953423	0.315255	0	0
0	0	0	-0.155533	6.391153	-23.281974	6.391153	44413.625	-1.845966E-10	-5.417217E+9	17.938265	0.314146	0	0
0	0	0	-0.156595	6.39116	-23.283404	6.39116	44394.5	-1.725043E-10	-5.796956E+9	17.910498	0.313314	0	0
0	0	0	-0.156799	6.391244	-23.283979	6.391244	44390.75	-9.683635E-11	-1.03267E+10	17.875368	0.312442	0	0
0	0	0	-0.15831	6.391251	-23.286003	6.391251	44363.625	-9.336472E-11	-1.071068E+10	17.862514	0.311293	0	0
0	0	0	-0.158106	6.391181	-23.285479	6.391181	44367.25	-1.442288E-10	-6.93343E+9	17.867643	0.310263	0	0
0	0	0	-0.160352	6.391146	-23.288322	6.391146	44326.875	-1.980262E-10	-5.049837E+9	17.845028	0.30953	0	0
0	0	0	-0.163007	6.391237	-23.292164	6.391237	44279.25	-1.002575E-10	-9.974316E+9	17.840834	0.308599	0	0
0	0	0	-0.165457	6.391005	-23.294565	6.391005	44235.25	3.976147E-10	2.514998E+9	17.840768	0.307451	0	0
0	0	0	-0.164844	6.390998	-23.29373	6.390998	44246.25	3.456568E-10	2.893043E+9	17.842393	0.306302	0	0
0	0	0	-0.166151	6.391167	-23.296069	6.391167	44222.75	-1.613335E-10	-6.198342E+9	17.838485	0.305272	0	0
0	0	0	-0.168683	6.390942	-23.298604	6.390942	44177.5	1.685879E-10	5.931624E+9	17.814115	0.30436	0	0
0	0	0	-0.169663	6.391082	-23.300409	6.391082	44159.875	-6.045098E-10	-1.654233E+9	17.80574	0.303469	0	0
0	0	0	-0.170153	6.391117	-23.301184	6.391117	44151.125	-2.815321E-10	-3.551993E+9	17.766981	0.302696	0	0
0	0	0	-0.170847	6.391075	-23.30195	6.391075	44138.625	-7.84046E-10	-1.275435E+9	17.737157	0.301646	0	0
0	0	0	-0.170439	6.390956	-23.300977	6.390956	44146	1.931697E-10	5.176795E+9	17.708781	0.300834	0	0
0	0	0	-0.172072	6.391103	-23.303672	6.391103	44116.75	-3.577567E-10	-2.795196E+9	17.701496	0.299784	0	0
0	0	0	-0.172031	6.391012	-23.303287	6.391012	44117.5	4.668677E-10	2.141935E+9	17.704218	0.298834	0	0
0	0	0	-0.173257	6.391181	-23.305519	6.391181	44095.625	-1.433458E-10	-6.976139E+9	17.701337	0.297804	0	0
0	0	0	-0.173052	6.390963	-23.30446	6.390963	44099.25	2.082314E-10	4.80235E+9	17.716522	0.296793	0	0
0	0	0	-0.173787	6.391223	-23.306374	6.391223	44086.125	-1.080156E-10	-9.257918E+9	17.707861	0.295941	0	0
0	0	0	-0.17636	6.391096	-23.309319	6.391096	44040.125	-4.132886E-10	-2.419617E+9	17.694331	0.294793	0	0
0	0	0	-0.176197	6.391033	-23.308873	6.391033	44043	9.957149E-10	1.004304E+9	17.682827	0.293941	0	0
0	0	0	-0.176687	6.391132	-23.309878	6.391132	44034.375	-2.313532E-10	-4.322395E+9	17.656917	0.293208	0	0
0	0	0	-0.176319	6.39104	-23.309061	6.39104	44040.875	1.602781E-9	6.239157E+8	17.636367	0.292198	0	0
0	0	0	-0.176238	6.390984	-23.308749	6.390984	44042.375	2.726815E-10	3.667282E+9	17.59725	0.291445	0	0
0	0	0	-0.175666	6.391265	-23.309011	6.391265	44052.5	-8.660258E-11	-1.1547E+10	17.58484	0.290454	0	0
0	0	0	-0.174767	6.39111	-23.307263	6.39111	44068.625	-3.146192E-10	-3.178445E+9	17.580683	0.289424	0	0
0	0	0	-0.173216	6.391237	-23.305668	6.391237	44096.375	-9.984343E-11	-1.001568E+10	17.583692	0.288573	0	0
0	0	0	-0.174196	6.391117	-23.306532	6.391117	44078.75	-2.810706E-10	-3.557825E+9	17.589344	0.287503	0	0
0	0	0	-0.173093	6.39123	-23.305481	6.39123	44098.5	-1.037855E-10	-9.635259E+9	17.583499	0.286671	0	0
0	0	0	-0.17244	6.391033	-23.303904	6.391033	44110.125	9.972324E-10	1.002775E+9	17.5666	0.285621	0	0
0	0	0	-0.172031	6.391132	-23.30372	6.391132	44117.5	-2.317899E-10	-4.314251E+9	17.549976	0.284888	0	0
0	0	0	-0.172113	6.390998	-23.303345	6.390998	44116	3.446393E-10	2.901584E+9	17.542465	0.283937	0	0
0	0	0	-0.171705	6.391132	-23.303288	6.391132	44123.375	-2.318208E-10	-4.313677E+9	17.498533	0.283224	0	0
0	0	0	-0.169867	6.391096	-23.30073	6.391096	44156.25	-4.143784E-10	-2.413253E+9	17.467181	0.282293	0	0
0	0	0	-0.16999	6.391258	-23.301478	6.391258	44154	-8.975859E-11	-1.114099E+10	17.445005	0.281461	0	0
0	0	0	-0.171051	6.391167	-23.302551	6.391167	44135	-1.610133E-10	-6.210666E+9	17.448677	0.28053	0	0
0	0	0	-0.17003	6.391258	-23.301532	6.391258	44153.375	-8.975732E-11	-1.114115E+10	17.446816	0.27948	0	0
0	0	0	-0.170684	6.391005	-23.301479	6.391005	44141.625	3.967731E-10	2.520332E+9	17.443728	0.278628	0	0
0	0	0	-0.168846	6.391047	-23.299201	6.391047	44174.5	4.119587E-9	2.427428E+8	17.446594	0.277678	0	0
0	0	0	-0.168193	6.391082	-23.298464	6.391082	44186.25	-6.048709E-10	-1.653245E+9	17.449641	0.276647	0	0
0	0	0	-0.167499	6.3913	-23.298335	6.3913	44198.625	-7.460338E-11	-1.340422E+10	17.431994	0.275796	0	0
0	0	0	-0.164436	6.39097	-23.293088	6.39097	44253.625	2.269122E-10	4.40699E+9	17.427014	0.274944	0	0
0	0	0	-0.16513	6.391216	-23.294897	6.391216	44241.125	-1.130356E-10	-8.846768E+9	17.381947	0.274132	0	0
0	0	0	-0.165253	6.391209	-23.295033	6.391209	44238.875	-1.180849E-10	-8.468485E+9	17.336667	0.273478	0	0
0	0	0	-0.163456	6.391209	-23.292657	6.391209	44271.125	-1.18171E-10	-8.462316E+9	17.329193	0.272547	0	0
0	0	0	-0.165416	6.391146	-23.29502	6.391146	44236	-1.976202E-10	-5.060211E+9	17.310237	0.271774	0	0
0	0	0	-0.165008	6.391364	-23.295269	6.391364	44243.375	-5.952765E-11	-1.679892E+10	17.300021	0.271042	0	0
0	0	0	-0.165375	6.391117	-23.294865	6.391117	44236.75	-2.820781E-10	-3.545117E+9	17.298572	0.269972	0	0
0	0	0	-0.166355	6.39104	-23.295881	6.39104	44219.125	1.609268E-9	6.214006E+8	17.278985	0.269279	0	0
0	0	0	-0.167744	6.391209	-23.298328	6.391209	44194.25	-1.179658E-10	-8.477036E+9	17.275762	0.268248	0	0
0	0	0	-0.167784	6.391026	-23.297721	6.391026	44193.5	7.246345E-10	1.380006E+9	17.27716	0.267357	0	0
0	0	0	-0.170684	6.39116	-23.302039	6.39116	44141.625	-1.715217E-10	-5.830165E+9	17.294532	0.266386	0	0
0	0	0	-0.170888	6.391146	-23.302259	6.391146	44138	-1.971824E-10	-5.071446E+9	17.281974	0.265634	0	0
0	0	0	-0.172031	6.391047	-23.303415	6.391047	44117.5	4.114271E-9	2.430564E+8	17.247636	0.264881	0	0
0	0	0	-0.172603	6.391026	-23.304095	6.391026	44107.25	7.232203E-10	1.382705E+9	17.199183	0.264207	0	0
0	0	0	-0.173216	6.391089	-23.305134	6.391089	44096.375	-4.910211E-10	-2.036573E+9	17.18868	0.263118	0	0
0	0	0	-0.174604	6.391195	-23.307352	6.391195	44071.5	-1.291939E-10	-7.740302E+9	17.164545	0.262365	0	0
0	0	0	-0.174931	6.391068	-23.307326	6.391068	44065.625	-1.114423E-9	-8.973256E+8	17.140036	0.261652	0	0
0	0	0	-0.175707	6.390857	-23.307589	6.390857	44051.75	9.512335E-11	1.051267E+10	17.131907	0.26082	0	0
0	0	0	-0.175707	6.391068	-23.308353	6.391068	44051.75	-1.114072E-9	-8.976082E+8	17.122369	0.259988	0	0
0	0	0	-0.175993	6.391385	-23.309876	6.391385	44046.75	-5.55091E-11	-1.801506E+10	17.13596	0.258998	0	0
0	0	0	-0.176074	6.391061	-23.308813	6.391061	44045.25	-1.932957E-9	-5.173421E+8	17.155422	0.258106	0	0
0	0	0	-0.176319	6.391068	-23.309163	6.391068	44040.875	-1.113797E-9	-8.978299E+8	17.117165	0.257453	0	0
0	0	0	-0.176687	6.391075	-23.309674	6.391075	44034.375	-7.821942E-10	-1.278455E+9	17.095295	0.25668	0	0
0	0	0	-0.177504	6.390949	-23.310296	6.390949	44019.75	1.794604E-10	5.572261E+9	17.08215	0.255828	0	0
0	0	0	-0.178688	6.391047	-23.312219	6.391047	43998.625	4.103185E-9	2.437131E+8	17.057957	0.254957	0	0
0	0	0	-0.178361	6.391082	-23.311915	6.391082	44004.375	-6.023812E-10	-1.660078E+9	17.023729	0.254303	0	0
0	0	0	-0.178933	6.39111	-23.312773	6.39111	43994.25	-3.140882E-10	-3.183819E+9	17.005267	0.253491	0	0
0	0	0	-0.179219	6.39104	-23.312896	6.39104	43989.125	1.600897E-9	6.246497E+8	16.990891	0.252619	0	0
0	0	0	-0.178279	6.39097	-23.311399	6.39097	44005.875	2.256419E-10	4.431801E+9	16.960817	0.251926	0	0
0	0	0	-0.17881	6.391251	-23.31312	6.391251	43996.375	-9.259183E-11	-1.080009E+10	16.945504	0.251153	0	0
0	0	0	-0.177994	6.391047	-23.311301	6.391047	44011	4.10434E-9	2.436446E+8	16.955737	0.250262	0	0
0	0	0	-0.177871	6.391061	-23.31119	6.391061	44013.125	-1.931547E-9	-5.177197E+8	0	0	0	0
0	0	0	-0.17734	6.391047	-23.310437	6.391047	44022.625	4.105424E-9	2.435802E+8	0	0	0	0
0	0	0	-0.177585	6.390977	-23.310506	6.390977	44018.25	2.469182E-10	4.049924E+9	0	0	0	0
0	0	0	-0.175993	6.390998	-23.308476	6.390998	44046.75	3.440983E-10	2.906146E+9	0	0	0	0
0	0	0	-0.176278	6.391033	-23.308981	6.391033	44041.625	9.956838E-10	1.004335E+9	0	0	0	0
0	0	0	-0.175584	6.39123	-23.308776	6.39123	44054	-1.036807E-10	-9.644992E+9	0	0	0	0
0	0	0	-0.174849	6.391174	-23.3076	6.391174	44067.125	-1.51505E-10	-6.600441E+9	0	0	0	0
0	0	0	-0.174931	6.391117	-23.307504	6.391117	44065.625	-2.809869E-10	-3.558885E+9	0	0	0	0
0	0	0	-0.174482	6.391068	-23.306732	6.391068	44073.625	-1.114625E-9	-8.971627E+8	0	0	0	0
0	0	0	-0.173461	6.391167	-23.305738	6.391167	44092	-1.608565E-10	-6.216722E+9	0	0	0	0
0	0	0	-0.173951	6.391209	-23.306539	6.391209	44083.125	-1.176691E-10	-8.498405E+9	0	0	0	0
0	0	0	-0.172848	6.390984	-23.304266	6.390984	44102.875	2.730561E-10	3.662251E+9	0	0	0	0
0	0	0	-0.17293	6.391195	-23.305138	6.391195	44101.5	-1.292819E-10	-7.735037E+9	0	0	0	0
0	0	0	-0.173093	6.391139	-23.30515	6.391139	44098.5	-2.12945E-10	-4.696049E+9	0	0	0	0
0	0	0	-0.171419	6.391167	-23.303037	6.391167	44128.5	-1.609896E-10	-6.21158E+9	0	0	0	0
0	0	0	-0.171501	6.391061	-23.302763	6.391061	44127	-1.936545E-9	-5.163837E+8	0	0	0	0
0	0	0	-0.170153	6.391314	-23.301897	6.391314	44151.125	-7.053374E-11	-1.417761E+10	0	0	0	0
0	0	0	-0.169622	6.39111	-23.300457	6.39111	44160.625	-3.15276E-10	-3.171824E+9	0	0	0	0
0	0	0	-0.169663	6.391244	-23.300994	6.391244	44159.875	-9.633271E-11	-1.038069E+10	0	0	0	0
0	0	0	-0.169173	6.390956	-23.299303	6.390956	44168.625	1.932687E-10	5.174144E+9	0	0	0	0
0	0	0	-0.169173	6.39116	-23.300041	6.39116	44168.625	-1.716266E-10	-5.826601E+9	0	0	0	0
0	0	0	-0.170643	6.391005	-23.301425	6.391005	44142.375	3.967799E-10	2.520289E+9	0	0	0	0
0	0	0	-0.170357	6.391237	-23.301887	6.391237	44147.5	-9.995919E-11	-1.000408E+10	0	0	0	0
0	0	0	-0.172072	6.391026	-23.303392	6.391026	44116.75	7.233761E-10	1.382407E+9	0	0	0	0
0	0	0	-0.172644	6.391174	-23.304683	6.391174	44106.5	-1.516404E-10	-6.594549E+9	0	0	0	0
0	0	0	-0.172481	6.391132	-23.304314	6.391132	44109.5	-2.317479E-10	-4.315034E+9	0	0	0	0
0	0	0	-0.174032	6.391146	-23.306418	6.391146	44081.75	-1.969311E-10	-5.077917E+9	0	0	0	0
0	0	0	-0.175013	6.390906	-23.306849	6.390906	44064.25	1.274203E-10	7.848041E+9	0	0	0	0
0	0	0	-0.174849	6.390942	-23.30676	6.390942	44067.125	1.681667E-10	5.946481E+9	0	0	0	0
0	0	0	-0.175298	6.390928	-23.307303	6.390928	44059.125	1.490731E-10	6.708118E+9	0	0	0	0
0	0	0	-0.176687	6.391033	-23.309522	6.391033	44034.375	9.955199E-10	1.0045E+9	0	0	0	0
0	0	0	-0.176932	6.39104	-23.309871	6.39104	44029.875	1.60238E-9	6.240715E+8	0	0	0	0
0	0	0	-0.177953	0	-0.177953	0	44011.75	0	0	0	0	0	0
0	0	0	-0.177585	0	-0.177585	0	44018.25	0	0	0	0	0	0
