Vload_(V)	ILoad_(A)	RsLoad (ohm)	SunsVoc_Voltage_(V)	SunsVoc_Current_(A)	Model_Voltage_(V)	Model_Current_(A)	Carrier_Density_(cm-3)	Lifetime_(s)	Inverse_Lifetime_(s-1)	Efficiency_(%)	Intensity_(suns)	Dark_IV_Voltage_(V)	Dark_IV_Current_(A)
2.658164	6.019646	0	52.004512	-0.223071	52.109363	-0.223071	7.761452E+15	0.000553	1708.102083	19.406562	1.110284	0	0
2.649809	6.024666	-0.464877	52.600686	-0.687502	52.898051	-0.687502	9.58171E+15	0.000635	1421.169481	19.363309	1.109452	0	0
3.181157	6.020418	-0.547022	52.740265	-0.498492	52.951501	-0.498492	1.005599E+16	0.000686	1289.239689	19.466063	1.110086	0	0
6.65223	6.019851	1.178875	52.697428	-0.138829	52.75663	-0.138829	9.908376E+15	0.000716	1234.241062	19.271278	1.110086	0	0
10.797169	6.000138	4.647794	52.600727	0.24764	52.493615	0.24764	9.581846E+15	0.000738	1201.751177	19.437619	1.10866	0	0
14.270225	5.99449	4.218604	52.491938	0.606779	52.225337	0.606779	9.225367E+15	0.000758	1177.694158	19.282942	1.108858	0	0
17.898815	5.996231	3.571976	52.367346	0.962435	51.936937	0.962435	8.830847E+15	0.000777	1157.908767	19.301992	1.107392	0	0
21.545504	5.992193	3.054369	52.242671	1.282808	51.658929	1.282808	8.450321E+15	0.000794	1141.569595	19.336519	1.106046	0	0
25.471663	5.910105	3.111893	52.119998	1.574901	51.391186	1.574901	8.089386E+15	0.00081	1126.532675	19.169789	1.105055	0	0
28.797308	5.985208	1.968388	51.993242	1.851478	51.121675	1.851478	7.73005E+15	0.000825	1112.954631	19.332264	1.10252	0	0
32.376733	5.978292	1.466007	51.872529	2.108704	50.863864	2.108704	7.400316E+15	0.000842	1097.108914	19.100818	1.102956	0	0
35.9835	5.949848	1.120969	51.742546	2.361182	50.593807	2.361182	7.058436E+15	0.000858	1082.447408	19.185423	1.100144	0	0
37.045198	5.931853	1.051512	51.610889	2.588995	50.329875	2.588995	6.725642E+15	0.000872	1071.571382	19.120049	1.100302	0	0
38.10119	5.902275	1.005838	51.482294	2.798626	50.074919	2.798626	6.413272E+15	0.000886	1060.754604	19.012862	1.098441	0	0
39.174776	5.86681	0.941947	51.358192	2.993341	49.82953	2.993341	6.123323E+15	0.0009	1048.766826	19.132753	1.097252	0	0
40.235177	5.810345	0.900916	51.238214	3.182047	49.589168	3.182047	5.853427E+15	0.000918	1032.888964	18.925188	1.097015	0	0
41.299204	5.739336	0.848236	51.101738	3.36461	49.329197	3.36461	5.558478E+15	0.000931	1022.469849	19.071029	1.094995	0	0
42.341656	5.646683	0.795351	50.976002	3.527147	49.089937	3.527147	5.297742E+15	0.000946	1011.045979	18.946611	1.095628	0	0
43.419859	5.506039	0.753426	50.851165	3.676195	48.856531	3.676195	5.048977E+15	0.000958	1001.067684	18.941094	1.094004	0	0
44.435477	5.334379	0.708434	50.732902	3.81055	48.637023	3.81055	4.822319E+15	0.000971	991.191536	19.026377	1.093688	0	0
45.452996	5.082675	0.678059	50.606717	3.941516	48.407519	3.941516	4.589845E+15	0.000983	982.83909	18.87194	1.093054	0	0
46.465993	4.772682	0.638903	50.486535	4.058183	48.191562	4.058183	4.377151E+15	0.000993	975.545778	19.059331	1.091351	0	0
47.432379	4.367646	0.613099	50.367251	4.166371	47.979835	4.166371	4.174205E+15	0.001002	969.139545	18.909525	1.091509	0	0
48.376028	3.859893	0.591741	50.242618	4.271587	47.761422	4.271587	3.970574E+15	0.00101	963.509413	18.991269	1.089766	0	0
49.29419	3.256919	0.572211	50.128071	4.367358	47.559777	4.367358	3.790783E+15	0.001021	955.971222	19.000773	1.089449	0	0
50.137293	2.57406	0.572147	50.003193	4.462346	47.343987	4.462346	3.602559E+15	0.001029	950.202735	18.900731	1.088103	0	0
50.936192	1.831758	0.590511	49.878029	4.550376	47.130538	4.550376	3.421802E+15	0.001036	945.811141	19.065262	1.086677	0	0
51.639626	1.123528	0.580609	49.76046	4.630464	46.930369	4.630464	3.258989E+15	0.001044	940.595854	18.884333	1.086518	0	0
42.540302	5.614138	0.798732	49.639502	4.706542	46.727102	4.706542	3.098314E+15	0.00105	936.785146	19.034296	1.083904	0	0
52.531326	0	0	49.52226	4.77708	46.530981	4.77708	2.948985E+15	0.001056	932.757194	18.966102	1.083785	0	0
0	0	0	49.40265	4.844472	46.332722	4.844472	2.802938E+15	0.001061	929.45668	18.92477	1.081884	0	0
0	0	0	49.28353	4.907764	46.13672	4.907764	2.663613E+15	0.001066	926.604037	19.044206	1.080577	0	0
0	0	0	49.165675	4.966677	45.944271	4.966677	2.531592E+15	0.00107	924.366017	18.866629	1.079587	0	0
0	0	0	49.047576	5.022753	45.752488	5.022753	2.404921E+15	0.001073	922.236054	19.045304	1.077171	0	0
0	0	0	48.931437	5.07417	45.565548	5.07417	2.285666E+15	0.001075	921.214257	18.90193	1.077131	0	0
0	0	0	48.815052	5.125351	45.37769	5.125351	2.171274E+15	0.00108	918.061461	18.942087	1.074952	0	0
0	0	0	48.698015	5.171761	45.191453	5.171761	2.061235E+15	0.001081	917.64839	18.993724	1.073883	0	0
0	0	0	48.584448	5.214811	45.011444	5.214811	1.95909E+15	0.001083	917.144665	18.828806	1.073328	0	0
0	0	0	48.464756	5.256974	44.823284	5.256974	1.856204E+15	0.001083	917.923064	19.005353	1.071467	0	0
0	0	0	48.352374	5.294585	44.64742	5.294585	1.763908E+15	0.001082	918.87465	18.829728	1.071744	0	0
0	0	0	48.234356	5.332547	44.463251	5.332547	1.671315E+15	0.001082	919.535359	18.946468	1.069645	0	0
0	0	0	48.118217	5.36686	44.283638	5.36686	1.584377E+15	0.00108	922.031045	18.928507	1.069447	0	0
0	0	0	48.005794	5.39914	44.10997	5.39914	1.504033E+15	0.001078	923.673736	18.869071	1.06814	0	0
0	0	0	47.886387	5.431066	43.926734	5.431066	1.422654E+15	0.001075	926.672712	19.019392	1.067031	0	0
0	0	0	47.775271	5.459293	43.75688	5.459293	1.350454E+15	0.001072	929.741663	18.844851	1.066793	0	0
0	0	0	47.658274	5.4877	43.578587	5.4877	1.277972E+15	0.001069	932.992386	19.01653	1.064733	0	0
0	0	0	47.542421	5.513627	43.403278	5.513627	1.20964E+15	0.001063	937.949643	18.913998	1.064773	0	0
0	0	0	47.429671	5.538483	43.232588	5.538483	1.146303E+15	0.00106	941.412157	18.934414	1.062594	0	0
0	0	0	47.31198	5.561887	43.055986	5.561887	1.083388E+15	0.001053	947.879701	19.034457	1.061604	0	0
0	0	0	47.204498	5.583662	42.89409	5.583662	1.028673E+15	0.00105	951.00557	18.882341	1.060495	0	0
0	0	0	47.088155	5.604732	42.720464	5.604732	9.722822E+14	0.001042	957.738361	19.071352	1.058119	0	0
0	0	0	46.977814	5.624401	42.555758	5.624401	9.214149E+14	0.001037	962.870117	18.900847	1.057881	0	0
0	0	0	46.864452	5.643012	42.387524	5.643012	8.716968E+14	0.00103	970.022499	18.986925	1.055346	0	0
0	0	0	46.753009	5.661159	42.221999	5.661159	8.252292E+14	0.001024	975.412044	18.99198	1.054554	0	0
0	0	0	46.638544	5.678309	42.052922	5.678309	7.798832E+14	0.001016	982.879128	18.895709	1.052534	0	0
0	0	0	46.529061	5.694343	41.891275	5.694343	7.386737E+14	0.00101	989.076777	19.061263	1.050434	0	0
0	0	0	46.412799	5.709574	41.720853	5.709574	6.971276E+14	0.001	999.060638	18.859685	1.050118	0	0
0	0	0	46.307645	5.723527	41.566374	5.723527	6.614314E+14	0.000994	1005.679221	18.999972	1.047503	0	0
0	0	0	46.192241	5.737382	41.397843	5.737382	6.24221E+14	0.000984	1015.857886	18.921076	1.04687	0	0
0	0	0	46.082635	5.750319	41.237781	5.750319	5.90701E+14	0.000976	1024.37494	18.893895	1.044889	0	0
0	0	0	45.9696	5.762753	41.073295	5.762753	5.579054E+14	0.000966	1034.587613	19.013921	1.043265	0	0
0	0	0	45.858034	5.774699	40.911053	5.774699	5.272219E+14	0.000957	1043.946035	18.826111	1.042632	0	0
0	0	0	45.746428	5.785972	40.74917	5.785972	4.98125E+14	0.000948	1054.132553	19.019218	1.039938	0	0
0	0	0	45.632698	5.796706	40.584699	5.796706	4.700413E+14	0.000938	1065.844942	18.870601	1.039898	0	0
0	0	0	45.519907	5.806682	40.422024	5.806682	4.436773E+14	0.000927	1078.698137	18.922767	1.037601	0	0
0	0	0	45.409158	5.816362	40.262257	5.816362	4.19163E+14	0.000917	1089.925177	18.968689	1.036492	0	0
0	0	0	45.296449	5.825722	40.099963	5.825722	3.955434E+14	0.000907	1101.862648	18.840704	1.035264	0	0
0	0	0	45.181372	5.834581	39.934747	5.834581	3.727424E+14	0.000896	1115.878114	19.028295	1.032848	0	0
0	0	0	45.069561	5.842934	39.774331	5.842934	3.517979E+14	0.000886	1128.979127	18.853639	1.032333	0	0
0	0	0	44.952809	5.851168	39.607146	5.851168	3.311352E+14	0.000874	1143.563693	18.991941	1.029521	0	0
0	0	0	44.845491	5.858231	39.453828	5.858231	3.131754E+14	0.000863	1158.476914	18.945027	1.028966	0	0
0	0	0	44.729188	5.865631	39.287802	5.865631	2.947726E+14	0.000851	1174.393476	18.885316	1.026828	0	0
0	0	0	44.619134	5.872342	39.130869	5.872342	2.783228E+14	0.000841	1189.627846	19.027515	1.024728	0	0
0	0	0	44.506139	5.878643	38.970201	5.878643	2.623587E+14	0.000828	1208.04402	18.843574	1.023698	0	0
0	0	0	44.395472	5.884683	38.812881	5.884683	2.475854E+14	0.000816	1225.304736	19.023499	1.020649	0	0
0	0	0	44.282559	5.890837	38.65229	5.890837	2.333455E+14	0.000806	1240.818484	18.900486	1.019936	0	0
0	0	0	44.171606	5.89653	38.494742	5.89653	2.201299E+14	0.000795	1257.18567	18.923376	1.017321	0	0
0	0	0	44.056569	5.901904	38.331825	5.901904	2.071979E+14	0.000783	1277.365352	18.987857	1.015895	0	0
0	0	0	43.951047	5.906615	38.182527	5.906615	1.959889E+14	0.000771	1296.388189	18.83526	1.014311	0	0
0	0	0	43.837195	5.911772	38.0213	5.911772	1.845588E+14	0.000761	1313.882108	19.019003	1.01138	0	0
0	0	0	43.725547	5.915896	37.864048	5.915896	1.73984E+14	0.000746	1340.459558	18.844832	1.010865	0	0
0	0	0	43.614268	5.920386	37.706878	5.920386	1.640349E+14	0.000735	1360.237398	18.948946	1.007934	0	0
0	0	0	43.500211	5.924644	37.546067	5.924644	1.544164E+14	0.000723	1382.99523	18.93109	1.007023	0	0
0	0	0	43.390279	5.92868	37.391082	5.92868	1.456704E+14	0.000712	1403.753675	18.832278	1.005082	0	0
0	0	0	43.274344	5.932343	37.228176	5.932343	1.369738E+14	0.000698	1432.75572	18.992278	1.002943	0	0
0	0	0	43.161717	5.93585	37.069922	5.93585	1.290148E+14	0.000685	1460.051198	18.795661	1.002151	0	0
0	0	0	43.04815	5.939326	36.91036	5.939326	1.214506E+14	0.000673	1486.656143	18.967614	0.999022	0	0
0	0	0	42.933971	5.942825	36.749881	5.942825	1.142862E+14	0.000662	1511.016544	18.878024	0.998349	0	0
0	0	0	42.815422	5.945913	36.583781	5.945913	1.072886E+14	0.000647	1544.883595	18.882737	0.995814	0	0
0	0	0	42.70353	5.948606	36.427197	5.948606	1.010723E+14	0.000633	1579.995436	18.981386	0.994071	0	0
0	0	0	42.584206	5.951565	36.260079	5.951565	9.483479E+13	0.00062	1613.793577	18.812546	0.993041	0	0
0	0	0	42.471374	5.954611	36.101748	5.954611	8.928718E+13	0.000611	1637.369022	19.006834	0.990308	0	0
0	0	0	42.349926	5.957128	35.932099	5.957128	8.367418E+13	0.000595	1679.593622	18.858652	0.989041	0	0
0	0	0	42.221536	5.959873	35.752618	5.959873	7.811977E+13	0.000581	1720.010795	18.928025	0.98607	0	0
0	0	0	42.102661	5.962344	35.586476	5.962344	7.330322E+13	0.000569	1757.247091	18.942293	0.984882	0	0
0	0	0	41.985541	5.964799	35.42273	5.964799	6.884579E+13	0.000558	1790.876469	18.83531	0.982624	0	0
0	0	0	41.866543	5.966955	35.256695	5.966955	6.45921E+13	0.000545	1833.769628	19.006211	0.980049	0	0
0	0	0	41.744973	5.96901	35.087202	5.96901	6.051563E+13	0.000532	1880.956893	18.807663	0.979257	0	0
0	0	0	41.623852	5.971124	34.91823	5.971124	5.670823E+13	0.00052	1923.46929	18.952264	0.976088	0	0
0	0	0	41.50322	5.973195	34.749948	5.973195	5.315274E+13	0.000509	1964.531567	18.8974	0.974702	0	0
0	0	0	41.384263	5.974826	34.584439	5.974826	4.986357E+13	0.000495	2020.613267	18.84708	0.972444	0	0
0	0	0	41.26449	5.97652	34.417709	5.97652	4.67562E+13	0.000482	2073.452764	18.982267	0.970187	0	0
0	0	0	41.141776	5.978593	34.246471	5.978593	4.377214E+13	0.000474	2108.330787	18.799094	0.969038	0	0
0	0	0	41.025106	5.979942	34.084358	5.979942	4.111092E+13	0.000461	2171.034392	18.985088	0.965909	0	0
0	0	0	40.899533	5.981514	33.909713	5.981514	3.842625E+13	0.000448	2230.736261	18.83055	0.965354	0	0
0	0	0	40.776247	5.983048	33.738236	5.983048	3.59603E+13	0.000437	2287.818876	18.889527	0.962344	0	0
0	0	0	40.655453	5.984363	33.570424	5.984363	3.369707E+13	0.000425	2353.783545	18.934055	0.960918	0	0
0	0	0	40.524612	5.985932	33.38846	5.985932	3.140538E+13	0.000414	2413.247478	18.805394	0.958977	0	0
0	0	0	40.398958	5.987128	33.214057	5.987128	2.935082E+13	0.000402	2490.542836	18.982611	0.956403	0	0
0	0	0	40.272201	5.988347	33.03809	5.988347	2.74139E+13	0.00039	2566.520629	18.794508	0.955809	0	0
0	0	0	40.14622	5.989616	32.86311	5.989616	2.56151E+13	0.000379	2635.385683	18.928145	0.952719	0	0
0	0	0	40.015135	5.990881	32.681089	5.990881	2.38682E+13	0.000369	2709.175928	18.88572	0.951689	0	0
0	0	0	39.884009	5.991965	32.499212	5.991965	2.223961E+13	0.000357	2798.015731	18.843447	0.948917	0	0
0	0	0	39.752842	5.993162	32.317121	5.993162	2.072139E+13	0.000348	2873.154769	18.984024	0.947015	0	0
0	0	0	39.617509	5.993931	32.129808	5.993931	1.926324E+13	0.000333	3000.824346	18.793128	0.945867	0	0
0	0	0	39.481891	5.995175	31.941492	5.995175	1.79047E+13	0.000325	3072.348478	18.977613	0.942777	0	0
0	0	0	39.341536	5.99633	31.746744	5.99633	1.659929E+13	0.000317	3157.589527	18.859144	0.941866	0	0
0	0	0	39.205917	5.996965	31.559163	5.996965	1.542825E+13	0.000303	3304.751612	18.887438	0.939212	0	0
0	0	0	39.063275	5.997944	31.361454	5.997944	1.428543E+13	0.000293	3415.005542	18.959384	0.93739	0	0
0	0	0	38.923042	5.99882	31.167181	5.99882	1.324432E+13	0.000283	3534.828229	18.814549	0.935766	0	0
0	0	0	38.776153	5.9996	30.963848	5.9996	1.223493E+13	0.000272	3683.156761	18.994322	0.932994	0	0
0	0	0	38.63053	6.00049	30.7621	6.00049	1.131008E+13	0.000263	3807.400941	18.814537	0.932281	0	0
0	0	0	38.477964	6.001288	30.550895	6.001288	1.041594E+13	0.000252	3962.048417	18.922179	0.929231	0	0
0	0	0	38.328951	6.0019	30.344816	6.0019	9.610818E+12	0.000241	4150.799196	18.902855	0.928399	0	0
0	0	0	38.17026	6.002676	30.125173	6.002676	8.821635E+12	0.000231	4324.412374	18.833059	0.926102	0	0
0	0	0	38.01161	6.003575	29.905404	6.003575	8.097366E+12	0.000224	4461.489669	18.991722	0.923963	0	0
0	0	0	37.852266	6.004251	29.684965	6.004251	7.429716E+12	0.000215	4657.890946	18.807469	0.922894	0	0
0	0	0	37.691737	6.004743	29.463133	6.004743	6.812708E+12	0.000203	4917.571771	18.971354	0.9202	0	0
0	0	0	37.525573	6.005363	29.233349	6.005363	6.227912E+12	0.000194	5155.367406	18.863526	0.919566	0	0
0	0	0	37.358592	6.005951	29.002473	6.005951	5.690766E+12	0.000185	5409.944566	18.882706	0.916873	0	0
0	0	0	37.189692	6.006598	28.768856	6.006598	5.194528E+12	0.000177	5646.620753	18.967972	0.915368	0	0
0	0	0	37.015279	6.007181	28.52772	6.007181	4.727435E+12	0.000169	5927.181307	18.819977	0.913942	0	0
0	0	0	36.842786	6.007849	28.289095	6.007849	4.306782E+12	0.000162	6157.496906	19.015041	0.911209	0	0
0	0	0	36.664044	6.008268	28.042204	6.008268	3.910318E+12	0.000153	6541.266732	18.837718	0.910734	0	0
0	0	0	36.478809	6.00869	27.78635	6.00869	3.5379E+12	0.000144	6961.314708	18.947225	0.907802	0	0
0	0	0	36.297372	6.009423	27.535267	6.009423	3.207511E+12	0.00014	7164.439517	18.931672	0.90701	0	0
0	0	0	36.105644	6.009723	27.270624	6.009723	2.891839E+12	0.00013	7713.664462	18.84658	0.905149	0	0
0	0	0	35.915182	6.010066	27.007653	6.010066	2.609007E+12	0.000121	8254.388567	19.008977	0.90297	0	0
0	0	0	35.717452	6.010494	26.73453	6.010494	2.344601E+12	0.000114	8774.587154	18.825825	0.902099	0	0
0	0	0	35.513881	6.01102	26.453201	6.01102	2.100344E+12	0.000108	9232.454342	19.006328	0.899049	0	0
0	0	0	35.311658	6.011456	26.173853	6.011456	1.882898E+12	0.000102	9778.235713	18.912049	0.898336	0	0
0	0	0	35.106495	6.011857	25.890495	6.011857	1.685279E+12	9.6245E-5	10390.149685	18.898587	0.896157	0	0
0	0	0	34.894309	6.012256	25.597449	6.012256	1.502681E+12	9.045575E-5	11055.129329	19.003968	0.894375	0	0
0	0	0	34.679304	6.012574	25.300635	6.012574	1.337825E+12	8.415464E-5	11882.886467	18.835602	0.893187	0	0
0	0	0	34.462053	6.012931	25.000657	6.012931	1.189608E+12	7.880421E-5	12689.677597	19.025024	0.890573	0	0
0	0	0	34.238473	6.013327	24.691883	6.013327	1.054196E+12	7.421208E-5	13474.894768	18.866963	0.890018	0	0
0	0	0	34.008155	6.01355	24.374087	6.01355	9.308001E+11	6.792659E-5	14721.77616	18.969589	0.887008	0	0
0	0	0	33.775672	6.013923	24.05306	6.013923	8.208855E+11	6.380566E-5	15672.590989	18.958354	0.886334	0	0
0	0	0	33.540086	6.014196	23.727908	6.014196	7.227356E+11	5.898716E-5	16952.842307	18.863918	0.884433	0	0
0	0	0	33.303397	6.014718	23.400816	6.014718	6.359409E+11	5.741064E-5	17418.375354	19.030789	0.882255	0	0
0	0	0	33.065483	6.01473	23.072869	6.01473	5.591984E+11	5.060562E-5	19760.649584	18.843235	0.881502	0	0
0	0	0	32.812827	6.015014	22.724146	6.015014	4.878135E+11	4.684653E-5	21346.29921	19.005971	0.878769	0	0
0	0	0	32.571197	6.015447	22.390359	6.015447	4.280845E+11	4.535046E-5	22050.494665	18.929685	0.878096	0	0
0	0	0	32.322216	6.015575	22.046948	6.015575	3.741789E+11	4.088383E-5	24459.549116	18.918441	0.875917	0	0
0	0	0	32.074297	6.015767	21.704885	6.015767	3.272487E+11	3.752903E-5	26646.041629	19.028478	0.874214	0	0
0	0	0	31.82597	6.015932	21.362301	6.015932	2.861411E+11	3.427355E-5	29177.016159	18.848804	0.873263	0	0
0	0	0	31.572415	6.016163	21.012391	6.016163	2.494912E+11	3.186544E-5	31381.957766	19.035971	0.870451	0	0
0	0	0	31.317799	6.016241	20.661281	6.016241	2.174106E+11	2.840399E-5	35206.318473	18.885954	0.869897	0	0
0	0	0	31.050565	6.016378	20.292668	6.016378	1.88167E+11	2.561725E-5	39036.189026	18.971274	0.867005	0	0
0	0	0	30.786229	6.016634	19.927833	6.016634	1.631123E+11	2.409289E-5	41506.013541	18.983984	0.866253	0	0
0	0	0	30.520097	6.016777	19.560719	6.016777	1.412564E+11	2.190341E-5	45654.981568	18.879513	0.864431	0	0
0	0	0	30.246901	6.017211	19.183327	6.017211	1.218626E+11	2.226348E-5	44916.598116	19.036771	0.862569	0	0
0	0	0	29.973418	6.017187	18.806374	6.017187	1.051153E+11	1.901988E-5	52576.562331	18.848131	0.861816	0	0
0	0	0	29.698057	6.017256	18.42666	6.017256	9.057744E+10	1.686102E-5	59308.40352	19.007805	0.858767	0	0
0	0	0	29.42094	6.017325	18.044523	6.017325	7.797616E+10	1.494393E-5	66916.816516	18.92968	0.858252	0	0
0	0	0	29.13978	6.017406	17.656786	6.017406	6.698142E+10	1.330453E-5	75162.395032	18.919245	0.855835	0	0
0	0	0	28.858171	6.017726	17.267968	6.017726	5.752298E+10	1.332882E-5	75025.383605	19.024551	0.85433	0	0
0	0	0	28.571212	6.017834	16.872177	6.017834	4.92575E+10	1.209146E-5	82702.987481	18.840373	0.853419	0	0
0	0	0	28.291522	6.018107	16.486077	6.018107	4.234575E+10	1.223783E-5	81713.822974	19.024076	0.850607	0	0
0	0	0	28.014405	6.018174	16.103922	6.018174	3.645451E+10	1.101756E-5	90764.206794	18.869193	0.850132	0	0
0	0	0	27.736308	6.018082	15.720731	6.018082	3.136624E+10	8.92359E-6	112062.515905	18.945663	0.84728	0	0
0	0	0	27.465275	6.018063	15.347136	6.018063	2.709145E+10	7.614598E-6	131326.688143	18.972959	0.846409	0	0
0	0	0	27.198613	6.018521	14.978597	6.018521	2.345459E+10	9.274185E-6	107826.191294	18.87067	0.844587	0	0
0	0	0	26.930684	6.018475	14.609328	6.018475	2.029207E+10	7.709979E-6	129702.03824	19.040692	0.842487	0	0
0	0	0	26.667819	6.018416	14.247069	6.018416	1.760409E+10	6.36716E-6	157055.883253	18.85332	0.841774	0	0
0	0	0	26.407199	6.018509	13.887592	6.018509	1.529072E+10	5.983596E-6	167123.576059	18.99462	0.838843	0	0
0	0	0	26.144212	6.018622	13.524805	6.018622	1.326436E+10	5.763337E-6	173510.577191	18.913105	0.838408	0	0
0	0	0	25.887391	6.018636	13.170725	6.018636	1.154496E+10	5.083532E-6	196713.617616	18.891177	0.836031	0	0
0	0	0	25.630447	6.018709	12.816348	6.018709	1.004777E+10	4.769443E-6	209668.107815	19.008376	0.834209	0	0
0	0	0	25.376321	6.018782	12.465854	6.018782	8.758067E+9	4.508813E-6	221787.886459	18.828606	0.833338	0	0
0	0	0	25.122766	6.018921	12.116003	6.018921	7.636269E+9	4.686695E-6	213369.975251	19.016165	0.830684	0	0
0	0	0	24.869988	6.018901	11.767563	6.018901	6.660953E+9	3.979888E-6	251263.361757	18.85563	0.830288	0	0
0	0	0	24.614882	6.019001	11.415654	6.019001	5.802898E+9	4.002005E-6	249874.737293	18.927463	0.827555	0	0
0	0	0	24.360306	6.018723	11.065307	6.018723	5.056829E+9	2.436953E-6	410348.514436	18.934879	0.826802	0	0
0	0	0	24.104996	6.019114	10.712467	6.019114	4.404929E+9	3.681821E-6	271604.701612	18.833357	0.824861	0	0
0	0	0	23.84748	6.019074	10.35754	6.019074	3.832498E+9	2.98128E-6	335426.430879	19.003515	0.822643	0	0
0	0	0	23.592252	6.019001	10.005841	6.019001	3.33858E+9	2.303894E-6	434047.772189	18.812341	0.822009	0	0
0	0	0	23.318402	6.019194	9.62787	6.019194	2.879187E+9	2.830666E-6	353273.803588	18.968757	0.819356	0	0
0	0	0	23.056394	6.019154	9.26675	6.019154	2.498953E+9	2.258792E-6	442714.513097	18.885094	0.819118	0	0
0	0	0	22.78871	6.019306	8.897363	6.019306	2.16229E+9	2.831124E-6	353216.653805	18.866452	0.816821	0	0
0	0	0	22.526294	6.019406	8.535357	6.019406	1.876318E+9	3.472589E-6	287969.612551	18.97767	0.815355	0	0
0	0	0	22.262449	6.019373	8.171687	6.019373	1.626909E+9	2.646793E-6	377815.69993	18.806698	0.814167	0	0
0	0	0	21.997256	6.019406	7.806004	6.019406	1.409626E+9	2.609716E-6	383183.495086	18.992781	0.81179	0	0
0	0	0	21.722344	6.019406	7.426999	6.019406	1.214962E+9	2.24964E-6	444515.562083	18.83299	0.811355	0	0
0	0	0	21.449107	6.019445	7.050208	6.019445	1.048128E+9	2.325695E-6	429978.988483	18.904526	0.808899	0	0
0	0	0	21.174562	6.019379	6.671869	6.019379	9.035654E+8	1.507188E-6	663487.08061	18.92642	0.807988	0	0
0	0	0	20.896261	6.019664	6.287501	6.019664	7.773608E+8	-1.907367E-5	-52428.306449	18.825763	0.806126	0	0
0	0	0	20.61163	6.019353	5.895853	6.019353	6.664992E+8	1.011432E-6	988697.107859	18.99661	0.803948	0	0
0	0	0	20.327775	6.019399	5.504406	6.019399	5.716877E+8	1.030608E-6	970300.635654	18.802823	0.803433	0	0
0	0	0	20.035671	6.019605	5.101191	6.019605	4.881816E+8	5.242025E-6	190765.966111	18.959402	0.8007	0	0
0	0	0	19.741321	6.019571	4.695467	6.019571	4.163673E+8	2.485152E-6	402389.89917	18.864275	0.800502	0	0
0	0	0	19.437905	6.019545	4.277229	6.019545	3.533813E+8	1.556266E-6	642563.544641	18.863486	0.798086	0	0
0	0	0	19.129915	6.019611	3.852452	6.019611	2.991828E+8	3.827799E-6	261246.742983	18.961973	0.796778	0	0
0	0	0	18.817025	6.01977	3.420679	6.01977	2.526267E+8	-9.048684E-7	-1105133.124671	18.792089	0.795551	0	0
0	0	0	18.500297	6.019684	2.984239	6.019684	2.128731E+8	-2.485339E-6	-402359.579674	18.976784	0.793134	0	0
0	0	0	18.174707	6.019757	2.535172	6.019757	1.785179E+8	-7.156706E-7	-1397290.913453	18.816539	0.792699	0	0
0	0	0	17.846095	6.019585	2.082578	6.019585	1.494629E+8	1.085822E-6	920960.973238	18.903502	0.790045	0	0
0	0	0	17.507192	6.019724	1.614982	6.019724	1.244426E+8	-7.110067E-7	-1406456.444047	18.90716	0.789332	0	0
0	0	0	17.162245	6.019658	1.139594	6.019658	1.032727E+8	-3.949684E-6	-253184.808542	18.809626	0.787589	0	0
0	0	0	16.806436	6.01977	0.648754	6.01977	8.520246E+7	-3.050981E-7	-3277634.617089	18.99199	0.785292	0	0
0	0	0	16.44299	6.019737	0.147774	6.019737	7.000447E+7	-3.417734E-7	-2925915.060614	18.783873	0.784975	0	0
0	0	0	16.073215	6.019651	-0.361785	6.019651	5.732096E+7	-5.080923E-6	-196814.624585	18.948663	0.782084	0	0
0	0	0	15.69515	6.019651	-0.883007	6.019651	4.67256E+7	-4.139746E-6	-241560.70529	18.842279	0.781846	0	0
0	0	0	15.310469	6.01975	-1.413625	6.01975	3.795274E+7	-1.61762E-7	-6181920.371242	18.832025	0.779628	0	0
0	0	0	14.913782	6.019691	-1.960354	6.019691	3.062759E+7	-3.043664E-7	-3285513.878296	18.932065	0.7784	0	0
0	0	0	14.503783	6.019876	-2.526128	6.019876	2.453901E+7	-4.741727E-8	-2.108936E+7	18.767288	0.777251	0	0
0	0	0	14.083411	6.019744	-3.105303	6.019744	1.955087E+7	-8.897161E-8	-1.123954E+7	18.962512	0.774558	0	0
0	0	0	13.646909	6.019923	-3.707607	6.019923	1.544146E+7	-2.483596E-8	-4.02642E+7	18.787394	0.77436	0	0
0	0	0	13.206527	6.019757	-4.314268	6.019757	1.217025E+7	-4.877376E-8	-2.050283E+7	18.872804	0.771785	0	0
0	0	0	12.757243	6.019856	-4.93397	6.019856	9545988	-2.018796E-8	-4.953447E+7	18.868185	0.771072	0	0
0	0	0	12.295136	6.019631	-5.570394	6.019631	7435870.5	2.229246E-7	4485821.410615	18.76412	0.769567	0	0
0	0	0	11.821759	6.019797	-6.223515	6.019797	5757005.5	-1.698931E-8	-5.886054E+7	18.935252	0.767547	0	0
0	0	0	11.336171	6.01973	-6.892777	6.01973	4427870.5	-2.330762E-8	-4.290442E+7	18.748878	0.766953	0	0
0	0	0	10.839557	6.019744	-7.577479	6.019744	3385358	-1.540528E-8	-6.491282E+7	18.923793	0.764339	0	0
0	0	0	10.325669	6.019697	-8.285812	6.019697	2564241.5	-2.21948E-8	-4.50556E+7	18.812849	0.764101	0	0
0	0	0	9.790424	6.019989	-9.024643	6.019989	1919991	-2.491447E-9	-4.013732E+8	18.808867	0.762081	0	0
0	0	0	9.236394	6.020035	-9.788618	6.020035	1423079.5	-1.626649E-9	-6.147608E+8	18.901916	0.760615	0	0
0	0	0	8.657617	6.019717	-10.58555	6.019717	1040757.5	-6.496603E-9	-1.539266E+8	18.725209	0.759823	0	0
0	0	0	8.038616	6.019783	-11.439155	6.019783	744777	-2.409606E-9	-4.150056E+8	18.932936	0.757209	0	0
0	0	0	7.36322	6.020048	-12.371168	6.020048	516967.5	-5.714675E-10	-1.749881E+9	18.766992	0.756773	0	0
0	0	0	6.510674	6.01987	-13.54596	6.01987	326069.5	-6.487149E-10	-1.541509E+9	18.8636	0.754199	0	0
0	0	0	5.550443	6.019982	-14.870183	6.019982	194033.5	-2.567444E-10	-3.894924E+9	18.847389	0.753605	0	0
0	0	0	4.657959	6.019976	-16.100606	6.019976	119770	-1.616641E-10	-6.185666E+9	18.747841	0.752258	0	0
0	0	0	3.89652	6.020035	-17.150592	6.020035	79356.5	-9.070819E-11	-1.102436E+10	18.917654	0.750198	0	0
0	0	0	3.258734	6.020042	-18.029918	6.020042	56215	-6.318113E-11	-1.582751E+10	18.72112	0.749565	0	0
0	0	0	2.72059	6.020048	-18.771871	6.020048	42025.5	-4.64559E-11	-2.152579E+10	18.902184	0.747069	0	0
0	0	0	2.271918	6.020115	-19.390683	6.020115	32974.5	-3.129941E-11	-3.194948E+10	18.794646	0.746515	0	0
0	0	0	1.895078	6.020029	-19.909915	6.020029	26897	-3.127681E-11	-3.197257E+10	18.802123	0.744534	0	0
0	0	0	1.580024	6.020082	-20.344467	6.020082	22685	-2.316982E-11	-4.315958E+10	18.872276	0.743465	0	0
0	0	0	1.316219	6.020088	-20.708193	6.020088	19670	-1.978945E-11	-5.053197E+10	18.715232	0.742118	0	0
0	0	0	1.091782	6.020101	-21.017671	6.020101	17422.5	-1.701846E-11	-5.875971E+10	18.893297	0.73994	0	0
0	0	0	0.905322	6.019969	-21.274252	6.019969	15752	-2.16979E-11	-4.60874E+10	18.714848	0.739742	0	0
0	0	0	0.750102	6.020048	-21.488543	6.020048	14484	-1.601093E-11	-6.245734E+10	18.8465	0.736929	0	0
0	0	0	0.616199	6.019956	-21.67281	6.019956	13473	-1.935243E-11	-5.167309E+10	18.798068	0.736731	0	0
0	0	0	0.503775	6.020108	-21.82837	6.020108	12678.5	-1.220695E-11	-8.192054E+10	18.737796	0.73483	0	0
0	0	0	0.407238	6.019976	-21.960972	6.019976	12034	-1.624334E-11	-6.156368E+10	18.871559	0.733206	0	0
0	0	0	0.327892	6.020082	-22.070758	6.020082	11528.5	-1.177489E-11	-8.49265E+10	18.68375	0.732374	0	0
0	0	0	0.261533	6.019995	-22.161926	6.019995	11122	-1.415872E-11	-7.062787E+10	18.86756	0.729839	0	0
0	0	0	0.204688	6.020187	-22.241013	6.020187	10786	-8.860644E-12	-1.128586E+11	18.739814	0.729483	0	0
0	0	0	0.15352	6.020048	-22.311039	6.020048	10491.5	-1.159753E-11	-8.622524E+10	18.777227	0.727344	0	0
0	0	0	0.121259	6.019995	-22.355318	6.019995	10310	-1.312501E-11	-7.619042E+10	18.83672	0.725997	0	0
0	0	0	0.07785	6.019876	-22.41472	6.019876	10071	-1.945981E-11	-5.138796E+10	18.685996	0.724888	0	0
0	0	0	0.055471	6.019976	-22.445944	6.019976	9950	-1.343039E-11	-7.445803E+10	18.860391	0.722828	0	0
0	0	0	0.029908	6.019982	-22.481213	6.019982	9813	-1.298452E-11	-7.701477E+10	18.657802	0.722749	0	0
0	0	0	0.000669	6.020062	-22.521821	6.020062	9659.5	-1.033755E-11	-9.673475E+10	18.809235	0.719739	0	0
0	0	0	-0.011419	6.020274	-22.539279	6.020274	9596.5	-6.801952E-12	-1.470166E+11	18.735115	0.719541	0	0
0	0	0	-0.018729	6.020168	-22.548961	6.020168	9558.5	-8.151355E-12	-1.22679E+11	18.697188	0.717402	0	0
0	0	0	-0.028039	6.019989	-22.561128	6.019989	9510.5	-1.234113E-11	-8.102987E+10	18.822453	0.716055	0	0
0	0	0	-0.041638	6.019969	-22.579802	6.019969	9441	-1.300469E-11	-7.689532E+10	18.635249	0.715342	0	0
0	0	0	-0.051439	6.019929	-22.593165	6.019929	9391	-1.475095E-11	-6.779226E+10	18.829209	0.712768	0	0
0	0	0	-0.062383	6.020022	-22.608601	6.020022	9335.5	-1.104691E-11	-9.052302E+10	18.667807	0.71257	0	0
0	0	0	-0.068304	6.020002	-22.61669	6.020002	9306	-1.162652E-11	-8.60103E+10	18.739562	0.709995	0	0
0	0	0	-0.07345	6.020042	-22.623933	6.020042	9280	-1.042997E-11	-9.587753E+10	18.772142	0.709243	0	0
0	0	0	-0.077942	6.019949	-22.629778	6.019949	9257.5	-1.358794E-11	-7.35947E+10	18.645392	0.707817	0	0
0	0	0	-0.079902	6.020095	-22.633027	6.020095	9247.5	-9.166356E-12	-1.090946E+11	18.817669	0.705836	0	0
0	0	0	-0.081617	6.019936	-22.634796	6.019936	9239	-1.418056E-11	-7.051907E+10	18.595471	0.705915	0	0
0	0	0	-0.08272	6.020042	-22.636713	6.020042	9233.5	-1.037771E-11	-9.636037E+10	18.770672	0.702786	0	0
0	0	0	-0.083373	6.019976	-22.637365	6.019976	9230.5	-1.245921E-11	-8.026189E+10	18.674819	0.702668	0	0
0	0	0	-0.084435	6.01987	-22.638432	6.01987	9225	-1.835311E-11	-5.448667E+10	18.661214	0.700489	0	0
0	0	0	-0.085496	6.019929	-22.640119	6.019929	9220	-1.448235E-11	-6.904957E+10	18.771843	0.69938	0	0
0	0	0	-0.085905	6.020002	-22.640955	6.020002	9217.5	-1.151595E-11	-8.683611E+10	18.59488	0.698548	0	0
0	0	0	-0.085987	6.019876	-22.640596	6.019876	9217.5	-1.781062E-11	-5.614626E+10	18.78488	0.69633	0	0
0	0	0	-0.086272	6.020009	-22.641487	6.020009	9216	-1.130381E-11	-8.846576E+10	18.616191	0.696211	0	0
0	0	0	-0.087171	6.019889	-22.642279	6.019889	9211.5	-1.683064E-11	-5.941545E+10	18.704081	0.693874	0	0
0	0	0	-0.087334	6.02024	-22.643819	6.02024	9210.5	-6.892014E-12	-1.450955E+11	18.689559	0.693597	0	0
0	0	0	-0.087988	6.019876	-22.643355	6.019876	9207.5	-1.77913E-11	-5.620724E+10	18.611143	0.691617	0	0
0	0	0	-0.0886	6.020009	-22.644696	6.020009	9204.5	-1.12897E-11	-8.857629E+10	18.759052	0.689953	0	0
0	0	0	-0.089621	6.020168	-22.646699	6.020168	9199	-7.844778E-12	-1.274733E+11	18.557656	0.689438	0	0
0	0	0	-0.08909	6.020048	-22.64552	6.020048	9202	-1.017209E-11	-9.830821E+10	18.732373	0.68718	0	0
0	0	0	-0.089825	6.019916	-22.646038	6.019916	9198.5	-1.515754E-11	-6.597378E+10	18.596799	0.68722	0	0
0	0	0	-0.090479	6.020055	-22.64746	6.020055	9195	-9.999775E-12	-1.000023E+11	18.633405	0.684923	0	0
0	0	0	-0.090887	6.019923	-22.647526	6.019923	9193	-1.478572E-11	-6.763281E+10	18.697638	0.684051	0	0
0	0	0	-0.092235	6.02028	-22.650724	6.02028	9186.5	-6.44335E-12	-1.551988E+11	18.55427	0.682823	0	0
0	0	0	-0.092725	6.020015	-22.650407	6.020015	9184	-1.106254E-11	-9.039515E+10	18.742716	0.680803	0	0
0	0	0	-0.093337	6.019962	-22.651053	6.019962	9181	-1.291134E-11	-7.745127E+10	18.542723	0.680962	0	0
0	0	0	-0.094807	6.020187	-22.653924	6.020187	9173.5	-7.535984E-12	-1.326967E+11	18.682841	0.678427	0	0
0	0	0	-0.096604	6.019942	-22.655483	6.019942	9165	-1.375271E-11	-7.271296E+10	18.633861	0.678031	0	0
0	0	0	-0.096604	6.019976	-22.655607	6.019976	9165	-1.23708E-11	-8.08355E+10	18.580016	0.676328	0	0
0	0	0	-0.097257	6.020154	-22.657178	6.020154	9161.5	-8.016363E-12	-1.247448E+11	18.70955	0.67506	0	0
0	0	0	-0.097992	6.020101	-22.657993	6.020101	9157.5	-8.945134E-12	-1.117926E+11	18.510338	0.674664	0	0
0	0	0	-0.097911	6.020022	-22.657582	6.020022	9158.5	-1.083747E-11	-9.22725E+10	18.704825	0.67201	0	0
0	0	0	-0.097747	6.020022	-22.657357	6.020022	9159	-1.083806E-11	-9.226746E+10	18.533844	0.672208	0	0
0	0	0	-0.099626	6.020042	-22.660021	6.020042	9150	-1.028386E-11	-9.723973E+10	18.618969	0.669634	0	0
0	0	0	-0.100565	6.020082	-22.661465	6.020082	9145	-9.340447E-12	-1.070613E+11	18.641501	0.669119	0	0
0	0	0	-0.100729	6.020247	-22.662311	6.020247	9144	-6.766865E-12	-1.477789E+11	18.524613	0.667693	0	0
0	0	0	-0.101055	6.020141	-22.662364	6.020141	9142.5	-8.213749E-12	-1.217471E+11	18.690824	0.666148	0	0
0	0	0	-0.101586	6.020148	-22.663121	6.020148	9140	-8.103115E-12	-1.234093E+11	18.500668	0.665673	0	0
0	0	0	-0.100279	6.019896	-22.660376	6.019896	9146.5	-1.626929E-11	-6.146548E+10	18.642985	0.663613	0	0
0	0	0	-0.100034	6.02024	-22.661329	6.02024	9147.5	-6.844872E-12	-1.460948E+11	18.560297	0.663217	0	0
0	0	0	-0.100443	6.020247	-22.661917	6.020247	9145.5	-6.767975E-12	-1.477547E+11	18.557379	0.661197	0	0
0	0	0	-0.101913	6.020121	-22.663472	6.020121	9138.5	-8.55339E-12	-1.169127E+11	18.655463	0.660009	0	0
0	0	0	-0.10081	6.020174	-22.66215	6.020174	9144	-7.700108E-12	-1.298683E+11	18.467526	0.659414	0	0
0	0	0	-0.101096	6.019962	-22.66175	6.019962	9142.5	-1.28572E-11	-7.777743E+10	18.665983	0.657078	0	0
0	0	0	-0.098809	6.019995	-22.658721	6.019995	9153.5	-1.165274E-11	-8.58167E+10	18.470596	0.657236	0	0
0	0	0	-0.099381	6.020108	-22.659932	6.020108	9151	-8.810648E-12	-1.13499E+11	18.598356	0.654661	0	0
0	0	0	-0.098278	6.020095	-22.658362	6.020095	9156.5	-9.076154E-12	-1.101788E+11	18.562747	0.654345	0	0
0	0	0	-0.097625	6.020048	-22.657287	6.020048	9159.5	-1.012511E-11	-9.876435E+10	18.489572	0.652839	0	0
0	0	0	-0.098238	6.020048	-22.658132	6.020048	9156.5	-1.012179E-11	-9.879671E+10	18.646282	0.651215	0	0
0	0	0	-0.098033	6.019995	-22.657652	6.019995	9157.5	-1.165784E-11	-8.577922E+10	18.437762	0.651017	0	0
0	0	0	-0.096849	6.020207	-22.656813	6.020207	9163.5	-7.261331E-12	-1.377158E+11	18.61451	0.64876	0	0
0	0	0	-0.096277	6.020009	-22.65528	6.020009	9166.5	-1.124309E-11	-8.894348E+10	18.479642	0.648839	0	0
0	0	0	-0.096441	6.020148	-22.656027	6.020148	9165.5	-8.125722E-12	-1.23066E+11	18.522161	0.6467	0	0
0	0	0	-0.095583	6.019976	-22.654199	6.019976	9170	-1.237755E-11	-8.079142E+10	18.588504	0.645591	0	0
0	0	0	-0.094276	6.019936	-22.652249	6.019936	9176.5	-1.408463E-11	-7.099937E+10	18.439957	0.644601	0	0
0	0	0	-0.094971	6.019949	-22.653255	6.019949	9172.5	-1.346317E-11	-7.427669E+10	18.611823	0.642739	0	0
0	0	0	-0.095501	6.019783	-22.653367	6.019783	9170	-2.966796E-11	-3.370639E+10	18.403494	0.642581	0	0
0	0	0	-0.09444	6.020068	-22.65297	6.020068	9175.5	-9.665564E-12	-1.034601E+11	18.554028	0.640046	0	0
0	0	0	-0.09444	6.01987	-22.652226	6.01987	9175.5	-1.825463E-11	-5.478062E+10	18.464541	0.640125	0	0
0	0	0	-0.094276	6.020055	-22.652695	6.020055	9176.5	-9.979656E-12	-1.002039E+11	18.444966	0.638303	0	0
0	0	0	-0.09493	6.020035	-22.653522	6.020035	9173	-1.048517E-11	-9.537282E+10	18.566997	0.637154	0	0
0	0	0	-0.094276	6.020022	-22.652571	6.020022	9176.5	-1.085877E-11	-9.20915E+10	18.38608	0.636402	0	0
0	0	0	-0.095093	6.019876	-22.653151	6.019876	9172	-1.772271E-11	-5.642479E+10	18.589693	0.634223	0	0
0	0	0	-0.094644	6.020015	-22.653053	6.020015	9174.5	-1.10511E-11	-9.048875E+10	18.405256	0.634223	0	0
0	0	0	-0.09689	6.019797	-22.655331	6.019797	9163.5	-2.704176E-11	-3.697985E+10	18.50625	0.632005	0	0
0	0	0	-0.097584	6.020035	-22.657181	6.020035	9160	-1.047031E-11	-9.550817E+10	18.490619	0.631569	0	0
0	0	0	-0.095706	6.019989	-22.654418	6.019989	9169	-1.189799E-11	-8.404783E+10	18.388903	0.630341	0	0
0	0	0	-0.097012	6.020154	-22.65684	6.020154	9162.5	-8.017238E-12	-1.247312E+11	18.5544	0.628718	0	0
0	0	0	-0.097707	6.019962	-22.657077	6.019962	9159	-1.28804E-11	-7.763731E+10	18.35172	0.628361	0	0
0	0	0	-0.099177	6.020181	-22.659923	6.020181	9152	-7.611416E-12	-1.313816E+11	18.523131	0.626103	0	0
0	0	0	-0.100974	6.020207	-22.6625	6.020207	9143	-7.245086E-12	-1.380246E+11	18.385017	0.62642	0	0
0	0	0	-0.101668	6.020042	-22.662836	6.020042	9139.5	-1.027206E-11	-9.735144E+10	18.413139	0.624281	0	0
0	0	0	-0.10277	6.020141	-22.664729	6.020141	9134	-8.206113E-12	-1.218604E+11	18.472634	0.62345	0	0
0	0	0	-0.102525	6.020002	-22.66387	6.020002	9135.5	-1.14135E-11	-8.761555E+10	18.336947	0.622301	0	0
0	0	0	-0.1042	6.020181	-22.666848	6.020181	9127	-7.590625E-12	-1.317415E+11	18.524965	0.620479	0	0
0	0	0	-0.104608	6.019995	-22.666716	6.019995	9125	-1.161646E-11	-8.608473E+10	18.332539	0.62032	0	0
0	0	0	-0.10518	6.020068	-22.667777	6.020068	9122	-9.609207E-12	-1.040669E+11	18.466835	0.618063	0	0
0	0	0	-0.105711	6.020373	-22.669651	6.020373	9119.5	-5.580495E-12	-1.791956E+11	18.373667	0.6183	0	0
0	0	0	-0.104771	6.020048	-22.66714	6.020048	9124	-1.008587E-11	-9.914863E+10	18.346208	0.616241	0	0
0	0	0	-0.105915	6.020201	-22.669287	6.020201	9118.5	-7.311938E-12	-1.367626E+11	18.4594	0.615013	0	0
0	0	0	-0.105139	6.020082	-22.667771	6.020082	9122.5	-9.317466E-12	-1.073253E+11	18.273107	0.614458	0	0
0	0	0	-0.106487	6.020048	-22.669505	6.020048	9115.5	-1.007647E-11	-9.924108E+10	18.475591	0.61224	0	0
0	0	0	-0.108202	6.020082	-22.671993	6.020082	9107.5	-9.302146E-12	-1.075021E+11	18.295813	0.612399	0	0
0	0	0	-0.107099	6.020042	-22.670324	6.020042	9112.5	-1.024172E-11	-9.763989E+10	18.376762	0.610339	0	0
0	0	0	-0.10763	6.020187	-22.671602	6.020187	9110	-7.483819E-12	-1.336216E+11	18.370746	0.609903	0	0
0	0	0	-0.108978	6.019995	-22.67274	6.019995	9103.5	-1.158909E-11	-8.628804E+10	18.276827	0.608517	0	0
0	0	0	-0.108161	6.020187	-22.672334	6.020187	9107.5	-7.481765E-12	-1.336583E+11	18.438179	0.606972	0	0
0	0	0	-0.105915	6.020134	-22.669039	6.020134	9118.5	-8.303253E-12	-1.204347E+11	18.23749	0.606695	0	0
0	0	0	-0.105466	6.020168	-22.668544	6.020168	9121	-7.778261E-12	-1.285634E+11	18.422098	0.604477	0	0
0	0	0	-0.104526	6.020128	-22.6671	6.020128	9125.5	-8.423833E-12	-1.187108E+11	18.278246	0.604477	0	0
0	0	0	-0.104159	6.020207	-22.666891	6.020207	9127.5	-7.232803E-12	-1.38259E+11	18.306381	0.602694	0	0
0	0	0	-0.103791	6.019883	-22.665168	6.019883	9129	-1.714634E-11	-5.832148E+10	18.353952	0.601902	0	0
0	0	0	-0.103505	6.020121	-22.665668	6.020121	9130.5	-8.545902E-12	-1.170152E+11	18.207923	0.600595	0	0
0	0	0	-0.104077	6.019909	-22.665662	6.019909	9127.5	-1.541882E-11	-6.485579E+10	18.401821	0.598813	0	0
0	0	0	-0.101954	6.020048	-22.663255	6.020048	9138.5	-1.01019E-11	-9.899131E+10	18.182459	0.59905	0	0
0	0	0	-0.101586	6.020181	-22.663245	6.020181	9140	-7.601436E-12	-1.315541E+11	18.341821	0.596674	0	0
0	0	0	-0.099748	6.020095	-22.660389	6.020095	9149	-9.06872E-12	-1.102691E+11	18.25094	0.596674	0	0
0	0	0	-0.098074	6.020227	-22.658577	6.020227	9157.5	-7.008516E-12	-1.426836E+11	18.237757	0.594812	0	0
0	0	0	-0.099912	6.020247	-22.661185	6.020247	9148.5	-6.770195E-12	-1.477062E+11	18.340653	0.593901	0	0
0	0	0	-0.099177	6.02028	-22.660295	6.02028	9152	-6.419152E-12	-1.557838E+11	18.161812	0.593109	0	0
0	0	0	-0.098115	6.019936	-22.657541	6.019936	9157	-1.40547E-11	-7.115056E+10	18.351813	0.591129	0	0
0	0	0	-0.097543	6.020029	-22.6571	6.020029	9160	-1.065158E-11	-9.388278E+10	18.180895	0.591129	0	0
0	0	0	-0.097012	6.019936	-22.656021	6.019936	9162.5	-1.406314E-11	-7.110785E+10	18.290924	0.58891	0	0
0	0	0	-0.097788	6.020088	-22.657661	6.020088	9159	-9.214621E-12	-1.085232E+11	18.250146	0.588871	0	0
0	0	0	-0.097911	6.020121	-22.657954	6.020121	9158.5	-8.572109E-12	-1.166574E+11	18.162992	0.587643	0	0
0	0	0	-0.098483	6.019976	-22.658197	6.019976	9155.5	-1.235798E-11	-8.091938E+10	18.32522	0.585979	0	0
0	0	0	-0.097135	6.020221	-22.657257	6.020221	9162	-7.09278E-12	-1.409884E+11	18.101123	0.585781	0	0
0	0	0	-0.097625	6.019982	-22.657039	6.019982	9159.5	-1.211981E-11	-8.250952E+10	18.300733	0.583365	0	0
0	0	0	-0.098156	6.020075	-22.658118	6.020075	9157	-9.497125E-12	-1.05295E+11	18.135468	0.583761	0	0
0	0	0	-0.097176	6.019863	-22.655973	6.019863	9162	-1.878418E-11	-5.32363E+10	18.199434	0.581543	0	0
0	0	0	-0.098605	6.019823	-22.657795	6.019823	9155	-2.297831E-11	-4.351931E+10	18.213375	0.581266	0	0
0	0	0	-0.09983	6.020068	-22.660402	6.020068	9148.5	-9.637122E-12	-1.037654E+11	18.101647	0.5798	0	0
0	0	0	-0.099871	6.020042	-22.660359	6.020042	9148.5	-1.028218E-11	-9.725567E+10	18.286419	0.578137	0	0
0	0	0	-0.100769	6.020095	-22.661796	6.020095	9144	-9.063764E-12	-1.103294E+11	18.064199	0.578335	0	0
0	0	0	-0.100075	6.020029	-22.660591	6.020029	9147.5	-1.063705E-11	-9.401107E+10	18.245944	0.575721	0	0
0	0	0	-0.101586	6.020068	-22.662823	6.020068	9140	-9.628168E-12	-1.038619E+11	18.126746	0.575958	0	0
0	0	0	-0.104976	6.020141	-22.667769	6.020141	9123.5	-8.196679E-12	-1.220006E+11	18.1221	0.574216	0	0
0	0	0	-0.103505	6.020015	-22.66527	6.020015	9130.5	-1.09981E-11	-9.092482E+10	18.203814	0.573106	0	0
0	0	0	-0.104281	6.019923	-22.665993	6.019923	9126.5	-1.467877E-11	-6.812562E+10	18.023151	0.572869	0	0
0	0	0	-0.105098	6.020055	-22.667615	6.020055	9122.5	-9.920929E-12	-1.00797E+11	18.229688	0.570651	0	0
0	0	0	-0.107385	6.020207	-22.671339	6.020207	9111.5	-7.220125E-12	-1.385018E+11	18.017593	0.570849	0	0
0	0	0	-0.106936	6.020154	-22.670521	6.020154	9113.5	-7.974363E-12	-1.254019E+11	18.151574	0.568512	0	0
0	0	0	-0.109304	6.01979	-22.672421	6.01979	9102	-2.809466E-11	-3.559396E+10	18.085445	0.568472	0	0
0	0	0	-0.107467	6.020002	-22.670682	6.020002	9111	-1.138289E-11	-8.785115E+10	18.034805	0.566888	0	0
0	0	0	-0.108814	6.020015	-22.67259	6.020015	9104.5	-1.096678E-11	-9.118447E+10	18.169752	0.565739	0	0
0	0	0	-0.108651	6.020075	-22.672588	6.020075	9105	-9.443193E-12	-1.058964E+11	17.97041	0.565541	0	0
0	0	0	-0.108569	6.019995	-22.672177	6.019995	9105.5	-1.159164E-11	-8.626909E+10	18.171514	0.563402	0	0
0	0	0	-0.110815	6.019889	-22.674877	6.019889	9094.5	-1.661687E-11	-6.017982E+10	17.998542	0.563363	0	0
0	0	0	-0.108814	6.020048	-22.672714	6.020048	9104.5	-1.006431E-11	-9.936099E+10	18.076389	0.561461	0	0
0	0	0	-0.109386	6.020035	-22.673452	6.020035	9101.5	-1.040344E-11	-9.612205E+10	18.082273	0.560828	0	0
0	0	0	-0.110407	6.020161	-22.675331	6.020161	9096.5	-7.857128E-12	-1.27273E+11	17.975089	0.559956	0	0
0	0	0	-0.110652	6.020161	-22.675669	6.020161	9095.5	-7.856264E-12	-1.27287E+11	18.14326	0.558412	0	0
0	0	0	-0.110284	6.0203	-22.675684	6.0203	9097	-6.186755E-12	-1.616356E+11	17.932767	0.558214	0	0
0	0	0	-0.109018	6.019962	-22.672672	6.019962	9103.5	-1.280235E-11	-7.811063E+10	18.102658	0.556154	0	0
0	0	0	-0.1091	6.020121	-22.673381	6.020121	9103	-8.520163E-12	-1.173687E+11	17.960334	0.556114	0	0
0	0	0	-0.109753	6.020009	-22.67386	6.020009	9100	-1.116153E-11	-8.959345E+10	17.995233	0.554332	0	0
0	0	0	-0.10763	6.020022	-22.670982	6.020022	9110	-1.078007E-11	-9.276374E+10	18.034549	0.553698	0	0
0	0	0	-0.106201	6.020128	-22.669408	6.020128	9117	-8.415987E-12	-1.188215E+11	17.891417	0.552827	0	0
0	0	0	-0.104976	6.019956	-22.667074	6.019956	9123.5	-1.310487E-11	-7.630751E+10	18.088466	0.551084	0	0
0	0	0	-0.105833	6.019995	-22.668405	6.019995	9119	-1.160882E-11	-8.614138E+10	17.879409	0.551005	0	0
0	0	0	-0.10375	6.019896	-22.665161	6.019896	9129	-1.623817E-11	-6.158331E+10	18.03306	0.549064	0	0
0	0	0	-0.103342	6.020035	-22.66512	6.020035	9131.5	-1.043773E-11	-9.580626E+10	17.915069	0.549301	0	0
0	0	0	-0.104486	6.020399	-22.668061	6.020399	9125.5	-5.387817E-12	-1.856039E+11	17.918474	0.547281	0	0
0	0	0	-0.102566	6.020154	-22.664497	6.020154	9135	-7.993176E-12	-1.251067E+11	18.004965	0.54645	0	0
0	0	0	-0.102648	6.019976	-22.663939	6.019976	9135	-1.233031E-11	-8.110097E+10	17.835308	0.545776	0	0
0	0	0	-0.100688	6.019936	-22.661088	6.019936	9144.5	-1.403552E-11	-7.124782E+10	18.036314	0.543915	0	0
0	0	0	-0.101137	6.019923	-22.661658	6.019923	9142	-1.47037E-11	-6.801011E+10	17.829462	0.543994	0	0
0	0	0	-0.098646	6.019956	-22.658347	6.019956	9154.5	-1.31494E-11	-7.60491E+10	17.95199	0.542013	0	0
0	0	0	-0.098728	6.020134	-22.65913	6.020134	9154	-8.335579E-12	-1.199677E+11	17.875646	0.541974	0	0
0	0	0	-0.099422	6.020088	-22.659913	6.020088	9150.5	-9.20607E-12	-1.08624E+11	17.83283	0.54031	0	0
0	0	0	-0.099095	6.019889	-22.658718	6.019889	9152.5	-1.672284E-11	-5.979846E+10	17.958396	0.539399	0	0
0	0	0	-0.098973	6.020108	-22.659369	6.020108	9153	-8.812574E-12	-1.134742E+11	17.764953	0.539003	0	0
0	0	0	-0.099585	6.020221	-22.660635	6.020221	9150	-7.083491E-12	-1.411733E+11	17.978396	0.536706	0	0
0	0	0	-0.098401	6.020141	-22.658704	6.020141	9155.5	-8.225429E-12	-1.215742E+11	17.789931	0.537102	0	0
0	0	0	-0.098809	6.019843	-22.658151	6.019843	9153.5	-2.065856E-11	-4.840609E+10	17.875583	0.535161	0	0
0	0	0	-0.098646	6.019923	-22.658223	6.019923	9154.5	-1.47238E-11	-6.791725E+10	17.851172	0.534567	0	0
0	0	0	-0.100402	6.020029	-22.661041	6.020029	9146	-1.06353E-11	-9.402649E+10	17.752012	0.533577	0	0
0	0	0	-0.100974	6.020048	-22.661904	6.020048	9143	-1.010687E-11	-9.894259E+10	17.921907	0.53219	0	0
0	0	0	-0.101137	6.020055	-22.662154	6.020055	9142	-9.942136E-12	-1.00582E+11	17.714089	0.531834	0	0
0	0	0	-0.102444	6.019962	-22.663608	6.019962	9135.5	-1.284736E-11	-7.783702E+10	17.909198	0.529655	0	0
0	0	0	-0.101668	6.019923	-22.662389	6.019923	9139.5	-1.469967E-11	-6.802872E+10	17.732221	0.530131	0	0
0	0	0	-0.103424	6.019982	-22.665034	6.019982	9131	-1.20821E-11	-8.276705E+10	17.777565	0.528348	0	0
0	0	0	-0.104281	6.020015	-22.66634	6.020015	9126.5	-1.099328E-11	-9.096467E+10	17.797742	0.527873	0	0
0	0	0	-0.105221	6.020002	-22.667585	6.020002	9122	-1.139663E-11	-8.774521E+10	17.66655	0.526843	0	0
0	0	0	-0.106977	6.019949	-22.669808	6.019949	9113.5	-1.337658E-11	-7.475755E+10	17.854889	0.52514	0	0
0	0	0	-0.107589	6.020022	-22.670925	6.020022	9110.5	-1.078067E-11	-9.275865E+10	17.655829	0.524982	0	0
0	0	0	-0.107671	6.020267	-22.671956	6.020267	9110	-6.525992E-12	-1.532334E+11	17.833391	0.52308	0	0
0	0	0	-0.108814	6.020333	-22.673781	6.020333	9104.5	-5.893481E-12	-1.69679E+11	17.698223	0.52312	0	0
0	0	0	-0.109018	6.020346	-22.674112	6.020346	9103.5	-5.781396E-12	-1.729686E+11	17.707989	0.521377	0	0
0	0	0	-0.10959	6.020082	-22.673908	6.020082	9100.5	-9.294996E-12	-1.075848E+11	0	0	0	0
0	0	0	-0.111142	6.020168	-22.67637	6.020168	9093	-7.754383E-12	-1.289593E+11	0	0	0	0
0	0	0	-0.11396	6.020313	-22.680801	6.020313	9079	-6.051954E-12	-1.652359E+11	0	0	0	0
0	0	0	-0.112694	6.020247	-22.678807	6.020247	9085.5	-6.723573E-12	-1.487304E+11	0	0	0	0
0	0	0	-0.113306	6.020187	-22.679428	6.020187	9082	-7.460817E-12	-1.340336E+11	0	0	0	0
0	0	0	-0.112612	6.020121	-22.678223	6.020121	9085.5	-8.503783E-12	-1.175947E+11	0	0	0	0
0	0	0	-0.113633	6.020015	-22.679233	6.020015	9080.5	-1.093787E-11	-9.142548E+10	0	0	0	0
0	0	0	-0.113184	6.020227	-22.679408	6.020227	9082.5	-6.951116E-12	-1.438618E+11	0	0	0	0
0	0	0	-0.114123	6.020088	-22.680182	6.020088	9078.5	-9.133633E-12	-1.094855E+11	0	0	0	0
0	0	0	-0.113837	6.020062	-22.679688	6.020062	9080	-9.717369E-12	-1.029085E+11	0	0	0	0
0	0	0	-0.113674	6.020002	-22.67924	6.020002	9080.5	-1.134479E-11	-8.814623E+10	0	0	0	0
0	0	0	-0.113225	6.020101	-22.678993	6.020101	9082.5	-8.871873E-12	-1.127158E+11	0	0	0	0
0	0	0	-0.111591	6.02026	-22.677337	6.02026	9090.5	-6.582226E-12	-1.519243E+11	0	0	0	0
0	0	0	-0.108283	6.020068	-22.672056	6.020068	9107	-9.593405E-12	-1.042383E+11	0	0	0	0
0	0	0	-0.109386	6.020194	-22.674048	6.020194	9101.5	-7.386492E-12	-1.353823E+11	0	0	0	0
0	0	0	-0.109427	6.020022	-22.673459	6.020022	9101.5	-1.077002E-11	-9.285037E+10	0	0	0	0
0	0	0	-0.10665	6.020207	-22.670326	6.020207	9115	-7.222898E-12	-1.384486E+11	0	0	0	0
0	0	0	-0.105915	6.020009	-22.668567	6.020009	9118.5	-1.118422E-11	-8.941168E+10	0	0	0	0
0	0	0	-0.106037	6.019976	-22.668612	6.019976	9118	-1.230736E-11	-8.125218E+10	0	0	0	0
0	0	0	-0.105956	6.019982	-22.668524	6.019982	9118.5	-1.206556E-11	-8.288052E+10	0	0	0	0
0	0	0	-0.103505	6.020121	-22.665668	6.020121	9130.5	-8.545902E-12	-1.170152E+11	0	0	0	0
0	0	0	-0.10228	6.019995	-22.663507	6.019995	9136.5	-1.16311E-11	-8.597638E+10	0	0	0	0
0	0	0	-0.102158	6.020148	-22.663909	6.020148	9137	-8.100455E-12	-1.234499E+11	0	0	0	0
0	0	0	-0.101627	6.020042	-22.66278	6.020042	9140	-1.027262E-11	-9.734611E+10	0	0	0	0
0	0	0	-0.103383	6.019903	-22.66468	6.019903	9131.5	-1.582356E-11	-6.319691E+10	0	0	0	0
0	0	0	-0.101668	6.020141	-22.663209	6.020141	9139.5	-8.211054E-12	-1.21787E+11	0	0	0	0
0	0	0	-0.100198	6.019757	-22.659742	6.019757	9147	-3.665645E-11	-2.728033E+10	0	0	0	0
0	0	0	-0.100974	6.020101	-22.662103	6.020101	9143	-8.93097E-12	-1.119699E+11	0	0	0	0
0	0	0	-0.100851	6.020042	-22.66171	6.020042	9143.5	-1.027656E-11	-9.730885E+10	0	0	0	0
0	0	0	-0.100239	6.020022	-22.660791	6.020022	9146.5	-1.082327E-11	-9.239356E+10	0	0	0	0
0	0	0	-0.099585	6.020002	-22.659816	6.020002	9150	-1.143162E-11	-8.74767E+10	0	0	0	0
0	0	0	-0.100484	6.019896	-22.660657	6.019896	9145.5	-1.626752E-11	-6.14722E+10	0	0	0	0
0	0	0	-0.101831	6.020082	-22.66321	6.020082	9139	-9.334319E-12	-1.071315E+11	0	0	0	0
0	0	0	-0.100974	6.019817	-22.661035	6.019817	9143	-2.383903E-11	-4.194801E+10	0	0	0	0
0	0	0	-0.101341	6.020101	-22.662609	6.020101	9141.5	-8.929505E-12	-1.119883E+11	0	0	0	0
0	0	0	-0.10273	6.020002	-22.664151	6.020002	9134.5	-1.141225E-11	-8.762514E+10	0	0	0	0
0	0	0	-0.104281	6.019995	-22.666266	6.019995	9126.5	-1.161837E-11	-8.607059E+10	0	0	0	0
0	0	0	-0.104159	6.020042	-22.666271	6.020042	9127.5	-1.025857E-11	-9.747943E+10	0	0	0	0
0	0	0	-0.105874	6.020141	-22.669008	6.020141	9119	-8.192637E-12	-1.220608E+11	0	0	0	0
0	0	0	-0.106201	6.020128	-22.669408	6.020128	9117	-8.415987E-12	-1.188215E+11	0	0	0	0
0	0	0	-0.107875	6.020029	-22.671344	6.020029	9109	-1.059228E-11	-9.440842E+10	0	0	0	0
0	0	0	-0.107507	6.019916	-22.670416	6.019916	9110.5	-1.501253E-11	-6.661104E+10	0	0	0	0
0	0	0	-0.108855	6.019903	-22.672224	6.019903	9104	-1.57759E-11	-6.338781E+10	0	0	0	0
0	0	0	-0.109998	6.020068	-22.674421	6.020068	9098.5	-9.584451E-12	-1.043357E+11	0	0	0	0
0	0	0	-0.109917	6.020022	-22.674134	6.020022	9099	-1.076706E-11	-9.287588E+10	0	0	0	0
0	0	0	-0.111673	6.020161	-22.677077	6.020161	9090.5	-7.851946E-12	-1.27357E+11	0	0	0	0
0	0	0	-0.112122	6.020134	-22.677597	6.020134	9088	-8.27548E-12	-1.208389E+11	0	0	0	0
0	0	0	-0.112775	6.020075	-22.678274	6.020075	9085	-9.42245E-12	-1.061295E+11	0	0	0	0
0	0	0	-0.112408	6.020062	-22.677718	6.020062	9086.5	-9.724325E-12	-1.028349E+11	0	0	0	0
0	0	0	-0.11302	6.020088	-22.678662	6.020088	9083.5	-9.138663E-12	-1.094252E+11	0	0	0	0
0	0	0	-0.114245	6.020234	-22.680897	6.020234	9077.5	-6.869019E-12	-1.455812E+11	0	0	0	0
0	0	0	-0.116001	6.019949	-22.68225	6.019949	9069	-1.331126E-11	-7.512437E+10	0	0	0	0
0	0	0	-0.114654	6.019949	-22.680392	6.019949	9075.5	-1.33208E-11	-7.507057E+10	0	0	0	0
0	0	0	-0.114531	6.020121	-22.680869	6.020121	9076.5	-8.495359E-12	-1.177113E+11	0	0	0	0
0	0	0	-0.114735	6.020207	-22.681473	6.020207	9075.5	-7.191598E-12	-1.390512E+11	0	0	0	0
0	0	0	-0.114286	6.020101	-22.680457	6.020101	9077.5	-8.866989E-12	-1.127779E+11	0	0	0	0
0	0	0	-0.11351	6.020254	-22.679958	6.020254	9081.5	-6.647372E-12	-1.504354E+11	0	0	0	0
0	0	0	-0.113102	6.01985	-22.67788	6.01985	9083.5	-1.983411E-11	-5.04182E+10	0	0	0	0
0	0	0	-0.114286	6.020042	-22.680233	6.020042	9077.5	-1.020238E-11	-9.801636E+10	0	0	0	0
0	0	0	-0.111591	6.020134	-22.676865	6.020134	9090.5	-8.277756E-12	-1.208057E+11	0	0	0	0
0	0	0	-0.111836	6.020134	-22.677203	6.020134	9089.5	-8.276846E-12	-1.20819E+11	0	0	0	0
0	0	0	-0.110897	6.020121	-22.675858	6.020121	9094	-8.511739E-12	-1.174848E+11	0	0	0	0
0	0	0	-0.110325	6.020161	-22.675219	6.020161	9097	-7.85756E-12	-1.27266E+11	0	0	0	0
0	0	0	-0.109958	6.019843	-22.673521	6.019843	9098.5	-2.053443E-11	-4.86987E+10	0	0	0	0
0	0	0	-0.108242	6.020254	-22.672695	6.020254	9107	-6.666037E-12	-1.500142E+11	0	0	0	0
0	0	0	-0.106078	6.019929	-22.668495	6.019929	9117.5	-1.432135E-11	-6.982584E+10	0	0	0	0
0	0	0	-0.105996	6.020062	-22.668879	6.020062	9118.5	-9.758571E-12	-1.02474E+11	0	0	0	0
0	0	0	-0.104731	6.01987	-22.666413	6.01987	9124.5	-1.815317E-11	-5.508681E+10	0	0	0	0
0	0	0	-0.104281	0	-0.104281	0	9126.5	0	0	0	0	0	0
0	0	0	-0.105057	0	-0.105057	0	9122.5	0	0	0	0	0	0
