Vload_(V)	ILoad_(A)	RsLoad (ohm)	SunsVoc_Voltage_(V)	SunsVoc_Current_(A)	Model_Voltage_(V)	Model_Current_(A)	Carrier_Density_(cm-3)	Lifetime_(s)	Inverse_Lifetime_(s-1)	Efficiency_(%)	Intensity_(suns)	Dark_IV_Voltage_(V)	Dark_IV_Current_(A)
2.687335	5.992635	0	51.536306	-0.484736	51.790264	-0.484736	6.542971E+15	0.000449	2154.373611	18.929303	1.115609	0	0
2.684711	5.997575	-0.455911	51.986856	-0.639957	52.311219	-0.639957	7.712305E+15	0.000517	1834.527269	19.004711	1.114143	0	0
3.314353	5.993035	-0.476076	52.04517	-0.392704	52.243346	-0.392704	7.875614E+15	0.000549	1719.638477	19.011122	1.113826	0	0
6.753089	5.992516	1.795875	51.973012	-0.027563	51.986997	-0.027563	7.673954E+15	0.000567	1665.776141	18.886628	1.112598	0	0
10.870882	5.99122	2.63595	51.857281	0.361479	51.672291	0.361479	7.359513E+15	0.000581	1630.137759	19.057356	1.110341	0	0
14.278346	5.992152	1.309434	51.716109	0.716672	51.345515	0.716672	6.990536E+15	0.000589	1615.49433	18.824918	1.110142	0	0
17.92099	5.990869	1.643925	51.582002	1.044326	51.036674	1.044326	6.654395E+15	0.000598	1598.123572	18.973774	1.107013	0	0
21.588084	5.988975	1.59167	51.445771	1.361411	50.727845	1.361411	6.326783E+15	0.000608	1579.079352	18.846974	1.107132	0	0
25.287421	5.988794	1.007668	51.309948	1.663975	50.423911	1.663975	6.013584E+15	0.000618	1558.093887	18.80824	1.104874	0	0
28.806643	5.986866	0.721353	51.166367	1.95051	50.117151	1.95051	5.696578E+15	0.000627	1541.230351	18.899321	1.10333	0	0
32.419269	5.976832	0.822142	51.027808	2.214242	49.825109	2.214242	5.403916E+15	0.000636	1523.299431	18.683471	1.102736	0	0
36.019793	5.943903	0.824431	50.890965	2.456277	49.544073	2.456277	5.127213E+15	0.000645	1506.84356	18.849589	1.100597	0	0
37.075553	5.918638	0.842346	50.758369	2.674812	49.278214	2.674812	4.870401E+15	0.000653	1491.994701	18.650283	1.10123	0	0
38.130256	5.886407	0.828224	50.622546	2.875324	49.016648	2.875324	4.618487E+15	0.000659	1481.89458	18.715407	1.099567	0	0
39.196953	5.836209	0.815497	50.493462	3.055657	48.771911	3.055657	4.389184E+15	0.000665	1472.231744	18.715665	1.099805	0	0
40.251492	5.768671	0.789239	50.361069	3.229853	48.525185	3.229853	4.163904E+15	0.00067	1462.768445	18.597536	1.099488	0	0
41.304328	5.680734	0.751392	50.228841	3.401156	48.278558	3.401156	3.948581E+15	0.000678	1449.480339	18.770572	1.098418	0	0
42.359061	5.552028	0.720018	50.096734	3.565639	48.034298	3.565639	3.742796E+15	0.000686	1434.434737	18.586295	1.098656	0	0
43.396313	5.36534	0.698372	49.957686	3.715221	47.789168	3.715221	3.535938E+15	0.000691	1427.114141	18.753769	1.096953	0	0
44.424177	5.133589	0.664116	49.826559	3.852077	47.559035	3.852077	3.349706E+15	0.000696	1417.895473	18.678305	1.097388	0	0
45.423189	4.822852	0.638765	49.693881	3.978443	47.331985	3.978443	3.169705E+15	0.0007	1411.801129	18.666013	1.095962	0	0
46.393827	4.426426	0.619382	49.566961	4.094663	47.11639	4.094663	3.005188E+15	0.000704	1404.751868	18.786649	1.095329	0	0
47.346309	3.938416	0.602489	49.435957	4.206934	46.897327	4.206934	2.84298E+15	0.000708	1398.557304	18.616194	1.094933	0	0
48.256269	3.371574	0.587333	49.311977	4.310244	46.690772	4.310244	2.696341E+15	0.000713	1390.564347	18.822587	1.092516	0	0
49.145951	2.715712	0.575531	49.182811	4.407121	46.481137	4.407121	2.550435E+15	0.000716	1386.688641	18.664935	1.092992	0	0
49.942834	2.032385	0.594192	49.056136	4.495487	46.278729	4.495487	2.413917E+15	0.000717	1384.556606	18.743566	1.090615	0	0
50.696943	1.332921	0.590129	48.93428	4.576767	46.085539	4.576767	2.288524E+15	0.000719	1382.088417	18.756707	1.089863	0	0
51.333859	0.692729	0.533769	48.810137	4.65521	45.890688	4.65521	2.166553E+15	0.000721	1379.896526	18.639365	1.088278	0	0
41.983098	5.593262	0.742403	48.689709	4.729043	45.702394	4.729043	2.053612E+15	0.000723	1376.183618	18.818134	1.086258	0	0
51.85309	0	0	48.566791	4.798574	45.51322	4.798574	1.943608E+15	0.000724	1374.77995	18.612717	1.085823	0	0
0	0	0	48.445098	4.862456	45.32847	4.862456	1.839763E+15	0.000724	1375.328407	18.7764	1.082971	0	0
0	0	0	48.32561	4.9226	45.148161	4.9226	1.742526E+15	0.000724	1375.376985	18.687477	1.082416	0	0
0	0	0	48.20551	4.979906	44.968425	4.979906	1.64934E+15	0.000724	1375.788687	18.654387	1.08004	0	0
0	0	0	48.08639	5.033648	44.791667	5.033648	1.561257E+15	0.000724	1376.75171	18.764089	1.07897	0	0
0	0	0	47.965554	5.08426	44.614442	5.08426	1.476161E+15	0.000723	1379.705062	18.561875	1.078376	0	0
0	0	0	47.849007	5.132885	44.443193	5.132885	1.397992E+15	0.000723	1379.237123	18.747107	1.07592	0	0
0	0	0	47.729192	5.178922	44.269337	5.178922	1.321481E+15	0.000722	1381.312221	18.586855	1.076118	0	0
0	0	0	47.611052	5.221768	44.099214	5.221768	1.249713E+15	0.000721	1384.037736	18.66364	1.07394	0	0
0	0	0	47.491564	5.262436	43.928567	5.262436	1.180692E+15	0.000719	1387.946734	18.689325	1.073504	0	0
0	0	0	47.373995	5.299646	43.762213	5.299646	1.116141E+15	0.000716	1393.654745	18.571677	1.072435	0	0
0	0	0	47.260633	5.335002	43.601855	5.335002	1.056929E+15	0.000715	1396.861964	18.749603	1.070811	0	0
0	0	0	47.143677	5.368179	43.438373	5.368179	9.988336E+14	0.000712	1403.745695	18.548798	1.070771	0	0
0	0	0	47.032438	5.39926	43.28294	5.39926	9.462853E+14	0.000709	1408.122883	18.711708	1.068276	0	0
0	0	0	46.917034	5.428323	43.123633	5.428323	8.944445E+14	0.000705	1416.937	18.650094	1.0678	0	0
0	0	0	46.806816	5.456478	42.970968	5.456478	8.473731E+14	0.000703	1421.166711	18.635373	1.065662	0	0
0	0	0	46.6928	5.48274	42.814821	5.48274	8.010829E+14	0.000699	1429.788312	18.768797	1.063919	0	0
0	0	0	46.584461	5.507315	42.666507	5.507315	7.592677E+14	0.000696	1435.938094	18.589242	1.063087	0	0
0	0	0	46.466688	5.531312	42.506997	5.531312	7.161075E+14	0.000691	1447.315934	18.775543	1.060196	0	0
0	0	0	46.363576	5.552952	42.366712	5.552952	6.802004E+14	0.000688	1452.326674	18.602941	1.059839	0	0
0	0	0	46.250826	5.574042	42.214986	5.574042	6.428595E+14	0.000683	1463.066758	18.67596	1.056948	0	0
0	0	0	46.142364	5.59412	42.069013	5.59412	6.087524E+14	0.00068	1471.002971	18.696886	1.05568	0	0
0	0	0	46.032799	5.612468	41.922805	5.612468	5.760248E+14	0.000674	1483.078101	18.571993	1.053898	0	0
0	0	0	45.924909	5.630573	41.778654	5.630573	5.454177E+14	0.00067	1491.766957	18.751143	1.051561	0	0
0	0	0	45.81367	5.647319	41.631298	5.647319	5.154686E+14	0.000664	1505.494323	18.546232	1.051244	0	0
0	0	0	45.707985	5.663538	41.490937	5.663538	4.884591E+14	0.00066	1514.16652	18.692118	1.048471	0	0
0	0	0	45.595031	5.678889	41.342265	5.678889	4.610758E+14	0.000654	1529.315819	18.609325	1.048194	0	0
0	0	0	45.491551	5.692841	41.206031	5.692841	4.372739E+14	0.000649	1540.891087	18.582539	1.045976	0	0
0	0	0	45.380026	5.706751	41.059936	5.706751	4.129322E+14	0.000643	1556.047956	18.698903	1.044788	0	0
0	0	0	45.274137	5.719734	40.921286	5.719734	3.910208E+14	0.000637	1568.64926	18.534568	1.043599	0	0
0	0	0	45.165349	5.732061	40.779505	5.732061	3.696692E+14	0.000631	1584.335931	18.723601	1.04146	0	0
0	0	0	45.056478	5.743971	40.637844	5.743971	3.494223E+14	0.000625	1599.554536	18.570069	1.041262	0	0
0	0	0	44.950548	5.755259	40.500146	5.755259	3.307467E+14	0.00062	1613.181664	18.640884	1.038727	0	0
0	0	0	44.844781	5.765548	40.363333	5.765548	3.130598E+14	0.000613	1630.467771	18.661982	1.037935	0	0
0	0	0	44.737422	5.775853	40.224484	5.775853	2.960403E+14	0.000607	1645.980096	18.555671	1.036192	0	0
0	0	0	44.629613	5.785387	40.08561	5.785387	2.798502E+14	0.000601	1664.647533	18.738859	1.034054	0	0
0	0	0	44.527195	5.794481	39.953579	5.794481	2.652648E+14	0.000596	1679.130356	18.550397	1.03342	0	0
0	0	0	44.415915	5.803528	39.810705	5.803528	2.502524E+14	0.000589	1698.612423	18.709328	1.030449	0	0
0	0	0	44.314069	5.811484	39.680134	5.811484	2.372373E+14	0.000583	1716.429243	18.631131	1.029657	0	0
0	0	0	44.204831	5.819838	39.540163	5.819838	2.24009E+14	0.000577	1733.97062	18.600466	1.027478	0	0
0	0	0	44.099146	5.827069	39.405364	5.827069	2.118956E+14	0.000569	1756.398263	18.715663	1.025538	0	0
0	0	0	43.997259	5.834076	39.275326	5.834076	2.008229E+14	0.000563	1774.816638	18.53027	1.02431	0	0
0	0	0	43.889368	5.84108	39.137904	5.84108	1.897135E+14	0.000557	1795.757672	18.736116	1.020983	0	0
0	0	0	43.785807	5.847603	39.006106	5.847603	1.796157E+14	0.000551	1815.083797	18.566994	1.020309	0	0
0	0	0	43.678529	5.853735	38.870039	5.853735	1.697102E+14	0.000544	1839.81084	18.646979	1.017061	0	0
0	0	0	43.573947	5.8596	38.737435	5.8596	1.605693E+14	0.000537	1862.446352	18.655129	1.015794	0	0
0	0	0	43.466301	5.865201	38.601261	5.865201	1.516651E+14	0.000529	1888.779642	18.521125	1.014091	0	0
0	0	0	43.363475	5.870592	38.471105	5.870592	1.436127E+14	0.000523	1910.297783	18.698287	1.011358	0	0
0	0	0	43.253379	5.875899	38.332093	5.875899	1.354566E+14	0.000516	1937.253997	18.482584	1.010645	0	0
0	0	0	43.151043	5.880375	38.203222	5.880375	1.282846E+14	0.000508	1967.136934	18.645643	1.007397	0	0
0	0	0	43.045358	5.885201	38.069925	5.885201	1.212702E+14	0.000502	1991.462579	18.568542	1.006486	0	0
0	0	0	42.935712	5.889586	37.93212	5.889586	1.143923E+14	0.000494	2025.031525	18.552446	1.004268	0	0
0	0	0	42.83411	5.893787	37.804276	5.893787	1.083629E+14	0.000488	2050.553889	18.659968	1.002564	0	0
0	0	0	42.724546	5.897685	37.666918	5.897685	1.022121E+14	0.000479	2088.232206	18.47723	1.001455	0	0
0	0	0	42.619922	5.901397	37.535733	5.901397	9.666085E+13	0.000471	2121.828826	18.676893	0.99896	0	0
0	0	0	42.514523	5.904976	37.403685	5.904976	9.136975E+13	0.000464	2156.665354	18.51981	0.998168	0	0
0	0	0	42.406429	5.908844	37.268058	5.908844	8.624077E+13	0.000458	2184.097244	18.600223	0.995514	0	0
0	0	0	42.287594	5.912271	37.119641	5.912271	8.093041E+13	0.000448	2232.224275	18.614283	0.994484	0	0
0	0	0	42.183175	5.915305	36.989182	5.915305	7.653218E+13	0.00044	2271.38149	18.508812	0.992583	0	0
0	0	0	42.072181	5.918558	36.850459	5.918558	7.21164E+13	0.000433	2309.080983	18.683884	0.990404	0	0
0	0	0	41.970825	5.921124	36.724114	5.921124	6.830504E+13	0.000425	2353.474154	18.490413	0.989652	0	0
0	0	0	41.861873	5.924242	36.58796	5.924242	6.443056E+13	0.000419	2386.2187	18.664204	0.986721	0	0
0	0	0	41.745203	5.926722	36.4429	5.926722	6.052308E+13	0.000408	2448.154295	18.578985	0.985731	0	0
0	0	0	41.639517	5.929409	36.311083	5.929409	5.718697E+13	0.000402	2485.353906	18.570588	0.983196	0	0
0	0	0	41.530565	5.932063	36.175274	5.932063	5.393879E+13	0.000396	2524.418145	18.683529	0.981413	0	0
0	0	0	41.421858	5.934389	36.04004	5.934389	5.088061E+13	0.000389	2573.352797	18.500989	0.980423	0	0
0	0	0	41.315357	5.936411	35.907766	5.936411	4.805164E+13	0.00038	2630.277957	18.696144	0.977373	0	0
0	0	0	41.203791	5.938832	35.768907	5.938832	4.525573E+13	0.000374	2672.511467	18.522091	0.976779	0	0
0	0	0	41.093736	5.941176	35.63195	5.941176	4.265624E+13	0.000369	2711.858739	18.619671	0.973689	0	0
0	0	0	40.984376	5.942776	35.496511	5.942776	4.022031E+13	0.000359	2786.667354	18.605441	0.972739	0	0
0	0	0	40.871177	5.94477	35.35599	5.94477	3.784458E+13	0.000352	2843.18332	18.510141	0.970679	0	0
0	0	0	40.762511	5.946592	35.221165	5.946592	3.569549E+13	0.000345	2899.577451	18.681399	0.968461	0	0
0	0	0	40.644779	5.948482	35.075156	5.948482	3.350403E+13	0.000338	2962.464945	18.472446	0.967709	0	0
0	0	0	40.525781	5.950325	34.927621	5.950325	3.142515E+13	0.00033	3026.593493	18.659937	0.964342	0	0
0	0	0	40.415277	5.951732	34.790891	5.951732	2.960989E+13	0.000322	3105.281289	18.543894	0.964104	0	0
0	0	0	40.295585	5.953374	34.642667	5.953374	2.776139E+13	0.000315	3179.153759	18.558698	0.961411	0	0
0	0	0	40.184061	5.95486	34.504585	5.95486	2.614267E+13	0.000308	3248.217989	18.651608	0.959708	0	0
0	0	0	40.064777	5.956561	34.356775	5.956561	2.451532E+13	0.000302	3307.824296	18.479798	0.958282	0	0
0	0	0	39.944758	5.957919	34.20838	5.957919	2.297987E+13	0.000294	3395.975275	18.679967	0.955469	0	0
0	0	0	39.827761	5.959111	34.063837	5.959111	2.157544E+13	0.000286	3492.881238	18.494453	0.955192	0	0
0	0	0	39.702311	5.960716	33.90852	5.960716	2.01645E+13	0.000281	3558.313909	18.614769	0.951984	0	0
0	0	0	39.584498	5.961697	33.763158	5.961697	1.892337E+13	0.000272	3675.136887	18.585913	0.951192	0	0
0	0	0	39.459293	5.962984	33.608428	5.962984	1.768781E+13	0.000265	3768.338707	18.507125	0.948894	0	0
0	0	0	39.334251	5.964007	33.454146	5.964007	1.65342E+13	0.000257	3892.237606	18.669342	0.946597	0	0
0	0	0	39.209945	5.965505	33.300283	5.965505	1.546181E+13	0.000254	3944.302515	18.467553	0.945567	0	0
0	0	0	39.082167	5.96646	33.142693	5.96646	1.443179E+13	0.000245	4077.045335	18.641686	0.942676	0	0
0	0	0	38.954185	5.967739	32.984519	5.967739	1.346878E+13	0.000241	4155.207919	18.516871	0.942082	0	0
0	0	0	38.8202	5.968603	32.81939	5.968603	1.252927E+13	0.000232	4311.778195	18.549332	0.939388	0	0
0	0	0	38.690707	5.969316	32.659912	5.969316	1.168349E+13	0.000223	4486.699612	18.621499	0.937962	0	0
0	0	0	38.554558	5.970339	32.49195	5.970339	1.085565E+13	0.000217	4616.883731	18.472981	0.936378	0	0
0	0	0	38.424167	5.971189	32.331215	5.971189	1.011779E+13	0.00021	4764.735187	18.660799	0.933843	0	0
0	0	0	38.284547	5.972183	32.159008	5.972183	9.383143E+12	0.000204	4899.657395	18.468775	0.933169	0	0
0	0	0	38.142966	5.972869	31.984705	5.972869	8.692577E+12	0.000196	5111.475258	18.598494	0.930278	0	0
0	0	0	38.002529	5.9735	31.811853	5.9735	8.057754E+12	0.000187	5338.220513	18.556101	0.929684	0	0
0	0	0	37.860745	5.974386	31.637076	5.974386	7.463814E+12	0.000182	5496.136993	18.488499	0.927585	0	0
0	0	0	37.71749	5.975191	31.460572	5.975191	6.908127E+12	0.000176	5676.285962	18.638366	0.925446	0	0
0	0	0	37.572602	5.975654	31.282417	5.975654	6.388138E+12	0.000167	5975.545131	18.441352	0.924535	0	0
0	0	0	37.424569	5.976754	31.099726	5.976754	5.897235E+12	0.000165	6053.697365	18.633067	0.921564	0	0
0	0	0	37.2767	5.97727	30.917844	5.97727	5.444509E+12	0.000158	6343.92218	18.481536	0.921208	0	0
0	0	0	37.126952	5.977624	30.733825	5.977624	5.021417E+12	0.000149	6719.819812	18.53053	0.918475	0	0
0	0	0	36.978225	5.97824	30.550774	5.97824	4.633739E+12	0.000143	6983.278687	18.594233	0.917286	0	0
0	0	0	36.825905	5.978899	30.363262	5.978899	4.267681E+12	0.000138	7235.165283	18.454129	0.915425	0	0
0	0	0	36.674319	5.979307	30.176916	5.979307	3.932088E+12	0.000131	7619.423538	18.6536	0.91285	0	0
0	0	0	36.519058	5.979871	29.985889	5.979871	3.615684E+12	0.000126	7935.766851	18.460267	0.912177	0	0
0	0	0	36.365799	5.980537	29.797195	5.980537	3.328327E+12	0.000122	8170.718103	18.592332	0.909364	0	0
0	0	0	36.205842	5.9809	29.600616	5.9809	3.05273E+12	0.000116	8641.352397	18.52296	0.908453	0	0
0	0	0	36.051806	5.981232	29.411329	5.981232	2.808919E+12	0.00011	9125.791199	18.486199	0.906196	0	0
0	0	0	35.890012	5.981763	29.212299	5.981763	2.573759E+12	0.000105	9495.448983	18.6118	0.904374	0	0
0	0	0	35.730586	5.982113	29.016371	5.982113	2.361301E+12	9.983489E-5	10016.53793	18.431968	0.903027	0	0
0	0	0	35.566341	5.982871	28.814067	5.982871	2.160742E+12	9.845039E-5	10157.400053	18.629335	0.900136	0	0
0	0	0	35.40279	5.98298	28.613343	5.98298	1.977955E+12	9.114068E-5	10972.048986	18.463886	0.89966	0	0
0	0	0	35.238015	5.983459	28.410693	5.983459	1.809429E+12	8.772223E-5	11399.618605	18.531506	0.896888	0	0
0	0	0	35.070135	5.983586	28.204634	5.983586	1.652484E+12	8.12367E-5	12309.707323	18.557387	0.895462	0	0
0	0	0	34.900133	5.983943	27.995703	5.983943	1.507419E+12	7.714981E-5	12961.793944	18.431627	0.893759	0	0
0	0	0	34.725924	5.984418	27.781471	5.984418	1.371963E+12	7.427324E-5	13463.800221	18.621548	0.891303	0	0
0	0	0	34.555309	5.984712	27.571852	5.984712	1.251106E+12	7.024906E-5	14235.065013	18.42721	0.890669	0	0
0	0	0	34.373545	5.985067	27.348483	5.985067	1.134039E+12	6.666069E-5	15001.343817	18.59717	0.887381	0	0
0	0	0	34.194436	5.985347	27.128453	5.985347	1.0294E+12	6.2837E-5	15914.191467	18.494403	0.886827	0	0
0	0	0	34.008997	5.985628	26.900655	5.985628	9.312239E+11	5.912012E-5	16914.714468	18.466906	0.884767	0	0
0	0	0	33.819923	5.985875	26.668435	5.985875	8.407568E+11	5.532606E-5	18074.664545	18.571614	0.882906	0	0
0	0	0	33.62693	5.986212	26.431293	5.986212	7.574708E+11	5.246761E-5	19059.376093	18.396408	0.881638	0	0
0	0	0	33.428954	5.986425	26.188186	5.986425	6.805991E+11	4.875824E-5	20509.355636	18.596932	0.879143	0	0
0	0	0	33.229345	5.986934	25.942712	5.986934	6.109883E+11	4.767944E-5	20973.400086	18.423911	0.87843	0	0
0	0	0	33.023447	5.986982	25.69008	5.986982	5.466354E+11	4.301725E-5	23246.488642	18.527768	0.875736	0	0
0	0	0	32.805828	5.987016	25.423087	5.987016	4.859716E+11	3.847878E-5	25988.348652	18.521521	0.874944	0	0
0	0	0	32.593192	5.987584	25.161544	5.987584	4.332047E+11	3.815183E-5	26211.061172	18.419494	0.873043	0	0
0	0	0	32.374022	5.987807	24.892405	5.987807	3.848055E+11	3.546179E-5	28199.362742	18.592659	0.870785	0	0
0	0	0	32.153872	5.987899	24.622227	5.987899	3.416323E+11	3.208985E-5	31162.503436	18.38908	0.870152	0	0
0	0	0	31.931068	5.988326	24.348366	5.988326	3.028679E+11	3.126809E-5	31981.491199	18.575104	0.867181	0	0
0	0	0	31.702179	5.988489	24.06737	5.988489	2.676201E+11	2.871587E-5	34823.950023	18.456265	0.866745	0	0
0	0	0	31.471779	5.988632	23.784544	5.988632	2.362813E+11	2.625778E-5	38083.953088	18.475598	0.864329	0	0
0	0	0	31.234396	5.988787	23.493132	5.988787	2.078263E+11	2.403101E-5	41612.907901	18.546879	0.863022	0	0
0	0	0	30.993623	5.988989	23.197499	5.988989	1.824633E+11	2.22644E-5	44914.75105	18.373293	0.861715	0	0
0	0	0	30.750686	5.9895	22.898802	5.9895	1.600083E+11	2.270733E-5	44038.647109	18.585451	0.858863	0	0
0	0	0	30.503339	5.989378	22.595521	5.989378	1.399825E+11	1.911949E-5	52302.649176	18.379336	0.858823	0	0
0	0	0	30.253664	5.989697	22.2888	5.989697	1.22309E+11	1.852051E-5	53994.180337	18.52495	0.855655	0	0
0	0	0	29.997455	5.989884	21.974234	5.989884	1.064901E+11	1.722186E-5	58065.728587	18.487168	0.854942	0	0
0	0	0	29.739695	5.989939	21.657938	5.989939	9.26393E+10	1.528694E-5	65415.295569	18.419594	0.85308	0	0
0	0	0	29.475114	5.990119	21.333106	5.990119	8.029349E+10	1.41977E-5	70433.966471	18.557874	0.851496	0	0
0	0	0	29.208207	5.990417	21.005251	5.990417	6.950544E+10	1.394442E-5	71713.276864	18.36561	0.850307	0	0
0	0	0	28.935745	5.990432	20.670969	5.990432	5.998648E+10	1.211541E-5	82539.498219	18.557023	0.847654	0	0
0	0	0	28.656749	5.990407	20.328726	5.990407	5.158862E+10	1.030266E-5	97062.269761	18.409517	0.847297	0	0
0	0	0	28.374773	5.990613	19.982502	5.990613	4.429498E+10	9.745779E-6	102608.519505	18.474575	0.844406	0	0
0	0	0	28.088018	5.990693	19.63059	5.990693	3.793441E+10	8.690942E-6	115062.326058	18.509435	0.843495	0	0
0	0	0	27.795097	5.991024	19.270755	5.991024	3.237908E+10	8.940266E-6	111853.49518	18.373415	0.841871	0	0
0	0	0	27.498256	5.991176	18.906358	5.991176	2.757879E+10	8.410783E-6	118894.988926	18.551076	0.839732	0	0
0	0	0	27.192594	5.990939	18.531699	5.990939	2.337841E+10	6.13512E-6	162995.990476	18.348919	0.839138	0	0
0	0	0	26.871619	5.991277	18.137421	5.991277	1.965439E+10	6.438557E-6	155314.314268	18.512871	0.836088	0	0
0	0	0	26.537943	5.991264	17.728067	5.991264	1.641053E+10	5.327526E-6	187704.3899	18.417973	0.83585	0	0
0	0	0	26.202919	5.991285	17.317012	5.991285	1.369207E+10	4.512458E-6	221608.706738	18.411828	0.833236	0	0
0	0	0	25.894358	5.991391	16.938294	5.991391	1.158852E+10	4.144665E-6	241274.021713	18.521191	0.832167	0	0
0	0	0	25.601682	5.991378	16.579241	5.991378	9.892738E+9	3.502106E-6	285542.49637	18.3397	0.830939	0	0
0	0	0	25.322564	5.991668	16.236362	5.991668	8.507224E+9	3.91679E-6	255311.088179	18.534169	0.828126	0	0
0	0	0	25.05631	5.991576	15.909843	5.991576	7.366806E+9	3.096593E-6	322935.588773	18.355331	0.827889	0	0
0	0	0	24.797242	5.991583	15.591992	5.991583	6.404097E+9	2.709251E-6	369105.74932	18.45803	0.824839	0	0
0	0	0	24.547853	5.991854	15.285607	5.991854	5.5964E+9	3.187408E-6	313734.533786	18.442278	0.824126	0	0
0	0	0	24.299934	5.991847	14.981451	5.991847	4.894459E+9	2.764669E-6	361706.941277	18.347683	0.822145	0	0
0	0	0	24.052016	5.991939	14.677141	5.991939	4.280561E+9	2.739325E-6	365053.463587	18.507468	0.820205	0	0
0	0	0	23.80818	5.991762	14.378264	5.991762	3.751935E+9	1.91168E-6	523100.112802	18.286105	0.819848	0	0
0	0	0	23.563324	5.991999	14.077481	5.991999	3.286778E+9	2.300252E-6	434734.957453	18.470616	0.816719	0	0
0	0	0	23.304665	5.991808	13.760441	5.991808	2.857886E+9	1.537703E-6	650320.527895	18.34098	0.816442	0	0
0	0	0	23.058298	5.992078	13.457747	5.992078	2.501527E+9	2.000072E-6	499981.979918	18.37659	0.813788	0	0
0	0	0	22.803396	5.992052	13.145054	5.992052	2.179524E+9	1.6639E-6	600997.728785	18.447938	0.81256	0	0
0	0	0	22.556661	5.992065	12.842317	5.992065	1.907373E+9	1.489957E-6	671160.304891	18.292113	0.811015	0	0
0	0	0	22.304945	5.992157	12.533339	5.992157	1.664715E+9	1.55209E-6	644292.665898	18.488549	0.808718	0	0
0	0	0	22.051309	5.992098	12.222254	5.992098	1.451422E+9	1.203617E-6	830829.354454	18.288975	0.808401	0	0
0	0	0	21.79216	5.992336	11.903916	5.992336	1.261692E+9	1.876873E-6	532801.118024	18.422597	0.80547	0	0
0	0	0	21.529948	5.992151	11.582516	5.992151	1.094948E+9	1.007145E-6	992906.031884	18.360278	0.804955	0	0
0	0	0	21.263407	5.992276	11.255292	5.992276	9.480206E+8	1.176914E-6	849679.501028	18.306667	0.802658	0	0
0	0	0	20.996622	5.992224	10.928063	5.992224	8.207E+8	8.881624E-7	1125920.217823	18.433339	0.801034	0	0
0	0	0	20.722118	5.992296	10.591155	5.992296	7.075206E+8	9.297726E-7	1075531.831095	18.239264	0.800044	0	0
0	0	0	20.444103	5.99227	10.250104	5.99227	6.087924E+8	7.422379E-7	1347276.986257	18.429995	0.797311	0	0
0	0	0	20.15841	5.992395	9.899375	5.992395	5.216713E+8	9.686328E-7	1032383.002746	18.267158	0.797152	0	0
0	0	0	19.867204	5.992415	9.542062	5.992415	4.456875E+8	9.02074E-7	1108556.536274	18.355128	0.794182	0	0
0	0	0	19.570935	5.992323	9.17873	5.992323	3.797302E+8	5.41274E-7	1847493.267103	18.370314	0.79335	0	0
0	0	0	19.262292	5.992501	8.799747	5.992501	3.21377E+8	1.066508E-6	937639.711217	18.255951	0.791647	0	0
0	0	0	18.950096	5.992309	8.41705	5.992309	2.714692E+8	3.712918E-7	2693299.167922	18.426195	0.789428	0	0
0	0	0	18.62908	5.992395	8.023045	5.992395	2.282208E+8	4.23851E-7	2359319.560653	18.217302	0.788834	0	0
0	0	0	18.298916	5.992534	7.617721	5.992534	1.909161E+8	8.404034E-7	1189904.73858	18.382755	0.786062	0	0
0	0	0	17.963199	5.99258	7.205745	5.99258	1.592304E+8	1.290303E-6	775011.986322	18.262535	0.785943	0	0
0	0	0	17.611881	5.992547	6.774773	5.992547	1.316882E+8	6.667705E-7	1499766.437492	18.283513	0.783131	0	0
0	0	0	17.251907	5.992745	6.332758	5.992745	1.084016E+8	-4.385821E-7	-2280074.710759	18.367124	0.781903	0	0
0	0	0	16.876945	5.992454	5.873247	5.992454	8.851271E+7	2.185576E-7	4575452.782074	18.203221	0.780358	0	0
0	0	0	16.489569	5.992356	5.398159	5.992356	7.178955E+7	1.144413E-7	8738100.853936	18.389865	0.778259	0	0
0	0	0	16.092229	5.992712	4.91	5.992712	5.791319E+7	-3.346029E-7	-2988616.914033	18.194667	0.777902	0	0
0	0	0	15.678106	5.992652	4.402019	5.992652	4.629706E+7	-1.166458E-6	-857295.897959	18.316183	0.77509	0	0
0	0	0	15.249485	5.992778	3.875904	5.992778	3.672196E+7	-1.142883E-7	-8749802.632064	18.282452	0.774417	0	0
0	0	0	14.799139	5.992514	3.323874	5.992514	2.87871E+7	1.060074E-7	9433307.430461	18.210244	0.772595	0	0
0	0	0	14.32719	5.99256	2.744751	5.99256	2.23048E+7	1.329242E-7	7523083.068257	18.361517	0.770614	0	0
0	0	0	13.82637	5.992791	2.129843	5.992791	1.701455E+7	-4.847921E-8	-2.06274E+7	18.159147	0.769901	0	0
0	0	0	13.303009	5.992811	1.487685	5.992811	1.282185E+7	-3.24247E-8	-3.084068E+7	18.357341	0.766891	0	0
0	0	0	12.756819	5.992751	0.817677	5.992751	9543801.5	-3.642102E-8	-2.745667E+7	18.196844	0.766732	0	0
0	0	0	12.172652	5.992593	0.101274	5.992593	6959469	7.428987E-8	1.346078E+7	18.258385	0.764475	0	0
0	0	0	11.572803	5.992804	-0.635113	5.992804	5032100.5	-1.322081E-8	-7.563832E+7	18.276982	0.763801	0	0
0	0	0	10.9781	5.992876	-1.364911	5.992876	3648635.5	-6.711236E-9	-1.490039E+8	18.153464	0.761979	0	0
0	0	0	10.397526	5.992876	-2.077225	5.992876	2665808	-4.903432E-9	-2.039388E+8	18.337192	0.759801	0	0
0	0	0	9.837044	5.992626	-2.764363	5.992626	1968993	1.006319E-7	9937208.571518	18.141946	0.759365	0	0
0	0	0	9.297266	5.992745	-3.426871	5.992745	1470686.5	-5.948739E-9	-1.681029E+8	18.304994	0.756513	0	0
0	0	0	8.778029	5.992606	-4.063632	5.992606	1110755.5	1.734715E-8	5.764635E+7	18.188533	0.756395	0	0
0	0	0	8.277821	5.992989	-4.678166	5.992989	847587.5	-1.065298E-9	-9.387041E+8	18.188913	0.753899	0	0
0	0	0	7.789334	5.992797	-5.277083	5.992797	650882	-1.77933E-9	-5.620092E+8	18.284924	0.752671	0	0
0	0	0	7.315262	5.992949	-5.859061	5.992949	503737	-7.127984E-10	-1.402921E+9	18.123973	0.751443	0	0
0	0	0	6.857607	5.992876	-6.420407	5.992876	393332.5	-7.234852E-10	-1.382198E+9	18.323	0.749265	0	0
0	0	0	6.414734	5.992942	-6.963921	5.992942	309589.5	-4.474602E-10	-2.234836E+9	18.130021	0.748908	0	0
0	0	0	5.984643	5.992751	-7.491178	5.992751	245365.5	-9.363332E-10	-1.067996E+9	18.23653	0.746413	0	0
0	0	0	5.564679	5.992745	-8.00642	5.992745	195532.5	-7.909008E-10	-1.264381E+9	18.190665	0.74574	0	0
0	0	0	5.155048	5.992771	-8.509062	5.992771	156693	-5.112086E-10	-1.956149E+9	18.110914	0.743957	0	0
0	0	0	4.74317	5.992745	-9.014339	5.992745	125416	-5.072896E-10	-1.971261E+9	18.252386	0.742215	0	0
0	0	0	4.359183	5.992962	-9.485958	5.992962	101907	-1.383953E-10	-7.225678E+9	18.063669	0.741343	0	0
0	0	0	3.980097	5.992863	-9.950836	5.992863	83024	-1.61519E-10	-6.191223E+9	18.257975	0.73861	0	0
0	0	0	3.622777	5.992784	-10.389052	5.992784	68441.5	-2.035989E-10	-4.911618E+9	18.083248	0.738808	0	0
0	0	0	3.274849	5.992824	-10.816022	5.992824	56707	-1.334002E-10	-7.496241E+9	18.143578	0.736273	0	0
0	0	0	2.940561	5.992857	-11.226243	5.992857	47331.5	-9.481502E-11	-1.054685E+10	18.165607	0.735402	0	0
0	0	0	2.61934	5.992679	-11.61993	5.992679	39786.5	-4.018447E-10	-2.488523E+9	18.036636	0.734055	0	0
0	0	0	2.310085	5.992843	-11.999751	5.992843	33661.5	-7.168813E-11	-1.394931E+10	18.236383	0.731679	0	0
0	0	0	2.02088	5.992758	-12.354375	5.992758	28790	-1.039833E-10	-9.616926E+9	18.028235	0.731639	0	0
0	0	0	1.746213	5.992804	-12.691478	5.992804	24817.5	-6.520215E-11	-1.533692E+10	18.214487	0.72847	0	0
0	0	0	1.493394	5.992817	-13.001697	5.992817	21647	-5.276313E-11	-1.895263E+10	18.082721	0.728629	0	0
0	0	0	1.273326	5.992811	-13.271686	5.992811	19219	-4.860085E-11	-2.057577E+10	18.07921	0.726411	0	0
0	0	0	1.080699	5.992824	-13.508053	5.992824	17318.5	-4.074085E-11	-2.454539E+10	18.168417	0.725183	0	0
0	0	0	0.915148	5.992876	-13.7113	5.992876	15836	-2.91283E-11	-3.433088E+10	17.988732	0.724192	0	0
0	0	0	0.776589	5.992692	-13.880848	5.992692	14693.5	-1.142101E-10	-8.755794E+9	18.204666	0.721539	0	0
0	0	0	0.65457	5.992606	-14.030345	5.992606	13755.5	2.148283E-10	4.65488E+9	18.002437	0.721578	0	0
0	0	0	0.547782	5.992936	-14.162172	5.992936	12984	-1.917703E-11	-5.214572E+10	18.141244	0.718806	0	0
0	0	0	0.458554	5.992989	-14.271777	5.992989	12372.5	-1.555048E-11	-6.430668E+10	18.070529	0.718924	0	0
0	0	0	0.381659	5.993232	-14.366722	5.993232	11868.5	-8.830458E-12	-1.132444E+11	18.013101	0.716825	0	0
0	0	0	0.320526	5.992949	-14.441028	5.992949	11483	-1.624868E-11	-6.154347E+10	18.148229	0.71532	0	0
0	0	0	0.264213	5.992969	-14.510169	5.992969	11138.5	-1.482822E-11	-6.743898E+10	17.944164	0.714686	0	0
0	0	0	0.223376	5.993147	-14.560712	5.993147	10895	-9.462741E-12	-1.056776E+11	18.156395	0.712072	0	0
0	0	0	0.185929	5.99285	-14.605924	5.99285	10677	-2.204277E-11	-4.536635E+10	17.975394	0.712191	0	0
0	0	0	0.163265	5.992962	-14.634008	5.992962	10547	-1.432341E-11	-6.98158E+10	18.067209	0.709339	0	0
0	0	0	0.124756	5.992995	-14.681337	5.992995	10329.5	-1.274529E-11	-7.846036E+10	18.056056	0.709101	0	0
0	0	0	0.10887	5.992797	-14.700338	5.992797	10241.5	-2.799738E-11	-3.571763E+10	17.950338	0.707359	0	0
0	0	0	0.094822	5.993022	-14.718128	5.993022	10164	-1.16862E-11	-8.557098E+10	18.114535	0.705695	0	0
0	0	0	0.071301	5.992837	-14.746531	5.992837	10035.5	-2.2069E-11	-4.531244E+10	17.904998	0.705378	0	0
0	0	0	0.051372	5.992909	-14.77116	5.992909	9928	-1.607063E-11	-6.22253E+10	18.093118	0.702764	0	0
0	0	0	0.040755	5.992936	-14.784252	5.992936	9871	-1.457921E-11	-6.859082E+10	17.956345	0.702724	0	0
0	0	0	0.035038	5.992758	-14.790826	5.992758	9840.5	-3.554178E-11	-2.81359E+10	18.001257	0.700308	0	0
0	0	0	0.029729	5.99283	-14.797519	5.99283	9812.5	-2.230564E-11	-4.483171E+10	18.061865	0.699714	0	0
0	0	0	0.022583	5.992956	-14.806597	5.992956	9774.5	-1.354699E-11	-7.381712E+10	17.905674	0.698565	0	0
0	0	0	0.013599	5.992857	-14.817375	5.992857	9727	-1.948524E-11	-5.13209E+10	18.104588	0.696506	0	0
0	0	0	0.004165	5.993167	-14.829716	5.993167	9677.5	-8.092752E-12	-1.235674E+11	17.891071	0.696506	0	0
0	0	0	-0.00294	5.9932	-14.838516	5.9932	9640.5	-7.59135E-12	-1.317289E+11	18.038807	0.693773	0	0
0	0	0	-0.009801	5.992975	-14.846378	5.992975	9605	-1.253931E-11	-7.974918E+10	17.955643	0.693575	0	0
0	0	0	-0.015845	5.993008	-14.853875	5.993008	9573.5	-1.139567E-11	-8.775264E+10	17.924644	0.691634	0	0
0	0	0	-0.02099	5.992949	-14.860041	5.992949	9547	-1.35092E-11	-7.402363E+10	18.037447	0.690525	0	0
0	0	0	-0.022215	5.992712	-14.860956	5.992712	9540.5	-5.510959E-11	-1.814566E+10	17.848137	0.689891	0	0
0	0	0	-0.025319	5.992771	-14.864911	5.992771	9525	-3.107516E-11	-3.218004E+10	18.057122	0.687475	0	0
0	0	0	-0.02638	5.993173	-14.86721	5.993173	9519	-7.862751E-12	-1.27182E+11	17.859965	0.687316	0	0
0	0	0	-0.028259	5.992804	-14.8686	5.992804	9509.5	-2.498398E-11	-4.002565E+10	17.966137	0.68498	0	0
0	0	0	-0.028667	5.992903	-14.869346	5.992903	9507.5	-1.576828E-11	-6.341846E+10	17.931695	0.684583	0	0
0	0	0	-0.030628	5.992837	-14.871588	5.992837	9497.5	-2.088588E-11	-4.787923E+10	17.869683	0.682999	0	0
0	0	0	-0.03124	5.99289	-14.87247	5.99289	9494	-1.656005E-11	-6.038629E+10	18.020101	0.681335	0	0
0	0	0	-0.032343	5.992791	-14.873578	5.992791	9488.5	-2.703428E-11	-3.699008E+10	17.803279	0.681098	0	0
0	0	0	-0.032628	5.99283	-14.874027	5.99283	9487	-2.156572E-11	-4.636989E+10	18.002298	0.678602	0	0
0	0	0	-0.032302	5.992975	-14.873985	5.992975	9489	-1.238788E-11	-8.072409E+10	17.846584	0.678602	0	0
0	0	0	-0.033282	5.993002	-14.875253	5.993002	9484	-1.149188E-11	-8.701793E+10	17.907475	0.676226	0	0
0	0	0	-0.033241	5.99289	-14.874925	5.99289	9484	-1.654261E-11	-6.044996E+10	17.924037	0.675553	0	0
0	0	0	-0.033649	5.992758	-14.875099	5.992758	9482	-3.424696E-11	-2.919967E+10	17.79599	0.674245	0	0
0	0	0	-0.034793	5.992745	-14.87647	5.992745	9476	-3.832904E-11	-2.608988E+10	17.968359	0.67274	0	0
0	0	0	-0.034425	5.992929	-14.876476	5.992929	9478	-1.431207E-11	-6.987109E+10	17.759586	0.672344	0	0
0	0	0	-0.034507	5.992817	-14.876299	5.992817	9477.5	-2.310078E-11	-4.328858E+10	17.952013	0.669572	0	0
0	0	0	-0.034752	5.992956	-14.876942	5.992956	9476	-1.313329E-11	-7.614241E+10	17.818468	0.669888	0	0
0	0	0	-0.035446	5.992817	-14.877451	5.992817	9472.5	-2.308859E-11	-4.331143E+10	17.838324	0.667631	0	0
0	0	0	-0.036426	5.992942	-14.878964	5.992942	9467.5	-1.36837E-11	-7.307968E+10	17.900919	0.666759	0	0
0	0	0	-0.037202	5.993081	-14.880259	5.993081	9463.5	-9.43388E-12	-1.060009E+11	17.728521	0.666046	0	0
0	0	0	-0.03708	5.992725	-14.879226	5.992725	9464.5	-4.667781E-11	-2.142345E+10	17.928818	0.663868	0	0
0	0	0	-0.038019	5.992956	-14.88095	5.992956	9459.5	-1.311042E-11	-7.627522E+10	17.712698	0.663828	0	0
0	0	0	-0.037733	5.992923	-14.880518	5.992923	9461	-1.461347E-11	-6.843002E+10	17.87075	0.661254	0	0
0	0	0	-0.038101	5.992936	-14.881002	5.992936	9459	-1.39707E-11	-7.157839E+10	17.794706	0.661135	0	0
0	0	0	-0.038958	5.992843	-14.881825	5.992843	9455	-2.01361E-11	-4.966206E+10	17.750807	0.659273	0	0
0	0	0	-0.039857	5.992929	-14.88314	5.992929	9450	-1.426979E-11	-7.007812E+10	17.845053	0.658204	0	0
0	0	0	-0.040224	5.993081	-14.883966	5.993081	9448.5	-9.418927E-12	-1.061692E+11	17.664644	0.657332	0	0
0	0	0	-0.039897	5.992916	-14.883157	5.992916	9450	-1.493848E-11	-6.694123E+10	17.859312	0.655352	0	0
0	0	0	-0.041123	5.992903	-14.884628	5.992903	9443.5	-1.566213E-11	-6.384826E+10	17.679794	0.655233	0	0
0	0	0	-0.040592	5.992956	-14.884107	5.992956	9446.5	-1.30924E-11	-7.638019E+10	17.794972	0.652698	0	0
0	0	0	-0.041613	5.992942	-14.885327	5.992942	9441	-1.364539E-11	-7.32848E+10	17.762952	0.652461	0	0
0	0	0	-0.042429	5.992936	-14.886313	5.992936	9437	-1.39382E-11	-7.174526E+10	17.682499	0.650797	0	0
0	0	0	-0.043164	5.992876	-14.887067	5.992876	9433.5	-1.735172E-11	-5.763119E+10	17.827261	0.64945	0	0
0	0	0	-0.042919	5.993028	-14.887142	5.993028	9434.5	-1.066569E-11	-9.375858E+10	17.622409	0.648856	0	0
0	0	0	-0.042756	5.993035	-14.886958	5.993035	9435.5	-1.049103E-11	-9.531949E+10	17.809204	0.646796	0	0
0	0	0	-0.043328	5.99318	-14.888019	5.99318	9432.5	-7.697067E-12	-1.299196E+11	17.645468	0.646796	0	0
0	0	0	-0.044063	5.992982	-14.888431	5.992982	9428.5	-1.207524E-11	-8.281409E+10	17.716054	0.644539	0	0
0	0	0	-0.044594	5.992975	-14.889066	5.992975	9426	-1.230563E-11	-8.126362E+10	17.748563	0.643509	0	0
0	0	0	-0.043859	5.99287	-14.887903	5.99287	9430	-1.783141E-11	-5.60808E+10	17.61275	0.642439	0	0
0	0	0	-0.044308	5.993028	-14.888846	5.993028	9427.5	-1.065778E-11	-9.382819E+10	17.780136	0.640617	0	0
0	0	0	-0.044389	5.992929	-14.888701	5.992929	9427	-1.423506E-11	-7.02491E+10	17.556363	0.640459	0	0
0	0	0	-0.044308	5.992956	-14.888666	5.992956	9427.5	-1.306607E-11	-7.653412E+10	17.745287	0.637924	0	0
0	0	0	-0.044471	5.992843	-14.888589	5.992843	9426.5	-2.00754E-11	-4.981221E+10	17.600997	0.638122	0	0
0	0	0	-0.043369	5.992969	-14.887547	5.992969	9432	-1.255643E-11	-7.964048E+10	17.656792	0.635746	0	0
0	0	0	-0.042919	5.992883	-14.886783	5.992883	9434.5	-1.689301E-11	-5.91961E+10	17.704208	0.634953	0	0
0	0	0	-0.043491	5.99289	-14.887501	5.99289	9431.5	-1.645103E-11	-6.078645E+10	17.541643	0.634042	0	0
0	0	0	-0.042593	5.992876	-14.886366	5.992876	9436	-1.735632E-11	-5.761592E+10	17.726911	0.632379	0	0
0	0	0	-0.043369	5.99289	-14.887351	5.99289	9432	-1.645191E-11	-6.078323E+10	17.500707	0.632339	0	0
0	0	0	-0.04247	5.993061	-14.886673	5.993061	9437	-9.843802E-12	-1.015868E+11	17.673492	0.629606	0	0
0	0	0	-0.041449	5.992929	-14.885094	5.992929	9442	-1.425771E-11	-7.013749E+10	17.571099	0.629606	0	0
0	0	0	-0.042062	5.992837	-14.885617	5.992837	9439	-2.075724E-11	-4.817597E+10	17.572838	0.627388	0	0
0	0	0	-0.041	5.993028	-14.884788	5.993028	9444	-1.067643E-11	-9.366426E+10	17.65	0.626477	0	0
0	0	0	-0.040918	5.993061	-14.884769	5.993061	9445	-9.852147E-12	-1.015007E+11	17.463329	0.625764	0	0
0	0	0	-0.040918	5.992738	-14.883969	5.992738	9445	-4.064011E-11	-2.460624E+10	17.652087	0.623863	0	0
0	0	0	-0.040755	5.993074	-14.884601	5.993074	9445.5	-9.557147E-12	-1.046337E+11	17.442662	0.623902	0	0
0	0	0	-0.040306	5.992771	-14.883299	5.992771	9448	-3.082395E-11	-3.244231E+10	17.59621	0.621367	0	0
0	0	0	-0.039816	5.992909	-14.883041	5.992909	9450.5	-1.52977E-11	-6.536933E+10	17.52319	0.62113	0	0
0	0	0	-0.041327	5.992923	-14.884927	5.992923	9442.5	-1.458489E-11	-6.856409E+10	17.494898	0.619308	0	0
0	0	0	-0.040673	5.992857	-14.883962	5.992857	9446	-1.892234E-11	-5.284759E+10	17.606231	0.618159	0	0
0	0	0	-0.040551	5.992738	-14.883518	5.992738	9446.5	-4.064656E-11	-2.460233E+10	17.404618	0.617684	0	0
0	0	0	-0.040918	5.992936	-14.884459	5.992936	9445	-1.395002E-11	-7.168449E+10	17.598937	0.615505	0	0
0	0	0	-0.040755	5.992745	-14.883785	5.992745	9445.5	-3.820567E-11	-2.617412E+10	17.398386	0.615585	0	0
0	0	0	-0.040428	5.992969	-14.883939	5.992969	9447	-1.25764E-11	-7.951403E+10	17.517433	0.61305	0	0
0	0	0	-0.040142	5.992784	-14.883131	5.992784	9448.5	-2.810727E-11	-3.557798E+10	17.47627	0.612891	0	0
0	0	0	-0.041408	5.99287	-14.884897	5.99287	9442	-1.78541E-11	-5.600953E+10	17.400251	0.611426	0	0
0	0	0	-0.041082	5.992949	-14.884692	5.992949	9444	-1.336345E-11	-7.483097E+10	17.53143	0.610079	0	0
0	0	0	-0.042021	5.992843	-14.885583	5.992843	9439	-2.010202E-11	-4.974624E+10	17.314078	0.609881	0	0
0	0	0	-0.042633	5.992903	-14.886481	5.992903	9436	-1.56497E-11	-6.3899E+10	17.529189	0.607267	0	0
0	0	0	-0.04345	5.992797	-14.887222	5.992797	9432	-2.578443E-11	-3.878309E+10	17.339386	0.607782	0	0
0	0	0	-0.043614	5.992982	-14.88788	5.992982	9431	-1.207844E-11	-8.279214E+10	17.432188	0.605128	0	0
0	0	0	-0.043409	5.992923	-14.887482	5.992923	9432	-1.456868E-11	-6.864042E+10	17.430491	0.60493	0	0
0	0	0	-0.044716	5.9932	-14.889772	5.9932	9425.5	-7.42205E-12	-1.347337E+11	17.333748	0.603385	0	0
0	0	0	-0.044471	5.992731	-14.888311	5.992731	9426.5	-4.332348E-11	-2.308217E+10	17.492845	0.602118	0	0
0	0	0	-0.046023	5.992771	-14.890313	5.992771	9418.5	-3.072771E-11	-3.254392E+10	17.269518	0.601919	0	0
0	0	0	-0.045941	5.992923	-14.890589	5.992923	9419	-1.45486E-11	-6.873515E+10	17.463635	0.599424	0	0
0	0	0	-0.047125	5.992837	-14.891829	5.992837	9413	-2.070006E-11	-4.830904E+10	17.29621	0.599701	0	0
0	0	0	-0.048065	5.992811	-14.892916	5.992811	9408.5	-2.379214E-11	-4.203069E+10	17.362568	0.597404	0	0
0	0	0	-0.047411	5.992962	-14.89249	5.992962	9411.5	-1.278133E-11	-7.82391E+10	17.396271	0.596651	0	0
0	0	0	-0.045982	5.992817	-14.890378	5.992817	9419	-2.295819E-11	-4.355744E+10	17.249528	0.596018	0	0
0	0	0	-0.046309	5.992843	-14.890844	5.992843	9417	-2.005517E-11	-4.986246E+10	17.438557	0.5938	0	0
0	0	0	-0.04782	5.993015	-14.893122	5.993015	9409.5	-1.100627E-11	-9.085729E+10	17.205343	0.593958	0	0
0	0	0	-0.048881	5.992995	-14.894376	5.992995	9404	-1.160334E-11	-8.618208E+10	17.379941	0.591819	0	0
0	0	0	-0.049862	5.993087	-14.895807	5.993087	9399	-9.233158E-12	-1.083053E+11	17.24964	0.591819	0	0
0	0	0	-0.050188	5.992797	-14.895489	5.992797	9397.5	-2.569012E-11	-3.892547E+10	17.281815	0.589561	0	0
0	0	0	-0.049943	5.992956	-14.895581	5.992956	9399	-1.302657E-11	-7.676619E+10	17.326566	0.589086	0	0
0	0	0	-0.048596	5.99314	-14.894384	5.99314	9405.5	-8.275585E-12	-1.208374E+11	17.186355	0.588136	0	0
0	0	0	-0.048718	5.99285	-14.893816	5.99285	9405	-1.941671E-11	-5.150203E+10	17.366005	0.586314	0	0
0	0	0	-0.049086	5.992936	-14.894479	5.992936	9403	-1.388799E-11	-7.200468E+10	17.144758	0.586551	0	0
0	0	0	-0.0488	5.99283	-14.893867	5.99283	9404.5	-2.137818E-11	-4.677667E+10	17.316765	0.584016	0	0
0	0	0	-0.048228	5.992942	-14.893444	5.992942	9407.5	-1.359698E-11	-7.354577E+10	17.19108	0.584293	0	0
0	0	0	-0.048187	5.992857	-14.893181	5.992857	9407.5	-1.884521E-11	-5.306387E+10	17.174798	0.582353	0	0
0	0	0	-0.047085	5.993094	-14.892416	5.993094	9413.5	-9.11469E-12	-1.09713E+11	17.261939	0.581362	0	0
0	0	0	-0.045615	5.992916	-14.890172	5.992916	9420.5	-1.489184E-11	-6.715085E+10	17.098913	0.58057	0	0
0	0	0	-0.045982	5.993035	-14.890916	5.993035	9419	-1.047269E-11	-9.548647E+10	17.274057	0.578946	0	0
0	0	0	-0.045574	5.992949	-14.890203	5.992949	9421	-1.333091E-11	-7.501365E+10	17.065274	0.578946	0	0
0	0	0	-0.04492	5.993035	-14.889614	5.993035	9424	-1.047825E-11	-9.543581E+10	17.216643	0.576372	0	0
0	0	0	-0.044879	5.992705	-14.888747	5.992705	9424.5	-5.953687E-11	-1.679632E+10	17.125443	0.576372	0	0
0	0	0	-0.045043	5.992896	-14.889421	5.992896	9423.5	-1.602284E-11	-6.241091E+10	17.10661	0.574668	0	0
0	0	0	-0.043695	5.993035	-14.888111	5.993035	9430.5	-1.048547E-11	-9.537003E+10	17.195056	0.573678	0	0
0	0	0	-0.043736	5.992929	-14.887899	5.992929	9430.5	-1.424034E-11	-7.022302E+10	17.017658	0.573124	0	0
0	0	0	-0.04345	5.992672	-14.886912	5.992672	9432	-1.120352E-10	-8.925769E+9	17.211845	0.571262	0	0
0	0	0	-0.042062	5.992771	-14.885453	5.992771	9439	-3.079459E-11	-3.247324E+10	17.001413	0.571539	0	0
0	0	0	-0.04247	5.993127	-14.886836	5.993127	9437	-8.525671E-12	-1.172928E+11	17.151559	0.568846	0	0
0	0	0	-0.042552	5.992909	-14.886398	5.992909	9436.5	-1.527503E-11	-6.546631E+10	17.074044	0.568886	0	0
0	0	0	-0.043818	5.992982	-14.88813	5.992982	9430	-1.207716E-11	-8.280092E+10	17.026326	0.567182	0	0
0	0	0	-0.042878	5.99285	-14.886651	5.99285	9435	-1.947865E-11	-5.133827E+10	17.125748	0.566192	0	0
0	0	0	-0.042062	5.992843	-14.885633	5.992843	9439	-2.010202E-11	-4.974624E+10	16.936217	0.565796	0	0
0	0	0	-0.04247	5.99283	-14.886101	5.99283	9437	-2.145206E-11	-4.661557E+10	17.128633	0.563736	0	0
0	0	0	-0.043736	5.992896	-14.887818	5.992896	9430.5	-1.603474E-11	-6.236458E+10	16.921241	0.564172	0	0
0	0	0	-0.043818	5.992771	-14.887608	5.992771	9430	-3.076522E-11	-3.250423E+10	17.07265	0.561558	0	0
0	0	0	-0.043859	5.992817	-14.887772	5.992817	9430	-2.2985E-11	-4.350663E+10	17.001889	0.561875	0	0
0	0	0	-0.043736	5.992712	-14.887361	5.992712	9430.5	-5.447419E-11	-1.835732E+10	16.952422	0.560251	0	0
0	0	0	-0.045124	5.993114	-14.89006	5.993114	9423.5	-8.747747E-12	-1.143151E+11	17.070879	0.559142	0	0
0	0	0	-0.044634	5.99287	-14.888855	5.99287	9425.5	-1.78229E-11	-5.610758E+10	16.879261	0.558548	0	0
0	0	0	-0.045165	5.992791	-14.88931	5.992791	9423	-2.684766E-11	-3.72472E+10	17.072281	0.556567	0	0
0	0	0	-0.046227	5.992962	-14.891037	5.992962	9417.5	-1.278948E-11	-7.818925E+10	16.881556	0.556924	0	0
0	0	0	-0.046145	5.993147	-14.891395	5.993147	9418	-8.179907E-12	-1.222508E+11	17.008967	0.554309	0	0
0	0	0	-0.04733	5.992916	-14.892276	5.992916	9412	-1.487841E-11	-6.72115E+10	16.946984	0.554389	0	0
0	0	0	-0.047942	5.99318	-14.893681	5.99318	9409	-7.677891E-12	-1.302441E+11	16.870514	0.552844	0	0
0	0	0	-0.0488	5.993002	-14.894292	5.993002	9404.5	-1.139555E-11	-8.775353E+10	16.982369	0.551774	0	0
0	0	0	-0.049371	5.992956	-14.894879	5.992956	9401.5	-1.303003E-11	-7.674578E+10	16.762383	0.551656	0	0
0	0	0	-0.049698	5.992936	-14.895231	5.992936	9400	-1.388355E-11	-7.202766E+10	16.989371	0.54924	0	0
0	0	0	-0.051209	5.993022	-14.897297	5.993022	9392.5	-1.079916E-11	-9.259979E+10	16.78849	0.549636	0	0
0	0	0	-0.051699	5.993173	-14.898274	5.993173	9390	-7.756196E-12	-1.289292E+11	16.908968	0.547219	0	0
0	0	0	-0.049453	5.992929	-14.894914	5.992929	9401	-1.41958E-11	-7.044338E+10	16.861183	0.54714	0	0
0	0	0	-0.051209	5.993081	-14.897444	5.993081	9392.5	-9.363102E-12	-1.068022E+11	16.778074	0.545952	0	0
0	0	0	-0.051822	5.993061	-14.898147	5.993061	9389	-9.793733E-12	-1.021061E+11	16.923188	0.544526	0	0
0	0	0	-0.052148	5.993041	-14.898498	5.993041	9387.5	-1.026844E-11	-9.738577E+10	16.700065	0.544526	0	0
0	0	0	-0.052761	5.992698	-14.898401	5.992698	9384.5	-6.540858E-11	-1.528851E+10	16.914211	0.542229	0	0
0	0	0	-0.054231	5.99285	-14.90058	5.99285	9377	-1.935891E-11	-5.165581E+10	16.731046	0.542466	0	0
0	0	0	-0.053006	5.993002	-14.899453	5.993002	9383.5	-1.137011E-11	-8.794992E+10	16.837756	0.540209	0	0
0	0	0	-0.053088	5.992857	-14.899193	5.992857	9382.5	-1.879513E-11	-5.320526E+10	16.797314	0.54009	0	0
0	0	0	-0.052557	5.992916	-14.898689	5.992916	9385.5	-1.483652E-11	-6.740127E+10	16.677509	0.53902	0	0
0	0	0	-0.053006	5.992857	-14.899093	5.992857	9383.5	-1.879714E-11	-5.319959E+10	16.823426	0.537555	0	0
0	0	0	-0.051822	5.992843	-14.897608	5.992843	9389	-1.999554E-11	-5.001116E+10	16.602256	0.537476	0	0
0	0	0	-0.050515	5.993147	-14.896756	5.993147	9396	-8.1608E-12	-1.22537E+11	16.813637	0.53502	0	0
0	0	0	-0.050719	5.992995	-14.89663	5.992995	9395	-1.159224E-11	-8.626464E+10	16.643291	0.535495	0	0
0	0	0	-0.049617	5.992824	-14.894853	5.992824	9400.5	-2.211417E-11	-4.521987E+10	16.736112	0.533515	0	0
0	0	0	-0.048391	5.992843	-14.893399	5.992843	9406.5	-2.003281E-11	-4.991812E+10	16.718295	0.533237	0	0
0	0	0	-0.048146	5.992876	-14.89318	5.992876	9408	-1.730481E-11	-5.778739E+10	16.6136	0.53201	0	0
0	0	0	-0.049167	5.992758	-14.894139	5.992758	9402.5	-3.395982E-11	-2.944656E+10	16.766847	0.530663	0	0
0	0	0	-0.048187	5.992936	-14.893377	5.992936	9407.5	-1.389463E-11	-7.197024E+10	16.536014	0.530702	0	0
0	0	0	-0.046554	5.992909	-14.891308	5.992909	9416	-1.524185E-11	-6.560884E+10	16.745942	0.528326	0	0
0	0	0	-0.045941	5.992923	-14.890589	5.992923	9419	-1.45486E-11	-6.873515E+10	16.580089	0.528564	0	0
0	0	0	-0.046023	5.993232	-14.891457	5.993232	9418.5	-7.007598E-12	-1.427023E+11	16.660234	0.526662	0	0
0	0	0	-0.045288	5.992916	-14.889771	5.992916	9422.5	-1.489501E-11	-6.71366E+10	16.641903	0.526385	0	0
0	0	0	-0.045206	5.992956	-14.889769	5.992956	9423	-1.305983E-11	-7.657067E+10	16.522824	0.525514	0	0
0	0	0	-0.045206	5.992824	-14.889442	5.992824	9423	-2.21671E-11	-4.511189E+10	0	0	0	0
0	0	0	-0.044063	5.992863	-14.888137	5.992863	9428.5	-1.834267E-11	-5.45177E+10	0	0	0	0
0	0	0	-0.044675	5.992797	-14.888725	5.992797	9425.5	-2.576666E-11	-3.880984E+10	0	0	0	0
0	0	0	-0.044798	5.993028	-14.889447	5.993028	9425	-1.065495E-11	-9.385308E+10	0	0	0	0
0	0	0	-0.043981	5.993035	-14.888461	5.993035	9429	-1.048381E-11	-9.53852E+10	0	0	0	0
0	0	0	-0.044512	5.992969	-14.888949	5.992969	9426.5	-1.254911E-11	-7.968695E+10	0	0	0	0
0	0	0	-0.044063	5.992929	-14.8883	5.992929	9428.5	-1.423732E-11	-7.023792E+10	0	0	0	0
0	0	0	-0.045615	5.992929	-14.890204	5.992929	9420.5	-1.422524E-11	-7.029757E+10	0	0	0	0
0	0	0	-0.045615	5.992942	-14.890237	5.992942	9420.5	-1.361576E-11	-7.344428E+10	0	0	0	0
0	0	0	-0.044267	5.992784	-14.888192	5.992784	9427.5	-2.80448E-11	-3.565723E+10	0	0	0	0
0	0	0	-0.046635	5.992665	-14.890804	5.992665	9415.5	-1.357364E-10	-7.367218E+9	0	0	0	0
0	0	0	-0.045124	5.992923	-14.889587	5.992923	9423.5	-1.455555E-11	-6.870233E+10	0	0	0	0
0	0	0	-0.046105	5.992942	-14.890838	5.992942	9418.5	-1.361287E-11	-7.345987E+10	0	0	0	0
0	0	0	-0.047125	5.993002	-14.892238	5.993002	9413	-1.140585E-11	-8.767429E+10	0	0	0	0
0	0	0	-0.047248	5.992982	-14.892339	5.992982	9412.5	-1.205475E-11	-8.295486E+10	0	0	0	0
0	0	0	-0.04831	5.992797	-14.893184	5.992797	9407	-2.571609E-11	-3.888616E+10	0	0	0	0
0	0	0	-0.048718	5.992949	-14.894061	5.992949	9405	-1.330827E-11	-7.514127E+10	0	0	0	0
0	0	0	-0.048636	5.992784	-14.893553	5.992784	9405.5	-2.797936E-11	-3.574063E+10	0	0	0	0
0	0	0	-0.050188	5.99287	-14.895669	5.99287	9397.5	-1.776996E-11	-5.627475E+10	0	0	0	0
0	0	0	-0.051046	5.992916	-14.896835	5.992916	9393.5	-1.484916E-11	-6.734387E+10	0	0	0	0
0	0	0	-0.051699	5.993002	-14.897849	5.993002	9390	-1.137798E-11	-8.788904E+10	0	0	0	0
0	0	0	-0.052312	5.993028	-14.898666	5.993028	9387	-1.061199E-11	-9.423301E+10	0	0	0	0
0	0	0	-0.052557	5.992837	-14.898493	5.992837	9385.5	-2.063959E-11	-4.845058E+10	0	0	0	0
0	0	0	-0.052108	5.993028	-14.898416	5.993028	9387.5	-1.061256E-11	-9.422799E+10	0	0	0	0
0	0	0	-0.053455	5.992969	-14.899922	5.992969	9381	-1.248853E-11	-8.007345E+10	0	0	0	0
0	0	0	-0.051781	5.993087	-14.898162	5.993087	9389.5	-9.223826E-12	-1.084149E+11	0	0	0	0
0	0	0	-0.052924	5.992896	-14.899091	5.992896	9383.5	-1.595483E-11	-6.267695E+10	0	0	0	0
0	0	0	-0.05419	5.992916	-14.900693	5.992916	9377	-1.482308E-11	-6.746237E+10	0	0	0	0
0	0	0	-0.054068	5.993213	-14.901278	5.993213	9377.5	-7.215816E-12	-1.385845E+11	0	0	0	0
0	0	0	-0.053741	5.993068	-14.900518	5.993068	9379.5	-9.634861E-12	-1.037898E+11	0	0	0	0
0	0	0	-0.054721	5.992824	-14.901116	5.992824	9374.5	-2.205301E-11	-4.534528E+10	0	0	0	0
0	0	0	-0.053455	5.993054	-14.900134	5.993054	9381	-9.939053E-12	-1.006132E+11	0	0	0	0
0	0	0	-0.054435	5.993186	-14.901664	5.993186	9376	-7.559531E-12	-1.322833E+11	0	0	0	0
0	0	0	-0.053741	5.992942	-14.900207	5.992942	9379.5	-1.355651E-11	-7.376532E+10	0	0	0	0
0	0	0	-0.052516	5.993028	-14.898917	5.993028	9385.5	-1.06103E-11	-9.424807E+10	0	0	0	0
0	0	0	-0.052067	5.992962	-14.898202	5.992962	9388	-1.274942E-11	-7.843494E+10	0	0	0	0
0	0	0	-0.052148	5.993015	-14.898433	5.993015	9387.5	-1.098054E-11	-9.107022E+10	0	0	0	0
0	0	0	-0.051618	5.992916	-14.897537	5.992916	9390.5	-1.484442E-11	-6.736538E+10	0	0	0	0
0	0	0	-0.049821	5.992843	-14.895153	5.992843	9399.5	-2.00179E-11	-4.995529E+10	0	0	0	0
0	0	0	-0.050025	5.992837	-14.895387	5.992837	9398.5	-2.066817E-11	-4.838357E+10	0	0	0	0
0	0	0	-0.048228	5.992956	-14.893476	5.992956	9407.5	-1.303835E-11	-7.669683E+10	0	0	0	0
0	0	0	-0.047697	5.992936	-14.892776	5.992936	9410	-1.389832E-11	-7.195112E+10	0	0	0	0
0	0	0	-0.04688	5.992784	-14.891398	5.992784	9414.5	-2.800613E-11	-3.570647E+10	0	0	0	0
0	0	0	-0.047166	5.992837	-14.89188	5.992837	9413	-2.070006E-11	-4.830904E+10	0	0	0	0
0	0	0	-0.04688	5.992672	-14.89112	5.992672	9414.5	-1.118273E-10	-8.94236E+9	0	0	0	0
0	0	0	-0.046227	5.992969	-14.891054	5.992969	9417.5	-1.253712E-11	-7.976311E+10	0	0	0	0
0	0	0	-0.04586	5.992804	-14.890195	5.992804	9419.5	-2.474752E-11	-4.040808E+10	0	0	0	0
0	0	0	-0.04492	5.992811	-14.889059	5.992811	9424	-2.383134E-11	-4.196156E+10	0	0	0	0
0	0	0	-0.045288	5.99287	-14.889656	5.99287	9422.5	-1.781723E-11	-5.612544E+10	0	0	0	0
0	0	0	-0.044634	5.992936	-14.889018	5.992936	9425.5	-1.392122E-11	-7.18328E+10	0	0	0	0
0	0	0	-0.04541	5.992903	-14.889888	5.992903	9422	-1.562648E-11	-6.399395E+10	0	0	0	0
0	0	0	-0.045084	5.992903	-14.889488	5.992903	9423.5	-1.562896E-11	-6.398376E+10	0	0	0	0
0	0	0	-0.046268	5.993022	-14.891235	5.993022	9417.5	-1.082791E-11	-9.235397E+10	0	0	0	0
0	0	0	-0.045124	5.992778	-14.889227	5.992778	9423.5	-2.932594E-11	-3.409951E+10	0	0	0	0
0	0	0	-0.045819	5.99287	-14.890308	5.99287	9420	-1.78125E-11	-5.614034E+10	0	0	0	0
0	0	0	-0.044634	5.992817	-14.888724	5.992817	9425.5	-2.297403E-11	-4.35274E+10	0	0	0	0
0	0	0	-0.046431	5.992817	-14.890929	5.992817	9416.5	-2.29521E-11	-4.356901E+10	0	0	0	0
0	0	0	-0.046717	5.992956	-14.891622	5.992956	9415	-1.304874E-11	-7.663573E+10	0	0	0	0
0	0	0	-0.047207	5.992929	-14.892158	5.992929	9412.5	-1.421316E-11	-7.035731E+10	0	0	0	0
0	0	0	-0.047656	5.99287	-14.892562	5.99287	9410.5	-1.779454E-11	-5.619701E+10	0	0	0	0
0	0	0	-0.04831	5.993015	-14.893723	5.993015	9407	-1.100335E-11	-9.088144E+10	0	0	0	0
0	0	0	-0.048963	5.992804	-14.894002	5.992804	9404	-2.47068E-11	-4.047468E+10	0	0	0	0
0	0	0	-0.048922	5.992975	-14.894377	5.992975	9404	-1.227691E-11	-8.145373E+10	0	0	0	0
0	0	0	-0.051168	5.992843	-14.896806	5.992843	9392.5	-2.000299E-11	-4.999252E+10	0	0	0	0
0	0	0	-0.050107	5.992876	-14.895585	5.992876	9398	-1.728642E-11	-5.784888E+10	0	0	0	0
0	0	0	-0.051699	5.993107	-14.898111	5.993107	9390	-8.838255E-12	-1.131445E+11	0	0	0	0
0	0	0	-0.053496	5.992804	-14.899564	5.992804	9380.5	-2.464506E-11	-4.057608E+10	0	0	0	0
0	0	0	-0.054844	5.992975	-14.901642	5.992975	9374	-1.223774E-11	-8.171441E+10	0	0	0	0
0	0	0	-0.053823	5.993035	-14.900536	5.993035	9379	-1.042821E-11	-9.589371E+10	0	0	0	0
0	0	0	-0.053169	5.992936	-14.89949	5.992936	9382.5	-1.385771E-11	-7.216201E+10	0	0	0	0
0	0	0	-0.053741	5.992942	-14.900207	5.992942	9379.5	-1.355651E-11	-7.376532E+10	0	0	0	0
0	0	0	-0.054027	5.99287	-14.900378	5.99287	9378	-1.773309E-11	-5.639177E+10	0	0	0	0
0	0	0	-0.053986	5.992824	-14.900214	5.992824	9378.5	-2.206242E-11	-4.532594E+10	0	0	0	0
0	0	0	-0.05468	5.993153	-14.901882	5.993153	9375	-8.039071E-12	-1.243925E+11	0	0	0	0
0	0	0	-0.05517	0	-0.05517	0	9372	0	0	0	0	0	0
0	0	0	-0.056967	0	-0.056967	0	9363	0	0	0	0	0	0
