Vload_(V)	ILoad_(A)	RsLoad (ohm)	SunsVoc_Voltage_(V)	SunsVoc_Current_(A)	Model_Voltage_(V)	Model_Current_(A)	Carrier_Density_(cm-3)	Lifetime_(s)	Inverse_Lifetime_(s-1)	Efficiency_(%)	Intensity_(suns)	Dark_IV_Voltage_(V)	Dark_IV_Current_(A)
5.61448	6.443823	0	66.098587	-1.00875	66.391308	-1.00875	4.344871E+15	0.000245	4054.720006	19.984603	1.122377	0	0
5.50046	6.444772	-0.499809	66.142038	-0.881502	66.395913	-0.881502	4.393329E+15	0.000252	3939.950651	19.924936	1.12202	0	0
9.332601	6.439553	4.721878	65.982979	-0.393656	66.099492	-0.393656	4.218135E+15	0.000259	3831.91551	20.062969	1.121862	0	0
14.348017	6.420372	5.514314	65.79215	0.083811	65.766542	0.083811	4.015777E+15	0.000265	3746.026594	19.880434	1.121743	0	0
18.99339	6.415654	4.889632	65.597645	0.541888	65.426793	0.541888	3.81801E+15	0.000272	3658.21419	20.093302	1.120236	0	0
23.753426	6.410753	4.230606	65.40216	0.964115	65.088736	0.964115	3.627567E+15	0.000278	3576.618831	19.884705	1.120553	0	0
28.695428	6.411853	3.442591	65.211086	1.331679	64.765416	1.331679	3.449188E+15	0.000283	3510.954551	20.063633	1.117618	0	0
33.962245	6.325398	3.27813	65.035244	1.662011	64.464373	1.662011	3.291577E+15	0.000289	3442.711846	19.95037	1.117816	0	0
38.806229	6.32118	2.52988	64.853153	1.970755	64.158247	1.970755	3.134754E+15	0.000294	3382.89088	19.958453	1.115476	0	0
43.282872	6.386809	1.449135	64.673921	2.257077	63.857777	2.257077	2.986529E+15	0.000299	3324.721232	20.011012	1.115	0	0
48.087607	6.331026	1.021746	64.498324	2.524144	63.563393	2.524144	2.847015E+15	0.000305	3266.25745	19.851928	1.114167	0	0
52.834954	6.135091	0.749023	64.318643	2.77461	63.26595	2.77461	2.709911E+15	0.00031	3213.279242	20.028202	1.112581	0	0
53.959603	6.040186	0.699466	64.141126	3.00873	62.972836	3.00873	2.579888E+15	0.000315	3160.801778	19.80245	1.112502	0	0
55.065821	5.919172	0.65171	63.958546	3.227843	62.675633	3.227843	2.4516E+15	0.00032	3114.942302	19.9991	1.110717	0	0
56.19938	5.748163	0.610486	63.782867	3.432814	62.388258	3.432814	2.333198E+15	0.000325	3065.186719	19.827275	1.111708	0	0
57.287198	5.527284	0.576482	63.605065	3.624197	62.100404	3.624197	2.21823E+15	0.00033	3019.8601	19.916964	1.110122	0	0
58.352467	5.253469	0.541231	63.423464	3.801052	61.810779	3.801052	2.105692E+15	0.000334	2982.423539	19.90669	1.110796	0	0
59.430218	4.888671	0.512881	63.250603	3.961075	61.535702	3.961075	2.003005E+15	0.000339	2946.08319	19.835774	1.110161	0	0
60.437633	4.452627	0.490135	63.084194	4.104841	61.272811	4.104841	1.908105E+15	0.000342	2914.069028	19.991306	1.109606	0	0
61.502649	3.878026	0.465599	62.91317	4.243803	61.004085	4.243803	1.814489E+15	0.000346	2882.867977	19.809223	1.109725	0	0
62.48108	3.233781	0.445586	62.743453	4.37533	60.737979	4.37533	1.725388E+15	0.00035	2850.953997	20.035739	1.108258	0	0
63.381528	2.529029	0.432132	62.574635	4.49806	60.474843	4.49806	1.640395E+15	0.000354	2821.17256	19.836722	1.108853	0	0
64.255975	1.750004	0.426102	62.407817	4.613395	60.215608	4.613395	1.559858E+15	0.000358	2791.353075	19.999862	1.106632	0	0
64.987192	1.021674	0.413308	62.240714	4.721535	59.95757	4.721535	1.482511E+15	0.000361	2763.821283	19.922034	1.106513	0	0
54.276744	6.015243	0.677882	62.073692	4.822958	59.701126	4.822958	1.408427E+15	0.000365	2738.202306	19.925581	1.104371	0	0
65.869765	0	0	61.907488	4.918519	59.446934	4.918519	1.337802E+15	0.000368	2713.090514	19.996484	1.103498	0	0
0	0	0	61.738016	5.008341	59.189982	5.008341	1.268868E+15	0.000371	2692.310802	19.843412	1.102189	0	0
0	0	0	61.575854	5.090907	58.944433	5.090907	1.205725E+15	0.000374	2670.577043	20.03366	1.100087	0	0
0	0	0	61.413896	5.166471	58.701474	5.166471	1.145323E+15	0.000376	2654.613755	19.80738	1.099453	0	0
0	0	0	61.259778	5.235429	58.470709	5.235429	1.090237E+15	0.000379	2638.382876	20.011946	1.096438	0	0
0	0	0	61.104436	5.299648	58.239889	5.299648	1.037E+15	0.00038	2626.59798	19.850588	1.09624	0	0
0	0	0	60.95379	5.3609	58.015653	5.3609	9.87497E+14	0.000383	2610.763476	19.93714	1.093424	0	0
0	0	0	60.798815	5.418947	57.786769	5.418947	9.386861E+14	0.000384	2599.450158	19.918394	1.092948	0	0
0	0	0	60.647515	5.473384	57.563701	5.473384	8.930366E+14	0.000386	2587.329111	19.841416	1.090806	0	0
0	0	0	60.495603	5.524477	57.340935	5.524477	8.491305E+14	0.000388	2577.969376	19.981635	1.089616	0	0
0	0	0	60.346999	5.574091	57.122479	5.574091	8.079902E+14	0.00039	2563.13167	19.787221	1.088585	0	0
0	0	0	60.196516	5.620014	56.903038	5.620014	7.680947E+14	0.000391	2553.995936	19.998681	1.086523	0	0
0	0	0	60.048075	5.663372	56.687048	5.663372	7.304241E+14	0.000393	2544.451105	19.789745	1.08688	0	0
0	0	0	59.897592	5.704172	56.469325	5.704172	6.938854E+14	0.000394	2538.50188	19.953886	1.084302	0	0
0	0	0	59.749274	5.742721	56.255144	5.742721	6.594436E+14	0.000395	2531.948858	19.868374	1.084381	0	0
0	0	0	59.601282	5.778835	56.04231	5.778835	6.265798E+14	0.000396	2527.554455	19.877682	1.082279	0	0
0	0	0	59.455455	5.812566	55.83322	5.812566	5.956141E+14	0.000396	2524.148272	19.950296	1.0822	0	0
0	0	0	59.307544	5.844278	55.622218	5.844278	5.655939E+14	0.000396	2524.646031	19.808068	1.081089	0	0
0	0	0	59.164371	5.874341	55.417929	5.874341	5.378201E+14	0.000396	2521.941861	20.01106	1.079225	0	0
0	0	0	59.021852	5.902367	55.21537	5.902367	5.113843E+14	0.000396	2521.829395	19.805437	1.07863	0	0
0	0	0	58.880149	5.929009	55.014372	5.929009	4.862561E+14	0.000396	2521.693235	20.004424	1.07629	0	0
0	0	0	58.73963	5.953743	54.815791	5.953743	4.624361E+14	0.000396	2524.231653	19.843905	1.076092	0	0
0	0	0	58.602582	5.977725	54.621873	5.977725	4.402205E+14	0.000396	2521.892584	19.937794	1.073196	0	0
0	0	0	58.459981	6.000356	54.42131	6.000356	4.181312E+14	0.000396	2526.235451	19.932196	1.072125	0	0
0	0	0	58.324036	6.021698	54.229967	6.021698	3.980125E+14	0.000396	2526.235778	19.85088	1.070182	0	0
0	0	0	58.182823	6.041902	54.03225	6.041902	3.780493E+14	0.000395	2532.366547	19.985384	1.068715	0	0
0	0	0	58.048675	6.060716	53.844423	6.060716	3.599347E+14	0.000394	2535.326343	19.79679	1.067366	0	0
0	0	0	57.913383	6.078879	53.655308	6.078879	3.424731E+14	0.000394	2538.288513	20.009774	1.064471	0	0
0	0	0	57.78046	6.095752	53.469951	6.095752	3.260776E+14	0.000393	2542.680693	19.798868	1.064193	0	0
0	0	0	57.64378	6.111741	53.280092	6.111741	3.099747E+14	0.000392	2551.920769	19.951269	1.061258	0	0
0	0	0	57.510163	6.127184	53.09441	6.127184	2.949455E+14	0.000391	2557.248414	19.851558	1.060861	0	0
0	0	0	57.37626	6.141836	52.908724	6.141836	2.805636E+14	0.00039	2563.952805	19.861636	1.058323	0	0
0	0	0	57.243418	6.155492	52.724961	6.155492	2.669419E+14	0.000389	2572.937319	19.936209	1.057252	0	0
0	0	0	57.113476	6.168446	52.545332	6.168446	2.542157E+14	0.000388	2580.367861	19.797379	1.055864	0	0
0	0	0	56.978879	6.180861	52.35984	6.180861	2.416328E+14	0.000386	2592.365071	19.993946	1.05396	0	0
0	0	0	56.847998	6.193011	52.179249	6.193011	2.299588E+14	0.000385	2598.109402	19.775889	1.053683	0	0
0	0	0	56.713686	6.204191	51.99474	6.204191	2.185309E+14	0.000383	2612.124458	19.98745	1.050787	0	0
0	0	0	56.586643	6.214773	51.820072	6.214773	2.082155E+14	0.000382	2620.468775	19.817264	1.050906	0	0
0	0	0	56.455966	6.225202	51.64062	6.225202	1.980856E+14	0.00038	2629.076498	19.92095	1.04813	0	0
0	0	0	56.328719	6.234609	51.46633	6.234609	1.88671E+14	0.000379	2641.497941	19.901663	1.047694	0	0
0	0	0	56.196654	6.244157	51.285482	6.244157	1.793495E+14	0.000377	2651.970963	19.83806	1.045711	0	0
0	0	0	56.069203	6.253035	51.1111	6.253035	1.7077E+14	0.000376	2661.378059	19.980281	1.044084	0	0
0	0	0	55.943957	6.26128	50.940009	6.26128	1.627206E+14	0.000374	2672.335671	19.792701	1.042895	0	0
0	0	0	55.814628	6.269306	50.763622	6.269306	1.547895E+14	0.000372	2685.737901	20.010028	1.040316	0	0
0	0	0	55.690811	6.27667	50.594917	6.27667	1.475437E+14	0.000371	2698.745096	19.800228	1.039841	0	0
0	0	0	55.563646	6.284012	50.421736	6.284012	1.404408E+14	0.000369	2710.71253	19.977359	1.036668	0	0
0	0	0	55.438727	6.290843	50.251836	6.290843	1.337836E+14	0.000367	2723.961721	19.881738	1.035676	0	0
0	0	0	55.312991	6.297569	50.080863	6.297569	1.273897E+14	0.000366	2734.911858	19.901859	1.0329	0	0
0	0	0	55.188399	6.303803	49.911723	6.303803	1.213449E+14	0.000364	2748.781972	19.954891	1.031749	0	0
0	0	0	55.065889	6.309776	49.745465	6.309776	1.156714E+14	0.000362	2760.59042	19.819591	1.029766	0	0
0	0	0	54.93901	6.315172	49.573872	6.315172	1.10066E+14	0.000359	2784.388654	20.007923	1.027307	0	0
0	0	0	54.818297	6.320604	49.4103	6.320604	1.049776E+14	0.000358	2796.109062	19.779959	1.026514	0	0
0	0	0	54.694603	6.325893	49.242858	6.325893	1.000002E+14	0.000356	2809.284766	19.997721	1.023341	0	0
0	0	0	54.571154	6.331027	49.075808	6.331027	9.526126E+13	0.000355	2820.661516	19.805996	1.023143	0	0
0	0	0	54.446439	6.335516	48.907591	6.335516	9.069558E+13	0.000352	2844.750689	19.926975	1.01997	0	0
0	0	0	54.324705	6.339774	48.743449	6.339774	8.644467E+13	0.000349	2867.287579	19.889193	1.019296	0	0
0	0	0	54.20293	6.344166	48.579082	6.344166	8.238673E+13	0.000347	2881.522468	19.836834	1.017233	0	0
0	0	0	54.074417	6.348594	48.405748	6.348594	7.830578E+13	0.000345	2896.983153	19.95965	1.015488	0	0
0	0	0	53.946109	6.352345	48.233234	6.352345	7.442842E+13	0.000342	2927.845308	19.784926	1.014139	0	0
0	0	0	53.823476	6.356154	48.068106	6.356154	7.089829E+13	0.000339	2945.678529	20.004068	1.011561	0	0
0	0	0	53.701906	6.359654	47.904611	6.359654	6.756059E+13	0.000337	2967.772851	19.794754	1.010808	0	0
0	0	0	53.583153	6.363153	47.744791	6.363153	6.444902E+13	0.000335	2981.71823	19.981183	1.007833	0	0
0	0	0	53.45411	6.366488	47.571507	6.366488	6.1227E+13	0.000332	3008.877382	19.856351	1.007476	0	0
0	0	0	53.331845	6.369488	47.407434	6.369488	5.832031E+13	0.000329	3036.322917	19.916535	1.004303	0	0
0	0	0	53.211908	6.372535	47.246351	6.372535	5.560076E+13	0.000327	3054.265481	19.949686	1.003034	0	0
0	0	0	53.093849	6.375367	47.087914	6.375367	5.304565E+13	0.000325	3074.217375	19.837071	1.000892	0	0
0	0	0	52.969665	6.378104	46.921449	6.378104	5.04826E+13	0.000322	3101.159604	20.005377	0.998711	0	0
0	0	0	52.848217	6.380954	46.758453	6.380954	4.809404E+13	0.000321	3114.005468	19.794689	0.997362	0	0
0	0	0	52.727422	6.383244	46.596823	6.383244	4.582884E+13	0.000318	3148.87754	20.010132	0.994388	0	0
0	0	0	52.601768	6.385751	46.42854	6.385751	4.358411E+13	0.000315	3174.028175	19.821406	0.993357	0	0
0	0	0	52.484567	6.388096	46.271544	6.388096	4.158831E+13	0.000313	3192.035066	19.949755	0.990223	0	0
0	0	0	52.357688	6.390239	46.101939	6.390239	3.952931E+13	0.00031	3229.143839	19.881158	0.989351	0	0
0	0	0	52.230319	6.392391	45.93165	6.392391	3.756367E+13	0.000307	3261.631289	19.868919	0.986376	0	0
0	0	0	52.108258	6.394476	45.768412	6.394476	3.57707E+13	0.000304	3286.274939	19.956499	0.984909	0	0
0	0	0	51.985422	6.396486	45.604198	6.396486	3.40518E+13	0.000302	3311.570354	19.797739	0.982886	0	0
0	0	0	51.860543	6.398315	45.437443	6.398315	3.238811E+13	0.000299	3347.120933	19.9932	0.980625	0	0
0	0	0	51.735257	6.400184	45.270087	6.400184	3.079985E+13	0.000296	3375.190744	19.783208	0.979514	0	0
0	0	0	51.617035	6.401647	45.112452	6.401647	2.937198E+13	0.000292	3420.642138	19.982817	0.976421	0	0
0	0	0	51.491503	6.403632	44.944609	6.403632	2.792756E+13	0.000292	3428.249241	19.822858	0.975945	0	0
0	0	0	51.372219	6.404962	44.785669	6.404962	2.662036E+13	0.000288	3477.528029	19.917153	0.972613	0	0
0	0	0	51.253793	6.406849	44.62727	6.406849	2.538259E+13	0.000288	3470.034358	19.91401	0.971701	0	0
0	0	0	51.128833	6.408205	44.460768	6.408205	2.413841E+13	0.000284	3515.019352	19.837911	0.969321	0	0
0	0	0	51.014613	6.409203	44.308815	6.409203	2.305419E+13	0.00028	3577.283775	19.989019	0.967338	0	0
0	0	0	50.893737	6.410388	44.147859	6.410388	2.19594E+13	0.000276	3627.086508	19.786253	0.966069	0	0
0	0	0	50.773473	6.412029	43.987213	6.412029	2.092142E+13	0.000276	3620.08743	20.011557	0.963213	0	0
0	0	0	50.655701	6.413171	43.830372	6.413171	1.99522E+13	0.000273	3659.605747	19.802319	0.96238	0	0
0	0	0	50.530169	6.41409	43.663503	6.41409	1.89682E+13	0.000268	3734.030629	19.966917	0.959287	0	0
0	0	0	50.409293	6.415294	43.502468	6.415294	1.806633E+13	0.000266	3761.736675	19.86916	0.958216	0	0
0	0	0	50.283393	6.416358	43.334931	6.416358	1.717228E+13	0.000262	3809.999402	19.890391	0.95544	0	0
0	0	0	50.158352	6.417451	43.168482	6.417451	1.63279E+13	0.00026	3847.553343	19.946061	0.953813	0	0
0	0	0	50.028614	6.418475	42.995888	6.418475	1.549544E+13	0.000257	3896.755194	19.818133	0.951711	0	0
0	0	0	49.897488	6.419459	42.821489	6.419459	1.469699E+13	0.000253	3948.969823	20.001575	0.949213	0	0
0	0	0	49.767301	6.420279	42.648502	6.420279	1.394478E+13	0.000249	4022.006878	19.783777	0.9483	0	0
0	0	0	49.632213	6.42133	42.468768	6.42133	1.320476E+13	0.000246	4057.789531	20.002851	0.945207	0	0
0	0	0	49.495206	6.422127	42.286768	6.422127	1.249416E+13	0.000242	4136.66985	19.819855	0.944374	0	0
0	0	0	49.355096	6.422996	42.100573	6.422996	1.180685E+13	0.000238	4202.072699	19.945861	0.94128	0	0
0	0	0	49.214904	6.423466	41.91471	6.423466	1.115684E+13	0.00023	4346.50096	19.892318	0.940408	0	0
0	0	0	49.066014	6.424536	41.716656	6.424536	1.050551E+13	0.000229	4373.319001	19.857711	0.937949	0	0
0	0	0	48.91888	6.425218	41.521354	6.425218	9.899102E+12	0.000223	4477.105266	19.971345	0.936164	0	0
0	0	0	48.762516	6.425941	41.313794	6.425941	9.292863E+12	0.000218	4584.031758	19.807504	0.934419	0	0
0	0	0	48.611625	6.426661	41.11346	6.426661	8.742966E+12	0.000214	4676.109482	20.016024	0.931999	0	0
0	0	0	48.451954	6.427306	40.901594	6.427306	8.196372E+12	0.000208	4800.414351	19.784055	0.931404	0	0
0	0	0	48.290527	6.428011	40.687325	6.428011	7.67841E+12	0.000204	4905.460936	19.98411	0.928112	0	0
0	0	0	48.126854	6.428756	40.470028	6.428756	7.186572E+12	0.0002	4994.233657	19.835488	0.927835	0	0
0	0	0	47.95775	6.429375	40.245689	6.429375	6.711407E+12	0.000195	5128.27812	19.910123	0.924741	0	0
0	0	0	47.783337	6.42997	40.014347	6.42997	6.254147E+12	0.00019	5276.531865	19.915597	0.923908	0	0
0	0	0	47.603737	6.430529	39.776181	6.430529	5.815764E+12	0.000184	5445.299872	19.831919	0.921846	0	0
0	0	0	47.417482	6.430823	39.529528	6.430823	5.393506E+12	0.000174	5741.591836	19.995183	0.919744	0	0
0	0	0	47.226734	6.431542	39.276404	6.431542	4.992769E+12	0.000171	5859.542715	19.794381	0.918475	0	0
0	0	0	47.025287	6.432105	39.009312	6.432105	4.601788E+12	0.000165	6066.014074	20.008615	0.915738	0	0
0	0	0	46.81751	6.432596	38.733928	6.432596	4.230526E+12	0.000158	6321.673508	19.799517	0.915143	0	0
0	0	0	46.597401	6.433304	38.44195	6.433304	3.869806E+12	0.000154	6475.090756	19.971574	0.91193	0	0
0	0	0	46.36745	6.433781	38.137235	6.433781	3.525727E+12	0.000147	6784.469812	19.867907	0.911454	0	0
0	0	0	46.12337	6.433971	37.814195	6.433971	3.19388E+12	0.000136	7348.093757	19.885485	0.908638	0	0
0	0	0	45.868141	6.434288	37.476239	6.434288	2.880203E+12	0.000127	7885.901756	19.941562	0.907686	0	0
0	0	0	45.603316	6.434985	37.125083	6.434985	2.587228E+12	0.000123	8137.502523	19.802477	0.905822	0	0
0	0	0	45.33159	6.435132	36.765513	6.435132	2.317544E+12	0.000112	8932.9742	19.989898	0.90376	0	0
0	0	0	45.047939	6.435613	36.389718	6.435613	2.065946E+12	0.000106	9465.978015	19.774555	0.90257	0	0
0	0	0	44.752445	6.435734	35.998738	6.435734	1.83283E+12	9.511447E-5	10513.647235	19.997373	0.899754	0	0
0	0	0	44.432531	6.436396	35.57471	6.436396	1.609993E+12	9.10032E-5	10988.62443	19.807439	0.899318	0	0
0	0	0	44.098488	6.436774	35.132367	6.436774	1.406162E+12	8.374693E-5	11940.735744	19.943349	0.896462	0	0
0	0	0	43.747865	6.437117	34.668133	6.437117	1.219902E+12	7.63701E-5	13094.129781	19.889171	0.895589	0	0
0	0	0	43.381397	6.437545	34.182807	6.437545	1.051531E+12	7.031767E-5	14221.176073	19.874226	0.893051	0	0
0	0	0	42.995328	6.437589	33.672095	6.437589	8.992186E+11	6.055714E-5	16513.329244	19.975551	0.891703	0	0
0	0	0	42.593864	6.438072	33.140374	6.438072	7.641795E+11	5.57804E-5	17927.442581	19.810409	0.890076	0	0
0	0	0	42.177657	6.438304	32.589507	6.438304	6.455464E+11	4.909966E-5	20366.74078	20.021615	0.887697	0	0
0	0	0	41.746627	6.438576	32.018961	6.438576	5.420599E+11	4.337185E-5	23056.429253	19.795251	0.887141	0	0
0	0	0	41.296853	6.438777	31.423719	6.438777	4.517153E+11	3.758145E-5	26608.870774	20.000329	0.884246	0	0
0	0	0	40.828049	6.439133	30.803055	6.439133	3.735338E+11	3.343748E-5	29906.55869	19.852295	0.883532	0	0
0	0	0	40.333232	6.439212	30.148404	6.439212	3.056421E+11	2.782407E-5	35940.107382	19.937713	0.880835	0	0
0	0	0	39.819916	6.4396	29.46878	6.4396	2.482205E+11	2.467715E-5	40523.310428	19.923029	0.880161	0	0
0	0	0	39.290429	6.439824	28.768014	6.439824	2.002689E+11	2.102382E-5	47565.099314	19.85854	0.877623	0	0
0	0	0	38.750487	6.440046	28.05341	6.440046	1.608968E+11	1.788404E-5	55915.76726	19.995638	0.875996	0	0
0	0	0	38.187024	6.440111	27.307945	6.440111	1.280379E+11	1.448019E-5	69059.866748	19.80283	0.874807	0	0
0	0	0	37.602938	6.440416	26.534783	6.440416	1.01041E+11	1.244992E-5	80321.818584	20.015313	0.872149	0	0
0	0	0	36.999129	6.440521	25.735861	6.440521	7.910126E+10	1.005711E-5	99432.147756	19.792503	0.871634	0	0
0	0	0	36.379515	6.440846	24.915636	6.440846	6.152982E+10	8.675804E-6	115263.091457	19.987902	0.86854	0	0
0	0	0	35.73495	6.440829	24.063003	6.440829	4.737989E+10	6.642931E-6	150535.964225	19.851726	0.868104	0	0
0	0	0	35.063719	6.440953	23.174834	6.440953	3.609164E+10	5.279562E-6	189409.658917	19.904853	0.865367	0	0
0	0	0	34.382198	6.441382	22.272472	6.441382	2.737833E+10	4.708536E-6	212380.240653	19.940583	0.864296	0	0
0	0	0	33.715826	6.441292	21.391116	6.441292	2.089655E+10	3.465677E-6	288543.883894	19.83339	0.862313	0	0
0	0	0	33.052967	6.441393	20.514039	6.441393	1.597204E+10	2.758962E-6	362455.133419	20.004278	0.860528	0	0
0	0	0	32.401501	6.441592	19.651832	6.441592	1.226456E+10	2.30846E-6	433189.224453	19.793857	0.859418	0	0
0	0	0	31.752689	6.441579	18.793553	6.441579	9.427815E+9	1.76399E-6	566896.562995	20.017109	0.8568	0	0
0	0	0	31.100733	6.441693	17.930854	6.441693	7.237962E+9	1.426935E-6	700802.811244	19.80667	0.856245	0	0
0	0	0	30.448123	6.441957	17.066973	6.441957	5.555286E+9	1.249668E-6	800212.41909	19.965126	0.853468	0	0
0	0	0	29.805723	6.442191	16.216642	6.442191	4.281481E+9	1.101661E-6	907720.442185	19.8704	0.852913	0	0
0	0	0	29.165732	6.442135	15.370106	6.442135	3.30298E+9	8.214383E-7	1217376.870955	19.881551	0.850375	0	0
0	0	0	28.52374	6.442341	14.520356	6.442341	2.546041E+9	7.212627E-7	1386457.345486	19.953317	0.849264	0	0
0	0	0	27.88379	6.442476	13.673451	6.442476	1.964194E+9	6.122354E-7	1633358.630349	19.816054	0.84736	0	0
0	0	0	27.250455	6.442405	12.835749	6.442405	1.519386E+9	4.499186E-7	2222624.50636	20.009924	0.845338	0	0
0	0	0	26.616344	6.442739	11.996108	6.442739	1.174939E+9	4.550662E-7	2197482.323808	19.783556	0.844584	0	0
0	0	0	25.982111	6.442611	11.157345	6.442611	9.085336E+8	3.14794E-7	3176680.776477	20.006722	0.841689	0	0
0	0	0	25.347511	6.442604	10.317822	6.442604	7.024281E+8	2.419763E-7	4132636.544865	19.812551	0.841292	0	0
0	0	0	24.741373	6.442583	9.515989	6.442583	5.493821E+8	1.860101E-7	5376052.210213	19.937896	0.838635	0	0
0	0	0	24.149488	6.442796	8.73245	6.442796	4.321719E+8	1.766802E-7	5659943.916978	19.873503	0.838238	0	0
0	0	0	23.569526	6.442831	7.965105	6.442831	3.41616E+8	1.446638E-7	6912580.572367	19.858585	0.835581	0	0
0	0	0	23.005818	6.442831	7.219346	6.442831	2.718201E+8	1.151097E-7	8687368.761289	19.965597	0.834153	0	0
0	0	0	22.451257	6.442839	6.485671	6.442839	2.170879E+8	9.259638E-8	1.079956E+7	19.786254	0.833042	0	0
0	0	0	21.908212	6.443165	5.76643	6.443165	1.741877E+8	1.111969E-7	8993054.252304	20.004921	0.830504	0	0
0	0	0	21.373008	6.442917	5.059001	6.442917	1.402103E+8	6.496107E-8	1.539383E+7	19.77699	0.830028	0	0
0	0	0	20.851198	6.443023	4.368397	6.443023	1.134751E+8	5.957703E-8	1.678499E+7	19.988535	0.826974	0	0
0	0	0	20.344824	6.443165	3.698117	6.443165	9.241434E+7	5.899685E-8	1.695006E+7	19.816164	0.826657	0	0
0	0	0	19.847231	6.443215	3.039686	6.443215	7.55308E+7	5.216089E-8	1.917145E+7	19.918209	0.82388	0	0
0	0	0	19.360989	6.442988	2.397002	6.442988	6.201657E+7	3.117652E-8	3.207542E+7	19.900797	0.823087	0	0
0	0	0	18.882834	6.443116	1.764081	6.443116	5.108755E+7	3.032285E-8	3.297843E+7	19.837858	0.820945	0	0
0	0	0	18.420319	6.443208	1.151942	6.443208	4.235224E+7	2.89108E-8	3.458915E+7	19.969458	0.819399	0	0
0	0	0	17.969809	6.442974	0.556565	6.442974	3.528188E+7	1.744024E-8	5.733868E+7	19.781512	0.818288	0	0
0	0	0	17.528652	6.443215	-0.027726	6.443215	2.95035E+7	2.037522E-8	4.907923E+7	19.996865	0.815988	0	0
0	0	0	17.098438	6.443265	-0.597023	6.443265	2.478121E+7	1.863776E-8	5.365451E+7	19.770698	0.815432	0	0
0	0	0	16.679006	6.44352	-1.152628	6.44352	2.090594E+7	2.900405E-8	3.447794E+7	19.966118	0.812656	0	0
0	0	0	16.262064	6.443059	-1.702949	6.443059	1.76545E+7	9.699933E-9	1.030935E+8	19.820981	0.812378	0	0
0	0	0	15.858108	6.443286	-2.238006	6.443286	1.498745E+7	1.171918E-8	8.533023E+7	19.893556	0.809721	0	0
0	0	0	15.466853	6.443222	-2.755446	6.443222	1.278899E+7	8.936549E-9	1.119E+8	19.908242	0.808928	0	0
0	0	0	15.088094	6.44335	-3.256898	6.44335	1.096845E+7	9.735247E-9	1.027195E+8	19.821886	0.806826	0	0
0	0	0	14.715705	6.443392	-3.749682	6.443392	9431390.75	9.199545E-9	1.08701E+8	19.974428	0.805319	0	0
0	0	0	14.351606	6.443435	-4.2315	6.443435	8137030.5	8.808884E-9	1.135218E+8	19.759875	0.804327	0	0
0	0	0	13.997879	6.443726	-4.700319	6.443726	7049892.75	3.060613E-8	3.267319E+7	19.992092	0.801868	0	0
0	0	0	13.651748	6.443612	-5.157917	6.443612	6126839.5	1.223088E-8	8.176029E+7	19.76322	0.801551	0	0
0	0	0	13.311457	6.443449	-5.60764	6.443449	5337264.5	5.997566E-9	1.667343E+8	19.955727	0.798576	0	0
0	0	0	12.979782	6.443428	-6.046377	6.443428	4665714	4.960146E-9	2.01607E+8	19.826907	0.798219	0	0
0	0	0	12.65313	6.443598	-6.479037	6.443598	4086974.5	7.642703E-9	1.308438E+8	19.881563	0.795562	0	0
0	0	0	12.333053	6.443598	-6.902496	6.443598	3589578	6.712567E-9	1.489743E+8	19.917747	0.794729	0	0
0	0	0	12.019183	6.443556	-7.317616	6.443556	3160660.25	4.967826E-9	2.012953E+8	19.804686	0.792944	0	0
0	0	0	11.711357	6.443513	-7.724738	6.443513	2789821.5	3.781798E-9	2.644245E+8	19.984134	0.79112	0	0
0	0	0	11.408227	6.443825	-8.126721	6.443825	2467186.25	-3.839554E-7	-2604468.886744	19.760517	0.790445	0	0
0	0	0	11.110896	6.443818	-8.520069	6.443818	2186998.25	2.085623E-7	4794731.316359	19.988403	0.787828	0	0
0	0	0	10.821405	6.443669	-8.902609	6.443669	1944802.75	5.318966E-9	1.880065E+8	19.782566	0.787431	0	0
0	0	0	10.532446	6.443691	-9.284967	6.443691	1729801	5.49318E-9	1.820439E+8	19.951558	0.784456	0	0
0	0	0	10.249489	6.443854	-9.659821	6.443854	1542317.25	-2.082143E-8	-4.802745E+7	19.838915	0.784258	0	0
0	0	0	9.969187	6.443698	-10.030177	6.443698	1376634.5	4.619769E-9	2.16461E+8	19.867974	0.78172	0	0
0	0	0	9.692274	6.443818	-10.396908	6.443818	1230440	1.173442E-7	8521939.636835	19.906775	0.780966	0	0
0	0	0	9.42218	6.44374	-10.753997	6.44374	1102815.75	5.611826E-9	1.781951E+8	19.781609	0.779181	0	0
0	0	0	9.151842	6.44379	-11.11181	6.44379	988331	1.264931E-8	7.905568E+7	19.958837	0.777515	0	0
0	0	0	8.885833	6.44379	-11.463741	6.44379	887286.75	1.135609E-8	8.805851E+7	19.738551	0.776682	0	0
0	0	0	8.626561	6.443818	-11.806847	6.443818	798752	7.617607E-8	1.312748E+7	19.961323	0.774184	0	0
0	0	0	8.362593	6.443726	-12.155783	6.443726	717683.75	3.115758E-9	3.209492E+8	19.756422	0.773906	0	0
0	0	0	8.101525	6.443818	-12.50147	6.443818	645601.75	6.157054E-8	1.624153E+7	19.919733	0.77113	0	0
0	0	0	7.838047	6.443818	-12.850052	6.443818	580192.5	5.533261E-8	1.807253E+7	19.838216	0.770614	0	0
0	0	0	7.573753	6.443754	-13.199507	6.443754	521237.5	3.203821E-9	3.121273E+8	19.842076	0.768512	0	0
0	0	0	7.302557	6.443911	-13.558805	6.443911	466964.75	-2.230344E-9	-4.483613E+8	19.917666	0.767481	0	0
0	0	0	7.019274	6.443804	-13.933244	6.443804	416297.75	9.395276E-9	1.064365E+8	19.766562	0.766013	0	0
0	0	0	6.748977	6.44384	-14.290963	6.44384	373087.5	-9.269221E-9	-1.078839E+8	19.963689	0.76403	0	0
0	0	0	6.464427	6.44384	-14.667423	6.44384	332435.75	-8.259242E-9	-1.210765E+8	19.732392	0.763356	0	0
0	0	0	6.168974	6.443818	-15.058237	6.443818	294907	2.812523E-8	3.555527E+7	19.948519	0.760937	0	0
0	0	0	5.86074	6.443953	-15.466478	6.443953	260262.75	-8.372879E-10	-1.194332E+9	19.750107	0.760699	0	0
0	0	0	5.524083	6.44396	-15.911902	6.44396	227056.5	-6.92769E-10	-1.443483E+9	19.902167	0.757803	0	0
0	0	0	5.14369	6.443825	-16.414713	6.443825	194605.5	-3.028216E-8	-3.302274E+7	19.820101	0.757684	0	0
0	0	0	4.557073	6.443804	-17.190737	6.443804	153414	3.462352E-9	2.88821E+8	19.815575	0.755146	0	0
0	0	0	3.911324	6.443882	-18.04533	6.443882	118076.25	-8.331568E-10	-1.200254E+9	19.899008	0.754353	0	0
0	0	0	3.491809	6.443783	-18.600008	6.443783	99608.25	1.048014E-9	9.541859E+8	19.735206	0.752925	0	0
0	0	0	3.224779	6.443847	-18.953509	6.443847	89387.5	-1.563753E-9	-6.39487E+8	19.949152	0.750743	0	0
0	0	0	3.04763	6.443975	-19.188319	6.443975	83192.75	-2.300837E-10	-4.346244E+9	19.712068	0.750466	0	0
0	0	0	2.919444	6.443946	-19.357812	6.443946	78979.5	-2.687031E-10	-3.721579E+9	19.95831	0.747491	0	0
0	0	0	2.827806	6.444131	-19.479688	6.444131	76099	-1.037284E-10	-9.640565E+9	19.760671	0.74765	0	0
0	0	0	2.757935	6.443932	-19.57144	6.443932	73973.5	-2.843989E-10	-3.516188E+9	19.887394	0.745072	0	0
0	0	0	2.703745	6.44401	-19.643405	6.44401	72366	-1.622064E-10	-6.164986E+9	19.836488	0.744596	0	0
0	0	0	2.651719	6.443882	-19.711792	6.443882	70855.5	-4.999628E-10	-2.000149E+9	19.804086	0.742573	0	0
0	0	0	2.625175	6.443925	-19.747058	6.443925	70097	-2.882363E-10	-3.469376E+9	19.90884	0.741225	0	0
0	0	0	2.587156	6.443875	-19.797184	6.443875	69025	-5.530421E-10	-1.808181E+9	19.742359	0.740074	0	0
0	0	0	2.567065	6.44406	-19.824407	6.44406	68465	-1.212803E-10	-8.24536E+9	19.946661	0.738171	0	0
0	0	0	2.556406	6.444017	-19.83836	6.444017	68169.75	-1.472198E-10	-6.792562E+9	19.71719	0.737655	0	0
0	0	0	2.535008	6.444237	-19.867435	6.444237	67580.75	-6.844899E-11	-1.460942E+10	19.933868	0.734998	0	0
0	0	0	2.510915	6.443918	-19.898201	6.443918	66924	-2.957562E-10	-3.381163E+9	19.754306	0.73468	0	0
0	0	0	2.497561	6.443811	-19.915497	6.443811	66562.5	2.429532E-9	4.116018E+8	19.875298	0.73234	0	0
0	0	0	2.491109	6.443833	-19.924107	6.443833	66388.75	-2.844615E-9	-3.515414E+8	19.814962	0.732102	0	0
0	0	0	2.485514	6.443861	-19.931608	6.443861	66238.25	-7.280055E-10	-1.373616E+9	19.782013	0.729802	0	0
0	0	0	2.478164	6.44384	-19.941259	6.44384	66041.25	-1.640765E-9	-6.094717E+8	19.894649	0.728652	0	0
0	0	0	2.468444	6.443918	-19.954389	6.443918	65781.5	-2.907072E-10	-3.439887E+9	19.727715	0.727145	0	0
0	0	0	2.454438	6.444031	-19.973315	6.444031	65409	-1.316418E-10	-7.596371E+9	19.931428	0.725439	0	0
0	0	0	2.440226	6.444074	-19.992265	6.444074	65033.25	-1.08689E-10	-9.20056E+9	19.688174	0.725399	0	0
0	0	0	2.431692	6.44379	-20.002568	6.44379	64808.5	8.294651E-10	1.205596E+9	19.919139	0.722464	0	0
0	0	0	2.425525	6.443989	-20.011418	6.443989	64646.75	-1.634972E-10	-6.116313E+9	19.742359	0.722345	0	0
0	0	0	2.421319	6.444053	-20.017206	6.444053	64536.5	-1.178519E-10	-8.485224E+9	19.868677	0.719609	0	0
0	0	0	2.418501	6.444074	-20.021008	6.444074	64462.75	-1.077356E-10	-9.281986E+9	19.818745	0.71945	0	0
0	0	0	2.415806	6.444095	-20.024648	6.444095	64392.5	-9.920611E-11	-1.008002E+10	19.777721	0.717467	0	0
0	0	0	2.41405	6.444046	-20.026798	6.444046	64346.5	-1.212495E-10	-8.247454E+9	19.887708	0.716396	0	0
0	0	0	2.412539	6.443818	-20.028006	6.443818	64307.25	6.133048E-9	1.630511E+8	19.708162	0.715127	0	0
0	0	0	2.40964	6.443932	-20.032237	6.443932	64231.5	-2.469448E-10	-4.049488E+9	19.930035	0.713025	0	0
0	0	0	2.404984	6.444017	-20.038693	6.444017	64110.5	-1.384535E-10	-7.222643E+9	19.687329	0.712747	0	0
0	0	0	2.401962	6.443882	-20.042221	6.443882	64032	-4.518155E-10	-2.213293E+9	19.915414	0.710011	0	0
0	0	0	2.395755	6.444017	-20.050903	6.444017	63871.25	-1.379368E-10	-7.249698E+9	19.720056	0.710248	0	0
0	0	0	2.388895	6.443861	-20.059436	6.443861	63693.75	-7.000397E-10	-1.42849E+9	19.848705	0.707631	0	0
0	0	0	2.383586	6.444188	-20.067597	6.444188	63556.75	-7.314349E-11	-1.367176E+10	19.805676	0.707115	0	0
0	0	0	2.376195	6.444102	-20.077079	6.444102	63366.5	-9.514635E-11	-1.051013E+10	19.760797	0.70533	0	0
0	0	0	2.371131	6.443818	-20.082789	6.443818	63236.5	6.030929E-9	1.658119E+8	19.87743	0.704141	0	0
0	0	0	2.365373	6.444109	-20.091421	6.444109	63089	-9.238372E-11	-1.082442E+10	19.695015	0.703149	0	0
0	0	0	2.358798	6.444188	-20.100392	6.444188	62921.25	-7.241213E-11	-1.380984E+10	19.919383	0.701087	0	0
0	0	0	2.353612	6.443953	-20.106437	6.443953	62789	-2.019976E-10	-4.950554E+9	19.684807	0.700849	0	0
0	0	0	2.351162	6.444017	-20.109901	6.444017	62726.75	-1.354651E-10	-7.381975E+9	19.907274	0.698271	0	0
0	0	0	2.348017	6.444117	-20.114408	6.444117	62646.75	-8.951919E-11	-1.117079E+10	19.713047	0.698588	0	0
0	0	0	2.345812	6.443911	-20.116607	6.443911	62590.75	-2.989494E-10	-3.345048E+9	19.845177	0.695772	0	0
0	0	0	2.345404	6.443783	-20.116702	6.443783	62580.5	6.584318E-10	1.51876E+9	19.796649	0.695573	0	0
0	0	0	2.344873	6.443875	-20.117726	6.443875	62567	-5.012993E-10	-1.994816E+9	19.759324	0.693471	0	0
0	0	0	2.342627	6.444024	-20.121217	6.444024	62510	-1.302402E-10	-7.678118E+9	19.873614	0.692321	0	0
0	0	0	2.341484	6.443854	-20.122136	6.443854	62481	-8.434939E-10	-1.185545E+9	19.693416	0.69129	0	0
0	0	0	2.34034	6.443982	-20.124094	6.443982	62452	-1.65004E-10	-6.06046E+9	19.89378	0.689624	0	0
0	0	0	2.339646	6.443705	-20.124048	6.443705	62434.5	2.221272E-10	4.501925E+9	19.656972	0.689148	0	0
0	0	0	2.339768	6.443953	-20.124752	6.443953	62437.75	-2.008676E-10	-4.978404E+9	19.874268	0.686689	0	0
0	0	0	2.337604	6.443996	-20.127764	6.443996	62382.75	-1.513E-10	-6.609385E+9	19.690947	0.686689	0	0
0	0	0	2.335644	6.443925	-20.13011	6.443925	62333.25	-2.56312E-10	-3.901495E+9	19.809428	0.684071	0	0
0	0	0	2.333112	6.443939	-20.133509	6.443939	62269.25	-2.247853E-10	-4.44869E+9	19.763578	0.683794	0	0
0	0	0	2.329886	6.444195	-20.138668	6.444195	62188	-7.020195E-11	-1.424462E+10	19.738539	0.681692	0	0
0	0	0	2.327926	6.444003	-20.140593	6.444003	62138.5	-1.447696E-10	-6.907529E+9	19.842286	0.68074	0	0
0	0	0	2.32666	6.443996	-20.142243	6.443996	62106.75	-1.506306E-10	-6.638757E+9	19.667508	0.679629	0	0
0	0	0	2.325394	6.443776	-20.143151	6.443776	62074.75	5.544535E-10	1.803578E+9	19.88271	0.677924	0	0
0	0	0	2.323311	6.444003	-20.146698	6.444003	62022.5	-1.444993E-10	-6.920449E+9	19.645271	0.677488	0	0
0	0	0	2.324822	6.443932	-20.144452	6.443932	62060.5	-2.385981E-10	-4.191148E+9	19.875843	0.675029	0	0
0	0	0	2.323556	6.444024	-20.146448	6.444024	62028.5	-1.29237E-10	-7.73772E+9	19.676702	0.675187	0	0
0	0	0	2.324046	6.443946	-20.145528	6.443946	62041	-2.110752E-10	-4.737649E+9	19.817433	0.67245	0	0
0	0	0	2.325271	6.444109	-20.144476	6.444109	62071.75	-9.089412E-11	-1.100181E+10	19.755263	0.672411	0	0
0	0	0	2.324577	6.443932	-20.144776	6.443932	62054.25	-2.385741E-10	-4.19157E+9	19.744794	0.67015	0	0
0	0	0	2.324822	6.444046	-20.144848	6.444046	62060.5	-1.16942E-10	-8.551249E+9	19.840779	0.669317	0	0
0	0	0	2.323597	6.444024	-20.146394	6.444024	62029.5	-1.292391E-10	-7.737595E+9	19.664993	0.668088	0	0
0	0	0	2.32519	6.443875	-20.143767	6.443875	62069.75	-4.973152E-10	-2.010797E+9	19.87773	0.666343	0	0
0	0	0	2.325271	6.443854	-20.143585	6.443854	62071.75	-8.379691E-10	-1.193361E+9	19.628952	0.666184	0	0
0	0	0	2.32421	6.443896	-20.145138	6.443896	62045	-3.534415E-10	-2.829323E+9	19.875012	0.663328	0	0
0	0	0	2.324046	6.444067	-20.145948	6.444067	62041	-1.067041E-10	-9.371713E+9	19.655715	0.663685	0	0
0	0	0	2.324128	6.44423	-20.14641	6.44423	62043	-6.393525E-11	-1.564082E+10	19.791889	0.661147	0	0
0	0	0	2.323883	6.443996	-20.145917	6.443996	62036.75	-1.504608E-10	-6.646248E+9	19.72444	0.660909	0	0
0	0	0	2.323801	6.444095	-20.146372	6.444095	62034.75	-9.557365E-11	-1.046313E+10	19.718286	0.658648	0	0
0	0	0	2.324577	6.444081	-20.145296	6.444081	62054.25	-1.008595E-10	-9.914779E+9	19.801367	0.657895	0	0
0	0	0	2.324128	6.444195	-20.146286	6.444195	62043	-7.003827E-11	-1.427791E+10	19.642849	0.656625	0	0
0	0	0	2.32376	6.44406	-20.146302	6.44406	62033.75	-1.098879E-10	-9.100184E+9	19.85077	0.654761	0	0
0	0	0	2.326701	6.443825	-20.141595	6.443825	62107.75	-9.664298E-9	-1.034736E+8	19.614363	0.654404	0	0
0	0	0	2.326088	6.444202	-20.143717	6.444202	62092.25	-6.878075E-11	-1.453895E+10	19.860088	0.651906	0	0
0	0	0	2.325884	6.444031	-20.143393	6.444031	62087	-1.24956E-10	-8.002819E+9	19.636682	0.652302	0	0
0	0	0	2.326823	6.443932	-20.141804	6.443932	62110.75	-2.387913E-10	-4.187757E+9	19.810556	0.649248	0	0
0	0	0	2.323883	6.443904	-20.145595	6.443904	62036.75	-3.223405E-10	-3.102309E+9	19.70573	0.649446	0	0
0	0	0	2.322004	6.444003	-20.148427	6.444003	61989.5	-1.444224E-10	-6.924133E+9	19.717626	0.647146	0	0
0	0	0	2.320248	6.443946	-20.150552	6.443946	61945.5	-2.107502E-10	-4.744953E+9	19.780639	0.64671	0	0
0	0	0	2.319064	6.443889	-20.151921	6.443889	61915.75	-3.903071E-10	-2.562085E+9	19.618659	0.64548	0	0
0	0	0	2.315838	6.444109	-20.156956	6.444109	61834.75	-9.054707E-11	-1.104398E+10	19.845288	0.643339	0	0
0	0	0	2.312694	6.44401	-20.16077	6.44401	61756	-1.384243E-10	-7.224163E+9	19.601498	0.64314	0	0
0	0	0	2.310448	6.444095	-20.164039	6.444095	61699.75	-9.505753E-11	-1.051994E+10	19.840002	0.64084	0	0
0	0	0	2.305833	6.444166	-20.170391	6.444166	61584.5	-7.526857E-11	-1.328576E+10	19.608638	0.641038	0	0
0	0	0	2.306119	6.444202	-20.170137	6.444202	61591.5	-6.822606E-11	-1.465716E+10	19.779041	0.638539	0	0
0	0	0	2.302199	6.443953	-20.174457	6.443953	61493.75	-1.978306E-10	-5.054828E+9	19.681341	0.638301	0	0
0	0	0	2.302076	6.444003	-20.174792	6.444003	61490.75	-1.432604E-10	-6.980294E+9	19.705352	0.63616	0	0
0	0	0	2.299463	6.444166	-20.17882	6.444166	61425.5	-7.507424E-11	-1.332015E+10	19.771821	0.635406	0	0
0	0	0	2.295951	6.44406	-20.183094	6.44406	61338.25	-1.086559E-10	-9.203369E+9	19.640211	0.633939	0	0
0	0	0	2.297257	6.44406	-20.181366	6.44406	61370.75	-1.087134E-10	-9.198495E+9	19.823569	0.632392	0	0
0	0	0	2.295828	6.443925	-20.182786	6.443925	61335.25	-2.522083E-10	-3.964977E+9	19.607391	0.631678	0	0
0	0	0	2.294031	6.443762	-20.184594	6.443762	61290.5	4.204303E-10	2.378516E+9	19.83675	0.629615	0	0
0	0	0	2.290887	6.444109	-20.189967	6.444109	61212.5	-8.963588E-11	-1.115625E+10	19.597381	0.629814	0	0
0	0	0	2.289866	6.444017	-20.190996	6.444017	61187	-1.321399E-10	-7.56774E+9	19.788379	0.627196	0	0
0	0	0	2.287171	6.443847	-20.193967	6.443847	61120.25	-1.069243E-9	-9.352409E+8	19.648579	0.627117	0	0
0	0	0	2.285619	6.443967	-20.196441	6.443967	61081.75	-1.772211E-10	-5.642669E+9	19.710261	0.624856	0	0
0	0	0	2.283618	6.44396	-20.199064	6.44396	61032.25	-1.862146E-10	-5.370148E+9	19.732653	0.624499	0	0
0	0	0	2.283046	6.443946	-20.199771	6.443946	61018.25	-2.075956E-10	-4.817058E+9	19.631168	0.622794	0	0
0	0	0	2.283087	6.444131	-20.200361	6.444131	61019.25	-8.317359E-11	-1.202305E+10	19.800086	0.621564	0	0
0	0	0	2.283291	6.443889	-20.199248	6.443889	61024.25	-3.846872E-10	-2.599515E+9	19.59817	0.620612	0	0
0	0	0	2.282638	6.444294	-20.201525	6.444294	61008	-5.434476E-11	-1.840104E+10	19.83052	0.618748	0	0
0	0	0	2.283169	6.444095	-20.200129	6.444095	61021.25	-9.40122E-11	-1.063692E+10	19.582465	0.618748	0	0
0	0	0	2.283455	6.44374	-20.198512	6.44374	61028.25	3.10551E-10	3.220083E+9	19.790888	0.61617	0	0
0	0	0	2.284516	6.444074	-20.198272	6.444074	61054.5	-1.020394E-10	-9.800135E+9	19.630119	0.616249	0	0
0	0	0	2.28615	6.443918	-20.195566	6.443918	61095	-2.699962E-10	-3.703756E+9	19.709155	0.61387	0	0
0	0	0	2.28762	6.444188	-20.194562	6.444188	61131.5	-7.035242E-11	-1.421415E+10	19.699273	0.613552	0	0
0	0	0	2.287498	6.443911	-20.193758	6.443911	61128.25	-2.919641E-10	-3.425079E+9	19.629057	0.611847	0	0
0	0	0	2.290724	6.443868	-20.189341	6.443868	61208.25	-5.672799E-10	-1.762798E+9	19.765894	0.610895	0	0
0	0	0	2.290479	6.443939	-20.189913	6.443939	61202.25	-2.209335E-10	-4.526249E+9	19.56986	0.609943	0	0
0	0	0	2.292847	6.444046	-20.187151	6.444046	61261	-1.154355E-10	-8.662849E+9	19.797065	0.608238	0	0
0	0	0	2.293991	6.443939	-20.185267	6.443939	61289.5	-2.212485E-10	-4.519805E+9	19.557864	0.608	0	0
0	0	0	2.294481	6.44384	-20.184272	6.44384	61301.75	-1.523014E-9	-6.565926E+8	19.780786	0.605541	0	0
0	0	0	2.295461	6.443975	-20.183446	6.443975	61326	-1.696075E-10	-5.895966E+9	19.607563	0.605699	0	0
0	0	0	2.29346	6.444024	-20.186266	6.444024	61276.25	-1.276697E-10	-7.832711E+9	19.717084	0.603399	0	0
0	0	0	2.292439	6.444159	-20.188088	6.444159	61251	-7.644098E-11	-1.308199E+10	19.676931	0.603081	0	0
0	0	0	2.29689	6.444074	-20.181901	6.444074	61361.5	-1.025525E-10	-9.751103E+9	19.635668	0.601336	0	0
0	0	0	2.296972	6.444145	-20.182041	6.444145	61363.75	-7.995682E-11	-1.250675E+10	19.748541	0.600384	0	0
0	0	0	2.297094	6.443989	-20.181334	6.443989	61366.75	-1.552018E-10	-6.443225E+9	19.560719	0.599433	0	0
0	0	0	2.298809	6.444017	-20.179164	6.444017	61409.25	-1.326198E-10	-7.540351E+9	19.774964	0.597806	0	0
0	0	0	2.30228	6.444188	-20.175166	6.444188	61495.75	-7.077162E-11	-1.412996E+10	19.534585	0.597449	0	0
0	0	0	2.302076	6.444102	-20.175139	6.444102	61490.75	-9.232986E-11	-1.083073E+10	19.773441	0.595109	0	0
0	0	0	2.300769	6.444067	-20.176744	6.444067	61458.25	-1.057018E-10	-9.460576E+9	19.562571	0.595506	0	0
0	0	0	2.3013	6.444067	-20.176042	6.444067	61471.25	-1.057242E-10	-9.458575E+9	19.714171	0.592968	0	0
0	0	0	2.30032	6.443868	-20.176645	6.443868	61447	-5.694926E-10	-1.755949E+9	19.624703	0.592968	0	0
0	0	0	2.299054	6.443882	-20.178369	6.443882	61415.5	-4.333533E-10	-2.307586E+9	19.615532	0.591024	0	0
0	0	0	2.296563	6.444003	-20.182086	6.444003	61353.5	-1.429407E-10	-6.995909E+9	19.698285	0.59031	0	0
0	0	0	2.295787	6.444322	-20.184227	6.444322	61334.25	-5.153021E-11	-1.940609E+10	19.53737	0.589239	0	0
0	0	0	2.294154	6.44374	-20.184357	6.44374	61293.5	3.119007E-10	3.206148E+9	19.742944	0.587653	0	0
0	0	0	2.291295	6.444088	-20.189353	6.444088	61222.5	-9.684559E-11	-1.032571E+10	19.512396	0.587137	0	0
0	0	0	2.288968	6.443889	-20.191739	6.443889	61164.75	-3.855729E-10	-2.593543E+9	19.76246	0.584956	0	0
0	0	0	2.286517	6.444067	-20.1956	6.444067	61104	-1.050925E-10	-9.515424E+9	19.53109	0.585075	0	0
0	0	0	2.286558	6.443975	-20.195224	6.443975	61105	-1.689963E-10	-5.91729E+9	19.711611	0.582973	0	0
0	0	0	2.285742	6.44396	-20.196255	6.44396	61084.75	-1.863748E-10	-5.365533E+9	19.606381	0.582854	0	0
0	0	0	2.283904	6.443882	-20.198413	6.443882	61039.25	-4.306984E-10	-2.32181E+9	19.655878	0.580593	0	0
0	0	0	2.281127	6.444067	-20.202731	6.444067	60970.75	-1.048634E-10	-9.536219E+9	19.687285	0.580276	0	0
0	0	0	2.282556	6.443946	-20.200419	6.443946	61006	-2.075539E-10	-4.818026E+9	19.56599	0.578927	0	0
0	0	0	2.281821	6.443719	-20.200599	6.443719	60987.75	2.466626E-10	4.054121E+9	19.728213	0.577817	0	0
0	0	0	2.280188	6.443769	-20.202933	6.443769	60947.5	4.729432E-10	2.114419E+9	19.512142	0.577063	0	0
0	0	0	2.279575	6.443953	-20.204388	6.443953	60932.25	-1.960243E-10	-5.101409E+9	19.741627	0.57504	0	0
0	0	0	2.279698	6.444117	-20.204795	6.444117	60935.25	-8.707354E-11	-1.148454E+10	19.489284	0.575437	0	0
0	0	0	2.277738	6.444046	-20.207141	6.444046	60887	-1.147307E-10	-8.716061E+9	19.698862	0.572819	0	0
0	0	0	2.277043	6.443861	-20.207416	6.443861	60869.75	-6.690019E-10	-1.494764E+9	19.5331	0.572938	0	0
0	0	0	2.276227	6.444131	-20.209437	6.444131	60849.5	-8.29422E-11	-1.205659E+10	19.630262	0.570717	0	0
0	0	0	2.275532	6.443669	-20.208746	6.443669	60832.5	1.66375E-10	6.010518E+9	19.603074	0.570717	0	0
0	0	0	2.275737	6.443918	-20.209343	6.443918	60837.5	-2.688582E-10	-3.719432E+9	19.545016	0.568893	0	0
0	0	0	2.275492	6.444067	-20.210187	6.444067	60831.5	-1.046239E-10	-9.558049E+9	19.669886	0.568179	0	0
0	0	0	2.276839	6.443918	-20.207884	6.443918	60864.75	-2.689787E-10	-3.717767E+9	19.481102	0.567306	0	0
0	0	0	2.276145	6.443882	-20.208678	6.443882	60847.75	-4.293472E-10	-2.329117E+9	19.719255	0.565402	0	0
0	0	0	2.275941	6.44374	-20.208453	6.44374	60842.5	3.096058E-10	3.229914E+9	19.464165	0.565601	0	0
0	0	0	2.276553	6.443932	-20.208312	6.443932	60857.75	-2.33974E-10	-4.273979E+9	19.706194	0.56334	0	0
0	0	0	2.27786	6.444102	-20.207177	6.444102	60890	-9.142782E-11	-1.093759E+10	19.514096	0.563538	0	0
0	0	0	2.278473	6.443811	-20.205351	6.443811	60905	2.223034E-9	4.498357E+8	19.655191	0.561238	0	0
0	0	0	2.279657	6.443896	-20.204082	6.443896	60934.25	-3.471141E-10	-2.880897E+9	19.590169	0.561198	0	0
0	0	0	2.281454	6.44406	-20.202274	6.44406	60978.75	-1.08019E-10	-9.257628E+9	19.579069	0.559334	0	0
0	0	0	2.281944	6.443861	-20.200932	6.443861	60990.75	-6.703318E-10	-1.491799E+9	19.673745	0.55866	0	0
0	0	0	2.284067	6.444053	-20.198792	6.444053	61043.5	-1.114733E-10	-8.970762E+9	19.494298	0.557906	0	0
0	0	0	2.284639	6.443953	-20.197688	6.443953	61057.5	-1.964272E-10	-5.090945E+9	19.708632	0.556399	0	0
0	0	0	2.283986	6.44418	-20.199346	6.44418	61041.25	-7.164293E-11	-1.395811E+10	19.459782	0.556122	0	0
0	0	0	2.28713	6.443882	-20.194145	6.443882	61119.25	-4.312629E-10	-2.318771E+9	19.706367	0.554059	0	0
0	0	0	2.288233	6.444117	-20.193504	6.444117	61146.5	-8.737541E-11	-1.144487E+10	19.46932	0.554099	0	0
0	0	0	2.287334	6.443953	-20.194123	6.443953	61124.25	-1.966419E-10	-5.085385E+9	19.652166	0.551798	0	0
0	0	0	2.287783	6.444074	-20.193949	6.444074	61135.5	-1.021748E-10	-9.78715E+9	19.519238	0.551997	0	0
0	0	0	2.289458	6.444294	-20.192502	6.444294	61177	-5.44953E-11	-1.835021E+10	19.545935	0.550172	0	0
0	0	0	2.287416	6.444081	-20.19446	6.444081	61126.25	-9.935121E-11	-1.00653E+10	19.578972	0.549657	0	0
0	0	0	2.290438	6.443861	-20.189695	6.443861	61201.25	-6.726453E-10	-1.486668E+9	19.467609	0.54803	0	0
0	0	0	2.293215	6.44396	-20.186368	6.44396	61270.25	-1.869408E-10	-5.349288E+9	19.626417	0.547237	0	0
0	0	0	2.294113	6.443904	-20.184981	6.443904	61292.5	-3.184734E-10	-3.13998E+9	19.386843	0.546801	0	0
0	0	0	2.295093	6.443854	-20.183511	6.443854	61316.75	-8.277766E-10	-1.208055E+9	19.634824	0.544858	0	0
0	0	0	2.294726	6.444095	-20.184839	6.444095	61307.75	-9.44536E-11	-1.058721E+10	19.385085	0.544937	0	0
0	0	0	2.292316	6.444031	-20.187804	6.444031	61248	-1.232674E-10	-8.112445E+9	19.607796	0.542795	0	0
0	0	0	2.29203	6.444046	-20.188232	6.444046	61240.75	-1.153973E-10	-8.665714E+9	19.437327	0.542755	0	0
0	0	0	2.290928	6.444223	-20.190309	6.444223	61213.5	-6.419929E-11	-1.55765E+10	19.536802	0.540891	0	0
0	0	0	2.29007	6.44401	-20.190701	6.44401	61192.25	-1.371607E-10	-7.290717E+9	19.511722	0.540733	0	0
0	0	0	2.288028	6.443996	-20.193353	6.443996	61141.5	-1.482895E-10	-6.743564E+9	19.449583	0.539384	0	0
0	0	0	2.287007	6.444117	-20.195125	6.444117	61116.25	-8.733218E-11	-1.145053E+10	19.582842	0.538432	0	0
0	0	0	2.284435	6.443975	-20.198033	6.443975	61052.5	-1.688511E-10	-5.922378E+9	19.398118	0.537639	0	0
0	0	0	2.284067	6.443875	-20.198172	6.443875	61043.5	-4.890927E-10	-2.044602E+9	19.638158	0.536013	0	0
0	0	0	2.281944	6.444003	-20.201428	6.444003	60990.75	-1.420955E-10	-7.037518E+9	19.384217	0.535775	0	0
0	0	0	2.281535	6.444095	-20.20229	6.444095	60980.75	-9.394981E-11	-1.064398E+10	19.633243	0.533831	0	0
0	0	0	2.28031	6.44396	-20.20344	6.44396	60950.5	-1.859652E-10	-5.377351E+9	19.405408	0.534188	0	0
0	0	0	2.280147	6.443889	-20.203409	6.443889	60946.5	-3.841971E-10	-2.602831E+9	19.574108	0.531888	0	0
0	0	0	2.279085	6.444088	-20.205507	6.444088	60920.25	-9.636748E-11	-1.037694E+10	19.478168	0.531967	0	0
0	0	0	2.278228	6.443882	-20.205923	6.443882	60899	-4.297088E-10	-2.327157E+9	19.492434	0.530222	0	0
0	0	0	2.278473	6.443996	-20.205995	6.443996	60905	-1.477159E-10	-6.76975E+9	19.549059	0.529984	0	0
0	0	0	2.27786	6.443982	-20.206756	6.443982	60890	-1.60877E-10	-6.215928E+9	19.41025	0.528715	0	0
0	0	0	2.27639	6.44379	-20.208032	6.44379	60853.75	7.788494E-10	1.283945E+9	19.602914	0.527446	0	0
0	0	0	2.275982	6.443705	-20.208275	6.443705	60843.5	2.164668E-10	4.619646E+9	19.375591	0.527049	0	0
0	0	0	2.275614	6.443953	-20.209628	6.443953	60834.5	-1.957098E-10	-5.109607E+9	19.616698	0.525344	0	0
0	0	0	2.27443	6.444081	-20.211641	6.444081	60805.25	-9.882948E-11	-1.011844E+10	19.350775	0.525701	0	0
0	0	0	2.274838	6.444024	-20.210903	6.444024	60815.25	-1.267092E-10	-7.892086E+9	19.582893	0.523202	0	0
0	0	0	2.274389	6.443854	-20.210902	6.443854	60804.25	-8.208578E-10	-1.218238E+9	0	0	0	0
0	0	0	2.274307	6.443861	-20.211035	6.443861	60802.25	-6.6826E-10	-1.496423E+9	0	0	0	0
0	0	0	2.273695	6.44396	-20.212193	6.44396	60787.25	-1.854671E-10	-5.391792E+9	0	0	0	0
0	0	0	2.274185	6.443889	-20.211296	6.443889	60799.25	-3.832688E-10	-2.609135E+9	0	0	0	0
0	0	0	2.274552	6.443932	-20.210959	6.443932	60808.25	-2.337837E-10	-4.277458E+9	0	0	0	0
0	0	0	2.275083	6.444038	-20.210628	6.444038	60821.5	-1.183798E-10	-8.44739E+9	0	0	0	0
0	0	0	2.276717	6.443982	-20.208269	6.443982	60861.75	-1.608024E-10	-6.218814E+9	0	0	0	0
0	0	0	2.278187	6.443953	-20.206225	6.443953	60898	-1.959141E-10	-5.104279E+9	0	0	0	0
0	0	0	2.277983	6.44379	-20.205925	6.44379	60893	7.793517E-10	1.283118E+9	0	0	0	0
0	0	0	2.278432	6.444003	-20.206074	6.444003	60904	-1.418934E-10	-7.047542E+9	0	0	0	0
0	0	0	2.279412	6.443882	-20.204356	6.443882	60928.25	-4.299152E-10	-2.32604E+9	0	0	0	0
0	0	0	2.281331	6.443889	-20.201842	6.443889	60975.75	-3.843814E-10	-2.601582E+9	0	0	0	0
0	0	0	2.280719	6.444102	-20.203395	6.444102	60960.5	-9.153368E-11	-1.092494E+10	0	0	0	0
0	0	0	2.282801	6.443989	-20.200244	6.443989	61012	-1.543046E-10	-6.480688E+9	0	0	0	0
0	0	0	2.283128	6.443875	-20.199415	6.443875	61020.25	-4.889064E-10	-2.045381E+9	0	0	0	0
0	0	0	2.282965	6.444237	-20.200894	6.444237	61016.25	-6.180015E-11	-1.618119E+10	0	0	0	0
0	0	0	2.284231	6.444053	-20.198576	6.444053	61047.5	-1.114806E-10	-8.970174E+9	0	0	0	0
0	0	0	2.283291	6.444244	-20.200487	6.444244	61024.25	-6.076736E-11	-1.64562E+10	0	0	0	0
0	0	0	2.2837	6.444067	-20.199327	6.444067	61034.25	-1.049726E-10	-9.526298E+9	0	0	0	0
0	0	0	2.284598	6.443847	-20.197371	6.443847	61056.5	-1.068128E-9	-9.362174E+8	0	0	0	0
0	0	0	2.28713	6.44401	-20.194591	6.44401	61119.25	-1.369971E-10	-7.299425E+9	0	0	0	0
0	0	0	2.290887	6.443882	-20.189175	6.443882	61212.5	-4.319209E-10	-2.315239E+9	0	0	0	0
0	0	0	2.29199	6.443818	-20.187493	6.443818	61239.75	5.840497E-9	1.712183E+8	0	0	0	0
0	0	0	2.293705	6.444145	-20.186363	6.444145	61282.25	-7.985062E-11	-1.252338E+10	0	0	0	0
0	0	0	2.292194	6.443996	-20.187842	6.443996	61245	-1.485406E-10	-6.732168E+9	0	0	0	0
0	0	0	2.290397	6.444102	-20.190591	6.444102	61200.25	-9.189367E-11	-1.088214E+10	0	0	0	0
0	0	0	2.290315	6.444046	-20.190501	6.444046	61198.25	-1.153172E-10	-8.671732E+9	0	0	0	0
0	0	0	2.289417	6.443904	-20.191194	6.443904	61176	-3.178681E-10	-3.145959E+9	0	0	0	0
0	0	0	2.2886	6.444017	-20.192671	6.444017	61155.75	-1.320724E-10	-7.571607E+9	0	0	0	0
0	0	0	2.286395	6.443776	-20.194746	6.443776	61101	5.457559E-10	1.832321E+9	0	0	0	0
0	0	0	2.28517	6.443925	-20.196887	6.443925	61070.75	-2.511207E-10	-3.982149E+9	0	0	0	0
0	0	0	2.284843	6.443825	-20.196973	6.443825	61062.5	-9.501651E-9	-1.052449E+8	0	0	0	0
0	0	0	2.28223	6.443854	-20.200529	6.443854	60998	-8.234734E-10	-1.214368E+9	0	0	0	0
0	0	0	2.280719	6.443854	-20.202528	6.443854	60960.5	-8.229672E-10	-1.215115E+9	0	0	0	0
0	0	0	2.279698	6.443918	-20.204102	6.443918	60935.25	-2.692902E-10	-3.713466E+9	0	0	0	0
0	0	0	2.281127	6.443932	-20.202261	6.443932	60970.75	-2.344085E-10	-4.266057E+9	0	0	0	0
0	0	0	2.279249	6.443996	-20.204969	6.443996	60924.25	-1.477626E-10	-6.767611E+9	0	0	0	0
0	0	0	2.278636	6.443967	-20.20568	6.443967	60909.25	-1.767206E-10	-5.65865E+9	0	0	0	0
0	0	0	2.27786	6.443975	-20.206731	6.443975	60890	-1.684017E-10	-5.938184E+9	0	0	0	0
0	0	0	2.277207	6.44384	-20.207125	6.44384	60873.75	-1.512381E-9	-6.612091E+8	0	0	0	0
0	0	0	2.277942	6.444031	-20.206821	6.444031	60892	-1.225509E-10	-8.159874E+9	0	0	0	0
0	0	0	2.275777	6.44401	-20.209611	6.44401	60838.5	-1.363678E-10	-7.33311E+9	0	0	0	0
0	0	0	2.276186	6.443698	-20.20798	6.443698	60848.75	2.041991E-10	4.897181E+9	0	0	0	0
0	0	0	2.275328	6.443911	-20.209858	6.443911	60827.5	-2.905276E-10	-3.442014E+9	0	0	0	0
0	0	0	2.274062	6.444017	-20.211904	6.444017	60796.25	-1.31296E-10	-7.616379E+9	0	0	0	0
0	0	0	2.274021	6.443953	-20.211736	6.443953	60795.25	-1.955835E-10	-5.112905E+9	0	0	0	0
0	0	0	2.27394	6.443733	-20.211076	6.443733	60793.25	2.848421E-10	3.510718E+9	0	0	0	0
0	0	0	2.273572	6.443946	-20.212305	6.443946	60784.25	-2.067995E-10	-4.835603E+9	0	0	0	0
0	0	0	2.27296	6.444088	-20.213611	6.444088	60769.25	-9.612862E-11	-1.040273E+10	0	0	0	0
0	0	0	2.274103	6.443868	-20.21133	6.443868	60797.25	-5.634707E-10	-1.774715E+9	0	0	0	0
0	0	0	2.274716	6.44374	-20.210074	6.44374	60812.5	3.094531E-10	3.231507E+9	0	0	0	0
0	0	0	2.275042	6.443889	-20.210162	6.443889	60820.5	-3.834028E-10	-2.608223E+9	0	0	0	0
0	0	0	2.27541	6.443911	-20.20975	6.443911	60829.5	-2.905372E-10	-3.4419E+9	0	0	0	0
0	0	0	2.275614	6.443904	-20.209455	6.443904	60834.5	-3.160937E-10	-3.163619E+9	0	0	0	0
0	0	0	2.277411	6.443847	-20.20688	6.443847	60878.75	-1.065018E-9	-9.389509E+8	0	0	0	0
0	0	0	2.27835	6.443989	-20.206133	6.443989	60902	-1.540264E-10	-6.492394E+9	0	0	0	0
0	0	0	2.27786	6.443953	-20.206657	6.443953	60890	-1.958883E-10	-5.104949E+9	0	0	0	0
0	0	0	2.279249	6.443882	-20.204572	6.443882	60924.25	-4.29887E-10	-2.326193E+9	0	0	0	0
0	0	0	2.28129	6.444017	-20.202342	6.444017	60974.75	-1.316815E-10	-7.594082E+9	0	0	0	0
0	0	0	2.280555	6.443932	-20.203017	6.443932	60956.5	-2.343537E-10	-4.267055E+9	0	0	0	0
0	0	0	2.2808	6.443975	-20.202841	6.443975	60962.5	-1.686022E-10	-5.931122E+9	0	0	0	0
0	0	0	2.280719	6.444067	-20.203271	6.444067	60960.5	-1.048457E-10	-9.537823E+9	0	0	0	0
0	0	0	2.281821	6.444031	-20.201689	6.444031	60987.75	-1.227436E-10	-8.147063E+9	0	0	0	0
0	0	0	2.283618	6.443932	-20.198965	6.443932	61032.25	-2.346449E-10	-4.261759E+9	0	0	0	0
0	0	0	2.283986	6.444152	-20.199246	6.444152	61041.25	-7.782171E-11	-1.284988E+10	0	0	0	0
0	0	0	2.284966	6.444117	-20.197826	6.444117	61065.75	-8.726002E-11	-1.146E+10	0	0	0	0
0	0	0	2.286436	6.443882	-20.195064	6.443882	61102	-4.311412E-10	-2.319426E+9	0	0	0	0
0	0	0	2.289049	6.443946	-20.191829	6.443946	61166.75	-2.081008E-10	-4.805364E+9	0	0	0	0
0	0	0	2.289907	6.444046	-20.191041	6.444046	61188	-1.152979E-10	-8.673184E+9	0	0	0	0
0	0	0	2.289784	0	2.289784	0	61185	0	0	0	0	0	0
0	0	0	2.290152	0	2.290152	0	61194.25	0	0	0	0	0	0
