Vload_(V)	ILoad_(A)	RsLoad (ohm)	SunsVoc_Voltage_(V)	SunsVoc_Current_(A)	Model_Voltage_(V)	Model_Current_(A)	Carrier_Density_(cm-3)	Lifetime_(s)	Inverse_Lifetime_(s-1)	Efficiency_(%)	Intensity_(suns)	Dark_IV_Voltage_(V)	Dark_IV_Current_(A)
2.683034	6.008276	0	52.040114	-0.564373	52.306435	-0.564373	7.861341E+15	0.000532	1776.882543	19.225337	1.115171	0	0
2.658078	6.010972	-0.456815	52.518025	-0.761241	52.855254	-0.761241	9.309815E+15	0.000612	1490.712624	19.423215	1.114023	0	0
3.215393	6.009214	-0.550703	52.591408	-0.502949	52.811983	-0.502949	9.550864E+15	0.000653	1381.11734	19.251369	1.114458	0	0
6.658396	6.008864	-1.123924	52.530071	-0.113663	52.580341	-0.113663	9.349031E+15	0.000679	1326.930977	19.28399	1.112557	0	0
10.67771	5.990579	4.610587	52.424958	0.295103	52.292568	0.295103	9.011479E+15	0.000702	1290.388616	19.348218	1.111488	0	0
14.068894	5.988442	4.116525	52.299835	0.670443	51.993986	0.670443	8.623051E+15	0.000719	1268.108379	19.131844	1.111131	0	0
17.877885	5.983263	3.620412	52.173527	1.010147	51.704997	1.010147	8.245263E+15	0.000734	1249.829361	19.323329	1.108636	0	0
21.528936	5.977349	3.129628	52.047791	1.324962	51.423172	1.324962	7.883022E+15	0.000749	1232.370817	19.095323	1.109309	0	0
25.149718	5.970136	2.635613	51.924097	1.61925	51.148636	1.61925	7.539714E+15	0.000764	1214.228312	19.139485	1.106893	0	0
28.719854	5.967802	2.068619	51.795503	1.90407	50.86884	1.90407	7.196101E+15	0.00078	1196.144549	19.165911	1.106339	0	0
32.324308	5.962196	1.530057	51.65919	2.16843	50.586002	2.16843	6.846187E+15	0.000793	1183.026851	18.975445	1.105586	0	0
35.925289	5.942229	1.10034	51.53129	2.411056	50.319382	2.411056	6.530836E+15	0.000808	1167.396286	19.164388	1.103962	0	0
36.993968	5.924731	1.032109	51.404819	2.637649	50.058851	2.637649	6.230959E+15	0.000822	1151.590718	18.942916	1.105111	0	0
38.054198	5.900531	0.969036	51.277777	2.850642	49.801228	2.850642	5.941313E+15	0.000837	1136.137841	19.008642	1.103764	0	0
39.12225	5.86112	0.925813	51.145588	3.049524	49.541657	3.049524	5.651872E+15	0.00085	1123.78867	19.034736	1.104041	0	0
40.178441	5.811051	0.872937	51.022589	3.226339	49.301672	3.226339	5.393139E+15	0.000862	1111.289265	18.874513	1.103724	0	0
41.244939	5.730946	0.83876	50.897098	3.393683	49.061176	3.393683	5.139358E+15	0.000874	1099.788792	19.089919	1.102219	0	0
42.286463	5.632809	0.791487	50.774547	3.547751	48.828996	3.547751	4.901152E+15	0.000886	1088.676719	18.887318	1.102972	0	0
43.350805	5.487093	0.751942	50.653793	3.692667	48.601818	3.692667	4.675463E+15	0.000898	1077.064929	19.006799	1.101031	0	0
44.370727	5.307016	0.708276	50.529569	3.83063	48.372163	3.83063	4.45235E+15	0.00091	1066.579702	19.020582	1.101308	0	0
45.391666	5.05992	0.670212	50.408733	3.957348	48.151055	3.957348	4.243875E+15	0.00092	1056.477925	18.881227	1.100635	0	0
46.385185	4.723951	0.642793	50.284181	4.078417	47.926726	4.078417	4.037543E+15	0.000931	1047.424006	19.099822	1.098615	0	0
47.361097	4.313046	0.611313	50.163795	4.189663	47.711548	4.189663	3.846112E+15	0.000941	1038.388547	18.89492	1.098654	0	0
48.304004	3.782384	0.595578	50.04055	4.296784	47.493593	4.296784	3.65803E+15	0.000951	1029.554364	19.026153	1.095921	0	0
49.20066	3.172576	0.580565	49.915917	4.39279	47.278956	4.39279	3.4757E+15	0.000957	1024.793784	19.018868	1.095684	0	0
50.051898	2.483484	0.579121	49.799329	4.482253	47.077075	4.482253	3.312081E+15	0.000965	1017.533482	18.901742	1.093981	0	0
50.841077	1.760758	0.594603	49.677636	4.567516	46.869999	4.567516	3.148234E+15	0.000972	1012.313042	19.087965	1.091921	0	0
51.539834	1.054845	0.590405	49.565131	4.644159	46.678798	4.644159	3.00287E+15	0.000979	1006.222902	18.862375	1.091723	0	0
42.443523	5.614302	0.785428	49.442417	4.719814	46.474054	4.719814	2.850801E+15	0.000984	1002.516413	19.006836	1.088594	0	0
52.40079	0	0	49.329749	4.786356	46.286939	4.786356	2.716959E+15	0.000989	998.747519	18.963354	1.088079	0	0
0	0	0	49.214181	4.852071	46.095699	4.852071	2.585239E+15	0.000995	994.276311	18.85211	1.086495	0	0
0	0	0	49.095796	4.913764	45.902498	4.913764	2.455972E+15	0.000998	991.805495	19.040383	1.084237	0	0
0	0	0	48.983618	4.971741	45.71893	4.971741	2.338606E+15	0.001004	987.287559	18.812457	1.084118	0	0
0	0	0	48.864089	5.026835	45.526903	5.026835	2.218858E+15	0.001006	986.148079	18.972003	1.081464	0	0
0	0	0	48.752319	5.078467	45.346544	5.078467	2.11168E+15	0.00101	982.42072	18.902205	1.081266	0	0
0	0	0	48.636548	5.128051	45.161633	5.128051	2.005393E+15	0.001013	980.026643	18.820554	1.079563	0	0
0	0	0	48.523185	5.173758	44.981844	5.173758	1.905828E+15	0.001016	978.307584	18.993134	1.077899	0	0
0	0	0	48.407414	5.216504	44.800308	5.216504	1.808599E+15	0.001016	978.694686	18.768944	1.077899	0	0
0	0	0	48.297563	5.25587	44.628336	5.25587	1.720362E+15	0.001017	978.247832	18.960817	1.075127	0	0
0	0	0	48.181751	5.295059	44.448096	5.295059	1.631431E+15	0.001018	978.336578	18.884344	1.075008	0	0
0	0	0	48.072145	5.329789	44.278689	5.329789	1.551006E+15	0.001017	979.384122	18.827643	1.073463	0	0
0	0	0	47.956251	5.364214	44.100714	5.364214	1.469782E+15	0.001015	981.483991	18.999721	1.071681	0	0
0	0	0	47.844318	5.395425	43.929841	5.395425	1.394925E+15	0.001013	984.403571	18.785056	1.071047	0	0
0	0	0	47.735856	5.42557	43.763937	5.42557	1.325636E+15	0.001012	985.220454	18.982653	1.068076	0	0
0	0	0	47.618573	5.455256	43.586246	5.455256	1.254176E+15	0.001009	988.619225	18.88216	1.067641	0	0
0	0	0	47.509335	5.482103	43.420964	5.482103	1.190736E+15	0.001007	991.002917	18.85725	1.065185	0	0
0	0	0	47.393686	5.508225	43.247327	5.508225	1.126725E+15	0.001002	995.566833	19.003339	1.063165	0	0
0	0	0	47.283305	5.532947	43.081418	5.532947	1.068539E+15	0.001	998.096264	18.78942	1.062175	0	0
0	0	0	47.171698	5.555807	42.914969	5.555807	1.012482E+15	0.000995	1002.898899	18.986913	1.059125	0	0
0	0	0	47.060255	5.578245	42.748756	5.578245	9.591843E+14	0.000992	1006.307987	18.851678	1.058649	0	0
0	0	0	46.947056	5.599014	42.581192	5.599014	9.07675E+14	0.000987	1012.223878	18.847219	1.055718	0	0
0	0	0	46.84035	5.618471	42.423074	5.618471	8.614485E+14	0.000983	1015.977305	18.962665	1.053896	0	0
0	0	0	46.723435	5.63733	42.251491	5.63733	8.132863E+14	0.000975	1024.221857	18.757952	1.052748	0	0
0	0	0	46.619384	5.654722	42.098076	5.654722	7.725212E+14	0.000972	1027.825161	18.958596	1.049975	0	0
0	0	0	46.502877	5.672066	41.927755	5.672066	7.291213E+14	0.000965	1035.696704	18.811809	1.049579	0	0
0	0	0	46.394905	5.687639	41.770101	5.687639	6.909292E+14	0.000959	1042.420397	18.826407	1.046846	0	0
0	0	0	46.284238	5.702568	41.609146	5.702568	6.537206E+14	0.000951	1050.541349	18.925415	1.04542	0	0
0	0	0	46.176837	5.716767	41.452991	5.716767	6.19405E+14	0.000945	1057.324611	18.729108	1.044192	0	0
0	0	0	46.064659	5.730515	41.290594	5.730515	5.853672E+14	0.000937	1066.114414	18.948338	1.041499	0	0
0	0	0	45.955748	5.743616	41.132955	5.743616	5.540064E+14	0.000931	1073.39605	18.784413	1.041221	0	0
0	0	0	45.840671	5.756044	40.967402	5.756044	5.22592E+14	0.000922	1084.546151	18.841674	1.03829	0	0
0	0	0	45.735271	5.767395	40.815647	5.767395	4.953014E+14	0.000915	1092.856118	18.91353	1.037221	0	0
0	0	0	45.621623	5.778552	40.652784	5.778552	4.673883E+14	0.000905	1104.53078	18.755169	1.035755	0	0
0	0	0	45.51263	5.789027	40.496643	5.789027	4.420256E+14	0.000897	1114.695951	18.970866	1.033022	0	0
0	0	0	45.400738	5.798761	40.337095	5.798761	4.173529E+14	0.000886	1128.214642	18.78686	1.032547	0	0
0	0	0	45.290928	5.808522	40.180206	5.808522	3.944197E+14	0.000878	1138.230218	18.869444	1.029576	0	0
0	0	0	45.179567	5.817558	40.021733	5.817558	3.72395E+14	0.000869	1151.044525	18.916759	1.028269	0	0
0	0	0	45.068492	5.826346	39.863746	5.826346	3.516031E+14	0.00086	1162.966377	18.766084	1.026328	0	0
0	0	0	44.955048	5.834642	39.70288	5.834642	3.3152E+14	0.000849	1177.202225	18.987213	1.02312	0	0
0	0	0	44.849567	5.842142	39.553397	5.842142	3.138399E+14	0.00084	1189.82247	18.788931	1.022407	0	0
0	0	0	44.734285	5.849675	39.390523	5.849675	2.955567E+14	0.000829	1206.162796	18.893616	1.018961	0	0
0	0	0	44.626109	5.85704	39.237318	5.85704	2.793385E+14	0.000822	1216.940529	18.906367	1.017614	0	0
0	0	0	44.514502	5.863611	39.080108	5.863611	2.635093E+14	0.00081	1234.010751	18.766027	1.015436	0	0
0	0	0	44.403917	5.870162	38.924211	5.870162	2.486838E+14	0.000801	1248.384578	18.971819	1.012703	0	0
0	0	0	44.292923	5.876117	38.768233	5.876117	2.346187E+14	0.00079	1266.177616	18.754728	1.011832	0	0
0	0	0	44.185605	5.881686	38.617522	5.881686	2.217562E+14	0.000779	1283.180677	18.88831	1.008227	0	0
0	0	0	44.07118	5.887108	38.457246	5.887108	2.087985E+14	0.000767	1304.455843	18.860068	1.007237	0	0
0	0	0	43.969579	5.892176	38.314623	5.892176	1.979136E+14	0.000758	1318.63941	18.748088	1.00486	0	0
0	0	0	43.855482	5.897189	38.155042	5.897189	1.863497E+14	0.000746	1340.0097	18.93256	1.002405	0	0
0	0	0	43.747632	5.901728	38.00433	5.901728	1.760276E+14	0.000735	1360.631244	18.711319	1.00181	0	0
0	0	0	43.637945	5.906196	37.851135	5.906196	1.66104E+14	0.000724	1381.466409	18.865897	0.998602	0	0
0	0	0	43.528217	5.91057	37.697917	5.91057	1.567257E+14	0.000714	1401.393526	18.813756	0.997889	0	0
0	0	0	43.416611	5.914882	37.542152	5.914882	1.477199E+14	0.000704	1421.215963	18.745751	0.995671	0	0
0	0	0	43.308639	5.918496	37.391963	5.918496	1.394918E+14	0.000691	1446.812903	18.930198	0.993493	0	0
0	0	0	43.19205	5.922318	37.229816	5.922318	1.311125E+14	0.000679	1473.767682	18.723569	0.992661	0	0
0	0	0	43.087264	5.925657	37.084133	5.925657	1.240051E+14	0.000668	1497.701151	18.905023	0.989571	0	0
0	0	0	42.971124	5.929247	36.922732	5.929247	1.165705E+14	0.000656	1524.006138	18.827555	0.988977	0	0
0	0	0	42.858415	5.932438	36.766349	5.932438	1.097761E+14	0.000644	1552.98709	18.783257	0.986878	0	0
0	0	0	42.744359	5.93536	36.60837	5.93536	1.032983E+14	0.00063	1586.781949	18.956292	0.984462	0	0
0	0	0	42.630425	5.938078	36.450729	5.938078	9.720438E+13	0.000616	1623.401401	18.739473	0.983551	0	0
0	0	0	42.51743	5.940823	36.2943	5.940823	9.151176E+13	0.000604	1656.966235	18.945335	0.980263	0	0
0	0	0	42.401903	5.943799	36.134148	5.943799	8.603237E+13	0.000594	1684.750422	18.832379	0.97955	0	0
0	0	0	42.275269	5.946776	35.958852	5.946776	8.039851E+13	0.000582	1719.546654	18.816077	0.976857	0	0
0	0	0	42.155863	5.949172	35.793962	5.949172	7.542136E+13	0.000568	1761.636549	18.943916	0.975074	0	0
0	0	0	42.037314	5.951628	35.630136	5.951628	7.078208E+13	0.000556	1799.080582	18.740646	0.973847	0	0
0	0	0	41.923462	5.954004	35.47275	5.954004	6.659315E+13	0.000546	1832.067119	18.959674	0.97044	0	0
0	0	0	41.801442	5.956633	35.303946	5.956633	6.237637E+13	0.000537	1861.174861	18.820864	0.969965	0	0
0	0	0	41.67591	5.958497	35.131167	5.958497	5.831463E+13	0.000521	1918.955064	18.842903	0.967232	0	0
0	0	0	41.55728	5.960582	34.967503	5.960582	5.471787E+13	0.00051	1959.426198	18.943236	0.965687	0	0
0	0	0	41.43281	5.962455	34.796101	5.962455	5.118074E+13	0.000497	2012.585539	18.741114	0.964538	0	0
0	0	0	41.315323	5.964287	34.634217	5.964287	4.805078E+13	0.000486	2057.964091	18.963021	0.961687	0	0
0	0	0	41.189955	5.966178	34.461517	5.966178	4.492045E+13	0.000475	2106.753893	18.797109	0.961489	0	0
0	0	0	41.065362	5.967754	34.290201	5.967754	4.201048E+13	0.000461	2168.310387	18.859586	0.958716	0	0
0	0	0	40.940607	5.969436	34.118519	5.969436	3.928461E+13	0.00045	2222.565475	18.940593	0.957211	0	0
0	0	0	40.814136	5.971206	33.944375	5.971206	3.670089E+13	0.00044	2270.574015	18.770197	0.955785	0	0
0	0	0	40.686276	5.972718	33.768613	5.972718	3.426074E+13	0.000429	2333.081923	18.991032	0.953052	0	0
0	0	0	40.551311	5.974258	33.583124	5.974258	3.186006E+13	0.000417	2400.232898	18.803325	0.952735	0	0
0	0	0	40.423656	5.975622	33.407767	5.975622	2.97438E+13	0.000405	2467.913613	18.896274	0.949685	0	0
0	0	0	40.292122	5.977004	33.227086	5.977004	2.770964E+13	0.000394	2536.984866	18.932782	0.948497	0	0
0	0	0	40.162261	5.978158	33.048934	5.978158	2.583743E+13	0.000382	2620.409923	18.796375	0.946675	0	0
0	0	0	40.029175	5.979557	32.866079	5.979557	2.404948E+13	0.000373	2684.492716	19.006991	0.944179	0	0
0	0	0	39.896701	5.980244	32.684893	5.980244	2.239228E+13	0.000355	2814.132728	18.796522	0.943704	0	0
0	0	0	39.764962	5.981633	32.503845	5.981633	2.085724E+13	0.000348	2871.567313	18.928409	0.940417	0	0
0	0	0	39.630161	5.982708	32.318988	5.982708	1.93951E+13	0.000337	2963.439864	18.895379	0.939664	0	0
0	0	0	39.495604	5.983635	32.13463	5.983635	1.803761E+13	0.000326	3071.01012	18.800017	0.937327	0	0
0	0	0	39.357495	5.98463	31.945334	5.98463	1.67428E+13	0.000315	3174.905118	18.991682	0.935109	0	0
0	0	0	39.223346	5.985438	31.761648	5.985438	1.5574E+13	0.000303	3296.457121	18.77573	0.934436	0	0
0	0	0	39.08246	5.986422	31.568552	5.986422	1.443407E+13	0.000294	3403.509461	18.948159	0.930871	0	0
0	0	0	38.945086	5.987229	31.380447	5.987229	1.340281E+13	0.000283	3530.121713	18.892057	0.930554	0	0
0	0	0	38.798523	5.987905	31.179981	5.987905	1.238355E+13	0.00027	3697.983261	18.805433	0.928415	0	0
0	0	0	38.657351	5.988892	30.986446	5.988892	1.147502E+13	0.000263	3797.413392	18.980263	0.926355	0	0
0	0	0	38.506828	5.98969	30.7804	5.98969	1.057951E+13	0.000253	3949.234374	18.75391	0.925801	0	0
0	0	0	38.360551	5.990148	30.580568	5.990148	9.77619E+12	0.00024	4168.547832	18.948833	0.922355	0	0
0	0	0	38.205535	5.990988	30.368322	5.990988	8.991269E+12	0.000231	4322.411927	18.8667	0.921959	0	0
0	0	0	38.048192	5.99178	30.152953	5.99178	8.258913E+12	0.000223	4489.918785	18.831128	0.919701	0	0
0	0	0	37.889338	5.992486	29.935626	5.992486	7.579962E+12	0.000214	4682.82736	18.981069	0.9178	0	0
0	0	0	37.728156	5.993013	29.715354	5.993013	6.948036E+12	0.000203	4938.217109	18.760753	0.917166	0	0
0	0	0	37.561706	5.993542	29.487892	5.993542	6.350653E+12	0.000192	5215.540084	18.960978	0.914235	0	0
0	0	0	37.396481	5.994434	29.261596	5.994434	5.808435E+12	0.000187	5357.350415	18.848382	0.913443	0	0
0	0	0	37.223783	5.994718	29.025931	5.994718	5.291077E+12	0.000174	5760.37386	18.85147	0.911027	0	0
0	0	0	37.045245	5.995663	28.781394	5.995663	4.80459E+12	0.000169	5901.390072	18.9711	0.909205	0	0
0	0	0	36.86777	5.996006	28.53912	5.996006	4.36531E+12	0.000158	6318.674869	18.771264	0.908214	0	0
0	0	0	36.682412	5.99641	28.286015	5.99641	3.949319E+12	0.000148	6754.495015	18.991141	0.905165	0	0
0	0	0	36.491624	5.996997	28.025241	5.996997	3.562482E+12	0.000141	7117.116081	18.816694	0.904927	0	0
0	0	0	36.299283	5.997668	27.762221	5.997668	3.210826E+12	0.000135	7427.06873	18.861306	0.902194	0	0
0	0	0	36.097918	5.998207	27.487077	5.998207	2.87979E+12	0.000127	7860.032584	18.943643	0.900728	0	0
0	0	0	35.892551	5.998532	27.206777	5.998532	2.577293E+12	0.000118	8499.113766	18.77819	0.898906	0	0
0	0	0	35.683141	5.998869	26.920942	5.998869	2.301528E+12	0.000109	9188.698865	18.992779	0.896173	0	0
0	0	0	35.468055	5.999296	26.627231	5.999296	2.048965E+12	0.000102	9852.211461	18.802655	0.895817	0	0
0	0	0	35.247496	5.999696	26.326094	5.999696	1.818725E+12	9.428796E-5	10605.808251	18.889045	0.892727	0	0
0	0	0	35.022119	6.000052	26.018443	6.000052	1.610152E+12	8.70967E-5	11481.491606	18.923519	0.891618	0	0
0	0	0	34.793271	6.000697	25.705616	6.000697	1.422822E+12	8.351486E-5	11973.917562	18.766548	0.890113	0	0
0	0	0	34.558297	6.001156	25.384709	6.001156	1.253128E+12	7.828772E-5	12773.394837	18.979067	0.887301	0	0
0	0	0	34.318791	6.001407	25.057931	6.001407	1.100969E+12	7.130186E-5	14024.879163	18.781436	0.886588	0	0
0	0	0	34.070627	6.001678	24.719316	6.001678	9.62767E+11	6.491359E-5	15405.095302	18.905452	0.883815	0	0
0	0	0	33.816664	6.001761	24.373087	6.001761	8.392768E+11	5.730786E-5	17449.611853	18.90922	0.882587	0	0
0	0	0	33.554615	6.002379	24.014986	6.002379	7.284341E+11	5.495272E-5	18197.460083	18.778716	0.881082	0	0
0	0	0	33.286687	6.002818	23.64914	6.002818	6.302227E+11	5.135976E-5	19470.495066	18.981301	0.878508	0	0
0	0	0	33.015082	6.002991	23.278701	6.002991	5.441696E+11	4.579815E-5	21834.945413	18.759251	0.878032	0	0
0	0	0	32.721835	6.003336	22.878477	6.003336	4.644007E+11	4.181421E-5	23915.313385	18.923408	0.874864	0	0
0	0	0	32.434427	6.003625	22.486292	6.003625	3.975775E+11	3.802273E-5	26300.054922	18.869326	0.874151	0	0
0	0	0	32.134605	6.003747	22.077455	6.003747	3.380926E+11	3.320965E-5	30111.730786	18.784965	0.872012	0	0
0	0	0	31.83515	6.004126	21.668682	6.004126	2.875646E+11	3.082557E-5	32440.595284	18.962808	0.869952	0	0
0	0	0	31.52859	6.004293	21.250574	6.004293	2.436501E+11	2.720906E-5	36752.461225	18.736841	0.869318	0	0
0	0	0	31.210064	6.004571	20.815958	6.004571	2.051107E+11	2.462401E-5	40610.775398	18.9325	0.866189	0	0
0	0	0	30.878839	6.004795	20.364116	6.004795	1.714859E+11	2.191388E-5	45633.179222	18.830809	0.865952	0	0
0	0	0	30.543121	6.005104	19.905992	6.005104	1.430254E+11	2.005828E-5	49854.728594	18.810301	0.86306	0	0
0	0	0	30.191191	6.005347	19.425877	6.005347	1.182475E+11	1.795559E-5	55692.976413	18.955511	0.861278	0	0
0	0	0	29.824846	6.005575	18.926129	6.005575	9.700322E+10	1.597705E-5	62589.772406	18.748845	0.860486	0	0
0	0	0	29.439145	6.005685	18.400206	6.005685	7.874732E+10	1.351925E-5	73968.595616	18.958743	0.857713	0	0
0	0	0	29.027022	6.005953	17.837968	6.005953	6.302058E+10	1.206974E-5	82851.805675	18.8084	0.857238	0	0
0	0	0	28.582026	6.006242	17.230871	6.006242	4.954629E+10	1.083335E-5	92307.58115	18.822405	0.854861	0	0
0	0	0	28.11069	6.006239	16.588414	6.006239	3.840219E+10	8.384179E-6	119272.267409	18.933307	0.853356	0	0
0	0	0	27.630492	6.006605	15.933158	6.006605	2.96224E+10	7.886123E-6	126805.026587	18.736817	0.852049	0	0
0	0	0	27.147967	6.006892	15.274867	6.006892	2.282117E+10	7.333589E-6	136358.887884	18.961205	0.848959	0	0
0	0	0	26.664258	6.006854	14.615595	6.006854	1.757023E+10	5.496215E-6	181943.394714	18.77353	0.848999	0	0
0	0	0	26.195821	6.007212	13.976337	6.007212	1.363963E+10	5.704149E-6	175310.988734	18.837179	0.846266	0	0
0	0	0	25.753194	6.00724	13.372923	6.00724	1.07371E+10	4.609217E-6	216956.579882	18.894517	0.845236	0	0
0	0	0	25.336456	6.007082	12.805186	6.007082	8.571351E+9	3.192813E-6	313203.399833	18.742049	0.843573	0	0
0	0	0	24.953817	6.007314	12.283115	6.007314	6.969747E+9	3.221619E-6	310402.978372	18.963986	0.841077	0	0
0	0	0	24.606175	6.007321	11.809218	6.007321	5.775652E+9	2.688943E-6	371893.383287	18.761193	0.840602	0	0
0	0	0	24.289529	6.007446	11.377316	6.007446	4.867004E+9	2.60944E-6	383224.022979	18.876737	0.837908	0	0
0	0	0	23.983377	6.00748	10.959916	6.00748	4.124642E+9	2.303589E-6	434105.123194	18.872561	0.837196	0	0
0	0	0	23.684208	6.007546	10.551961	6.007546	3.508733E+9	2.13731E-6	467877.764733	18.746009	0.835572	0	0
0	0	0	23.371685	6.007427	10.12621	6.007427	2.963325E+9	1.552369E-6	644176.943785	18.952938	0.833116	0	0
0	0	0	23.061736	6.007672	9.703161	6.007672	2.50618E+9	1.844324E-6	542204.070818	18.736063	0.83268	0	0
0	0	0	22.744925	6.007718	9.271196	6.007718	2.111711E+9	1.683118E-6	594135.422469	18.902782	0.829393	0	0
0	0	0	22.427748	6.007745	8.838772	6.007745	1.778978E+9	1.488652E-6	671748.657096	18.838312	0.828798	0	0
0	0	0	22.101096	6.007573	8.393886	6.007573	1.491016E+9	9.429384E-7	1060514.61677	18.752961	0.826858	0	0
0	0	0	21.780814	6.007626	7.957173	6.007626	1.253977E+9	8.575719E-7	1166082.99288	18.930196	0.824956	0	0
0	0	0	21.473642	6.007665	7.538358	6.007665	1.062122E+9	7.735838E-7	1292684.765664	18.715371	0.824283	0	0
0	0	0	21.175044	6.007844	7.130907	6.007844	9.038009E+8	9.301373E-7	1075110.091629	18.919302	0.821193	0	0
0	0	0	20.879959	6.007771	6.728828	6.007771	7.705405E+8	6.788347E-7	1473112.69671	18.806962	0.821075	0	0
0	0	0	20.58075	6.008181	6.319985	6.008181	6.554655E+8	3.067333E-6	326016.103183	18.782946	0.818381	0	0
0	0	0	20.283337	6.008009	5.914967	6.008009	5.58118E+8	9.301601E-7	1075083.717043	18.902689	0.816995	0	0
0	0	0	19.985924	6.007632	5.510449	6.007632	4.752283E+8	3.284149E-7	3044928.633286	18.687347	0.816044	0	0
0	0	0	19.682916	6.008029	5.096441	6.008029	4.034271E+8	7.264047E-7	1376643.031323	18.904084	0.813153	0	0
0	0	0	19.379051	6.007824	4.682721	6.007824	3.423154E+8	3.369169E-7	2968091.325833	18.744361	0.813232	0	0
0	0	0	19.070327	6.008128	4.261129	6.008128	2.89699E+8	8.714921E-7	1147457.323	18.78824	0.810459	0	0
0	0	0	18.759519	6.007943	3.837902	6.007943	2.448943E+8	3.27184E-7	3056384.619548	18.879832	0.809152	0	0
0	0	0	18.448304	6.008095	3.413281	6.008095	2.069733E+8	5.089303E-7	1964905.781108	18.687685	0.808202	0	0
0	0	0	18.131085	6.007864	2.981439	6.007864	1.743576E+8	1.881315E-7	5315431.850492	18.914572	0.805429	0	0
0	0	0	17.813581	6.008161	2.547871	6.008161	1.468588E+8	5.691075E-7	1757137.28281	18.717001	0.805389	0	0
0	0	0	17.489379	6.008254	2.105688	6.008254	1.2325E+8	2.465335E-6	405624.378653	18.812201	0.802577	0	0
0	0	0	17.159869	6.008108	1.656878	6.008108	1.031401E+8	2.736434E-7	3654391.19359	18.843391	0.801785	0	0
0	0	0	16.82558	6.008194	1.200959	6.008194	8.60888E+7	4.685876E-7	2134072.906763	18.704867	0.800042	0	0
0	0	0	16.490271	6.008082	0.744165	6.008082	7.181678E+7	1.645886E-7	6075755.8665	18.91105	0.797943	0	0
0	0	0	16.14998	6.008234	0.279885	6.008234	5.974968E+7	6.319774E-7	1582334.94003	18.687009	0.797745	0	0
0	0	0	15.807197	6.008181	-0.187251	6.008181	4.964327E+7	2.326051E-7	4299132.17737	18.827269	0.794774	0	0
0	0	0	15.461066	6.008208	-0.659162	6.008208	4.117172E+7	2.673891E-7	3739868.779399	18.79582	0.794101	0	0
0	0	0	15.109913	6.008115	-1.1376	6.008115	3.405324E+7	9.406448E-8	1.063101E+7	18.690951	0.792477	0	0
0	0	0	14.755655	6.008181	-1.620698	6.008181	2.811831E+7	1.317559E-7	7589795.514882	18.891467	0.790298	0	0
0	0	0	14.394986	6.008313	-2.112719	6.008313	2.313741E+7	-2.761019E-7	-3621851.68118	18.669074	0.789823	0	0
0	0	0	14.027988	6.008188	-2.612661	6.008188	1.89738E+7	9.55634E-8	1.046426E+7	18.855404	0.786852	0	0
0	0	0	13.654497	6.008261	-3.122002	6.008261	1.550492E+7	4.419947E-7	2262470.463387	18.776759	0.786298	0	0
0	0	0	13.281699	6.008446	-3.630717	6.008446	1.2675E+7	-3.326632E-8	-3.006044E+7	18.712565	0.784674	0	0
0	0	0	12.913313	6.00838	-4.132714	6.00838	1.038631E+7	-4.468918E-8	-2.237678E+7	18.861428	0.78301	0	0
0	0	0	12.541046	6.008313	-4.639998	6.008313	8493060.5	-1.01339E-7	-9867867.161786	18.640889	0.782377	0	0
0	0	0	12.162899	6.008062	-5.154761	6.008062	6922875	1.439598E-8	6.946383E+7	18.86301	0.779327	0	0
0	0	0	11.792389	6.008234	-5.660332	6.008234	5666326	5.995102E-8	1.668028E+7	18.72272	0.779446	0	0
0	0	0	11.416325	6.008201	-6.172881	6.008201	4623946.5	2.739016E-8	3.650946E+7	18.752999	0.776792	0	0
0	0	0	11.041282	6.008227	-6.684213	6.008227	3775406	3.451788E-8	2.897049E+7	18.85684	0.775524	0	0
0	0	0	10.665708	6.008313	-7.196447	6.008313	3081697	-3.676942E-8	-2.719651E+7	18.649542	0.774574	0	0
0	0	0	10.287887	6.008254	-7.71131	6.008254	2512400.5	5.031574E-8	1.987449E+7	18.874612	0.771999	0	0
0	0	0	9.906596	6.008327	-8.231302	6.008327	2044433	-1.800739E-8	-5.553275E+7	18.68475	0.772039	0	0
0	0	0	9.525591	6.008267	-8.750505	6.008267	1663888	8.232494E-8	1.214699E+7	18.768288	0.769464	0	0
0	0	0	9.143483	6.008406	-9.271816	6.008406	1353369.5	-4.637062E-9	-2.156538E+8	18.807775	0.768593	0	0
0	0	0	8.76113	6.0083	-9.792713	6.0083	1100655	-2.0348E-8	-4.914487E+7	18.656086	0.767325	0	0
0	0	0	8.379226	6.008313	-10.313362	6.008313	895347	-1.068272E-8	-9.360912E+7	18.867316	0.764949	0	0
0	0	0	7.992177	6.008294	-10.840923	6.008294	726312.5	-1.851361E-8	-5.401431E+7	18.635735	0.764949	0	0
0	0	0	7.602759	6.00828	-11.371732	6.00828	588436.5	-6.187316E-8	-1.61621E+7	18.766934	0.762255	0	0
0	0	0	7.21036	6.008386	-11.906983	6.008386	475966.5	-1.924821E-9	-5.195288E+8	18.75129	0.761622	0	0
0	0	0	6.816859	6.008161	-12.442683	6.008161	384763.5	1.491457E-9	6.704855E+8	18.650829	0.759839	0	0
0	0	0	6.425195	6.008499	-12.977681	6.008499	311345.5	-6.228072E-10	-1.605633E+9	18.852959	0.75774	0	0
0	0	0	6.032797	6.008333	-13.512063	6.008333	251836.5	-1.961428E-9	-5.098327E+8	18.621458	0.75774	0	0
0	0	0	5.638601	6.008346	-14.049472	6.008346	203504.5	-1.287062E-9	-7.769632E+8	18.811045	0.75473	0	0
0	0	0	5.244691	6.008439	-14.586753	6.008439	164473	-4.491805E-10	-2.226277E+9	18.705473	0.75469	0	0
0	0	0	4.83898	6.008439	-15.13982	6.008439	132082.5	-3.607211E-10	-2.772225E+9	18.665286	0.752551	0	0
0	0	0	4.443927	6.008135	-15.677338	6.008135	106684	3.360971E-10	2.97533E+9	18.821287	0.750848	0	0
0	0	0	4.053325	6.008406	-16.210714	6.008406	86377	-2.959535E-10	-3.378909E+9	18.594612	0.750373	0	0
0	0	0	3.672319	6.008254	-16.729583	6.008254	70299	1.407915E-9	7.102702E+8	18.806979	0.747719	0	0
0	0	0	3.298134	6.008525	-17.240596	6.008525	57425	-1.02664E-10	-9.740511E+9	18.65986	0.747758	0	0
0	0	0	2.931299	6.008393	-17.740213	6.008393	47095.5	-1.796585E-10	-5.566117E+9	18.700433	0.745223	0	0
0	0	0	2.575979	6.008419	-18.224675	6.008419	38865	-1.20856E-10	-8.274309E+9	18.769348	0.744431	0	0
0	0	0	2.238506	6.008346	-18.684465	6.008346	32384	-2.048122E-10	-4.882523E+9	18.58715	0.742966	0	0
0	0	0	1.918265	6.008809	-19.122636	6.008809	27236	-2.272792E-11	-4.399875E+10	18.80935	0.740668	0	0
0	0	0	1.627917	6.008631	-19.517817	6.008631	23280	-2.920526E-11	-3.424041E+10	18.611113	0.74055	0	0
0	0	0	1.371708	6.008327	-19.866009	6.008327	20269	-1.785278E-10	-5.601369E+9	18.709564	0.737975	0	0
0	0	0	1.152538	6.008591	-20.165718	6.008591	18004.5	-2.543174E-11	-3.932094E+10	18.734209	0.73742	0	0
0	0	0	0.965466	6.008558	-20.42062	6.008558	16273	-2.568132E-11	-3.893882E+10	18.590383	0.735915	0	0
0	0	0	0.805387	6.008459	-20.638487	6.008459	14924	-3.633407E-11	-2.752238E+10	18.788866	0.733578	0	0
0	0	0	0.675036	6.008472	-20.816229	6.008472	13908.5	-3.157686E-11	-3.166876E+10	18.554068	0.733737	0	0
0	0	0	0.557263	6.008518	-20.976943	6.008518	13050.5	-2.396837E-11	-4.172165E+10	18.718782	0.730647	0	0
0	0	0	0.469097	6.00832	-21.096419	6.00832	12443	-1.261025E-10	-7.930054E+9	18.670185	0.73033	0	0
0	0	0	0.399389	6.008353	-21.191564	6.008353	11983	-6.927546E-11	-1.443513E+10	18.587554	0.728627	0	0
0	0	0	0.344627	6.008446	-21.266548	6.008446	11633.5	-3.053228E-11	-3.275222E+10	18.764427	0.726805	0	0
0	0	0	0.291703	6.008525	-21.33898	6.008525	11305	-2.0211E-11	-4.947801E+10	18.532092	0.726409	0	0
0	0	0	0.246742	6.008452	-21.400009	6.008452	11033.5	-2.787057E-11	-3.588014E+10	18.716401	0.723795	0	0
0	0	0	0.214359	6.008419	-21.444035	6.008419	10842	-3.371468E-11	-2.966067E+10	18.610073	0.72332	0	0
0	0	0	0.182302	6.008327	-21.487401	6.008327	10656	-9.385722E-11	-1.065448E+10	18.590469	0.721339	0	0
0	0	0	0.148979	6.008426	-21.533184	6.008426	10466	-3.110793E-11	-3.214614E+10	18.718188	0.719992	0	0
0	0	0	0.136238	6.00834	-21.550242	6.00834	10394	-7.255586E-11	-1.378248E+10	18.497716	0.71924	0	0
0	0	0	0.115371	6.008452	-21.579094	6.008452	10277.5	-2.596092E-11	-3.851943E+10	18.724438	0.716467	0	0
0	0	0	0.090379	6.008393	-21.612949	6.008393	10139.5	-3.867985E-11	-2.585325E+10	18.53573	0.716626	0	0
0	0	0	0.075637	6.008452	-21.63326	6.008452	10059	-2.540899E-11	-3.935615E+10	18.598803	0.714012	0	0
0	0	0	0.06898	6.0083	-21.641785	6.0083	10023	-1.852948E-10	-5.396806E+9	18.654075	0.713417	0	0
0	0	0	0.062896	6.008558	-21.651011	6.008558	9990	-1.576577E-11	-6.342856E+10	18.487681	0.711991	0	0
0	0	0	0.052033	6.008446	-21.665412	6.008446	9931.5	-2.606536E-11	-3.83651E+10	18.701378	0.709971	0	0
0	0	0	0.041007	6.008512	-21.680682	6.008512	9872.5	-1.864045E-11	-5.364679E+10	18.502967	0.709417	0	0
0	0	0	0.027368	6.008241	-21.698295	6.008241	9800	1.230348E-10	8.127779E+9	18.620667	0.706882	0	0
0	0	0	0.015076	6.008571	-21.716247	6.008571	9735	-1.467502E-11	-6.814302E+10	18.598573	0.706486	0	0
0	0	0	0.007848	6.008545	-21.726004	6.008545	9697	-1.605649E-11	-6.228012E+10	18.485351	0.70506	0	0
0	0	0	0.001477	6.008492	-21.734497	6.008492	9663.5	-1.992283E-11	-5.019366E+10	18.682835	0.70304	0	0
0	0	0	-0.002034	6.008505	-21.739333	6.008505	9645.5	-1.873759E-11	-5.336866E+10	18.439173	0.702842	0	0
0	0	0	-0.004771	6.008452	-21.742871	6.008452	9631	-2.432787E-11	-4.110513E+10	18.624081	0.700148	0	0
0	0	0	-0.007302	6.00838	-21.74606	6.00838	9618	-4.138232E-11	-2.416491E+10	18.53918	0.700148	0	0
0	0	0	-0.010202	6.00836	-21.74994	6.00836	9603	-5.112422E-11	-1.95602E+10	18.489875	0.698089	0	0
0	0	0	-0.014449	6.008135	-21.754916	6.008135	9581	3.018397E-11	3.313016E+10	18.650558	0.696425	0	0
0	0	0	-0.021922	6.00836	-21.765917	6.00836	9542	-5.079947E-11	-1.968525E+10	18.426021	0.696069	0	0
0	0	0	-0.027517	6.008591	-21.774381	6.008591	9513.5	-1.343802E-11	-7.44157E+10	18.638656	0.693256	0	0
0	0	0	-0.033479	6.008518	-21.782245	6.008518	9482.5	-1.741543E-11	-5.742034E+10	18.48087	0.693296	0	0
0	0	0	-0.040503	6.008492	-21.791725	6.008492	9447	-1.947649E-11	-5.134396E+10	18.511983	0.691118	0	0
0	0	0	-0.047486	6.008261	-21.800406	6.008261	9411	2.683432E-10	3.726571E+9	18.589962	0.690207	0	0
0	0	0	-0.052304	6.008479	-21.807765	6.008479	9387	-2.061602E-11	-4.850596E+10	18.402443	0.689335	0	0
0	0	0	-0.059982	6.008274	-21.817489	6.008274	9348	1.747363E-9	5.722911E+8	18.632911	0.686761	0	0
0	0	0	-0.063779	6.008426	-21.823216	6.008426	9328.5	-2.772696E-11	-3.606598E+10	18.411387	0.686959	0	0
0	0	0	-0.068026	6.008267	-21.828431	6.008267	9307.5	4.605332E-10	2.171396E+9	18.526491	0.684186	0	0
0	0	0	-0.070313	6.008307	-21.831692	6.008307	9296	-1.348171E-10	-7.417457E+9	18.528226	0.683948	0	0
0	0	0	-0.072518	6.008525	-21.835489	6.008525	9285	-1.659966E-11	-6.024221E+10	18.399289	0.682285	0	0
0	0	0	-0.074315	6.008386	-21.837435	6.008386	9275.5	-3.751033E-11	-2.665933E+10	18.599489	0.680819	0	0
0	0	0	-0.07603	6.008472	-21.840085	6.008472	9267	-2.103913E-11	-4.753048E+10	18.36268	0.68074	0	0
0	0	0	-0.075785	6.008432	-21.839607	6.008432	9268.5	-2.638328E-11	-3.790279E+10	18.541285	0.678165	0	0
0	0	0	-0.077092	6.008551	-21.841819	6.008551	9262	-1.49679E-11	-6.680964E+10	18.466843	0.677928	0	0
0	0	0	-0.078154	6.00828	-21.842285	6.00828	9256.5	-9.732707E-10	-1.027463E+9	18.416235	0.675987	0	0
0	0	0	-0.079256	6.008558	-21.844794	6.008558	9251	-1.459951E-11	-6.849544E+10	18.567291	0.674601	0	0
0	0	0	-0.0804	6.008532	-21.846257	6.008532	9245.5	-1.610127E-11	-6.21069E+10	18.327344	0.674323	0	0
0	0	0	-0.082074	6.008532	-21.848539	6.008532	9237	-1.608647E-11	-6.216406E+10	18.54007	0.671868	0	0
0	0	0	-0.083626	6.008518	-21.850607	6.008518	9229	-1.694986E-11	-5.899755E+10	18.396519	0.671986	0	0
0	0	0	-0.083258	6.008598	-21.850393	6.008598	9231	-1.277092E-11	-7.830292E+10	18.43138	0.66961	0	0
0	0	0	-0.083871	6.00834	-21.850294	6.00834	9228	-6.441654E-11	-1.552396E+10	18.524924	0.668778	0	0
0	0	0	-0.084443	6.008545	-21.851816	6.008545	9225	-1.527494E-11	-6.546671E+10	18.330722	0.667986	0	0
0	0	0	-0.085668	6.008472	-21.853222	6.008472	9219	-2.093016E-11	-4.777795E+10	18.561983	0.665689	0	0
0	0	0	-0.086117	6.008399	-21.853571	6.008399	9217	-3.327442E-11	-3.005311E+10	18.339518	0.665847	0	0
0	0	0	-0.087383	6.00836	-21.855153	6.00836	9210.5	-4.903464E-11	-2.039375E+10	18.45344	0.663272	0	0
0	0	0	-0.088649	6.008432	-21.857142	6.008432	9204	-2.619968E-11	-3.816841E+10	18.462815	0.662718	0	0
0	0	0	-0.088445	6.00869	-21.857798	6.00869	9205	-9.888693E-12	-1.011256E+11	18.312979	0.661807	0	0
0	0	0	-0.088322	6.008505	-21.856961	6.008505	9205.5	-1.788283E-11	-5.591955E+10	18.52538	0.659668	0	0
0	0	0	-0.088281	6.008472	-21.856785	6.008472	9206	-2.090064E-11	-4.784542E+10	18.285197	0.659787	0	0
0	0	0	-0.08771	6.008485	-21.856054	6.008485	9209	-1.958587E-11	-5.105722E+10	18.469742	0.656935	0	0
0	0	0	-0.087995	6.008631	-21.85697	6.008631	9207.5	-1.155101E-11	-8.657255E+10	18.372399	0.657093	0	0
0	0	0	-0.088363	6.008485	-21.856944	6.008485	9205.5	-1.957842E-11	-5.107663E+10	18.323431	0.655469	0	0
0	0	0	-0.087832	6.008518	-21.85634	6.008518	9208.5	-1.691221E-11	-5.912889E+10	18.494671	0.653766	0	0
0	0	0	-0.088853	6.008327	-21.857038	6.008327	9203	-8.105931E-11	-1.233665E+10	18.263345	0.653647	0	0
0	0	0	-0.087628	6.00838	-21.855559	6.00838	9209	-3.962256E-11	-2.523815E+10	18.498663	0.650875	0	0
0	0	0	-0.087342	6.008452	-21.855433	6.008452	9210.5	-2.326568E-11	-4.298176E+10	18.325694	0.651152	0	0
0	0	0	-0.086158	6.008637	-21.854489	6.008637	9216.5	-1.135069E-11	-8.810039E+10	18.345591	0.649211	0	0
0	0	0	-0.085259	6.008499	-21.852761	6.008499	9221	-1.844543E-11	-5.421396E+10	18.43162	0.648102	0	0
0	0	0	-0.085709	6.008525	-21.85347	6.008525	9219	-1.648166E-11	-6.067349E+10	18.23165	0.64735	0	0
0	0	0	-0.086035	6.008346	-21.853268	6.008346	9217	-5.829278E-11	-1.715478E+10	18.470055	0.645131	0	0
0	0	0	-0.085096	6.008551	-21.85273	6.008551	9222	-1.490326E-11	-6.709942E+10	18.248862	0.64529	0	0
0	0	0	-0.085219	6.008532	-21.852826	6.008532	9221.5	-1.605947E-11	-6.226854E+10	18.374267	0.642636	0	0
0	0	0	-0.084239	6.00834	-21.850795	6.00834	9226.5	-6.440607E-11	-1.552649E+10	18.356364	0.642438	0	0
0	0	0	-0.082728	6.00834	-21.848735	6.00834	9233.5	-6.445493E-11	-1.551472E+10	18.236149	0.64121	0	0
0	0	0	-0.082728	6.008532	-21.84943	6.008532	9233.5	-1.608037E-11	-6.218762E+10	18.435345	0.639467	0	0
0	0	0	-0.083748	6.008366	-21.850223	6.008366	9228.5	-4.552853E-11	-2.196425E+10	18.1961	0.639269	0	0
0	0	0	-0.085096	6.008664	-21.853138	6.008664	9222	-1.058274E-11	-9.449352E+10	18.383438	0.636616	0	0
0	0	0	-0.084157	6.008459	-21.851115	6.008459	9226.5	-2.24629E-11	-4.451785E+10	18.283388	0.636536	0	0
0	0	0	-0.083748	6.008247	-21.849792	6.008247	9228.5	1.424333E-10	7.020831E+9	18.246951	0.634754	0	0
0	0	0	-0.083626	6.008446	-21.850343	6.008446	9229	-2.422164E-11	-4.12854E+10	18.393124	0.633288	0	0
0	0	0	-0.084279	6.008426	-21.851162	6.008426	9226	-2.74223E-11	-3.646667E+10	18.149971	0.63313	0	0
0	0	0	-0.084157	6.0083	-21.85054	6.0083	9226.5	-1.705699E-10	-5.862699E+9	18.378485	0.630595	0	0
0	0	0	-0.084279	6.008465	-21.851306	6.008465	9226	-2.16774E-11	-4.613099E+10	18.183146	0.630951	0	0
0	0	0	-0.086158	6.008419	-21.853699	6.008419	9216.5	-2.865996E-11	-3.489188E+10	18.255897	0.628456	0	0
0	0	0	-0.086403	6.008492	-21.854296	6.008492	9215.5	-1.899921E-11	-5.263376E+10	18.317168	0.627862	0	0
0	0	0	-0.086852	6.008551	-21.855124	6.008551	9213	-1.488871E-11	-6.716497E+10	18.15831	0.626753	0	0
0	0	0	-0.0882	6.008419	-21.856482	6.008419	9206.5	-2.862887E-11	-3.492978E+10	18.370863	0.624852	0	0
0	0	0	-0.08673	6.008327	-21.854143	6.008327	9213.5	-8.115179E-11	-1.232259E+10	18.126375	0.625089	0	0
0	0	0	-0.087587	6.008558	-21.85615	6.008558	9209.5	-1.453402E-11	-6.88041E+10	18.274175	0.622356	0	0
0	0	0	-0.088812	6.008413	-21.857293	6.008413	9203.5	-3.000614E-11	-3.332651E+10	18.227877	0.622356	0	0
0	0	0	-0.089466	6.008419	-21.858208	6.008419	9200	-2.860865E-11	-3.495446E+10	18.130949	0.620772	0	0
0	0	0	-0.092365	6.008631	-21.862927	6.008631	9185.5	-1.152341E-11	-8.67799E+10	18.31064	0.619108	0	0
0	0	0	-0.093141	6.008472	-21.86341	6.008472	9182	-2.084615E-11	-4.797048E+10	18.083745	0.618831	0	0
0	0	0	-0.092978	6.008333	-21.862684	6.008333	9182.5	-7.151778E-11	-1.398254E+10	18.273907	0.616692	0	0
0	0	0	-0.0931	6.008512	-21.863498	6.008512	9182	-1.73367E-11	-5.76811E+10	18.12799	0.617009	0	0
0	0	0	-0.093917	6.008565	-21.864803	6.008565	9178	-1.41524E-11	-7.065938E+10	18.144224	0.614593	0	0
0	0	0	-0.093549	6.008439	-21.863847	6.008439	9180	-2.507084E-11	-3.988698E+10	18.250955	0.613524	0	0
0	0	0	-0.093835	6.008499	-21.864452	6.008499	9178.5	-1.836042E-11	-5.446499E+10	18.039593	0.613009	0	0
0	0	0	-0.094897	6.008465	-21.86578	6.008465	9173	-2.155288E-11	-4.639752E+10	18.267684	0.610751	0	0
0	0	0	-0.096735	6.008584	-21.868716	6.008584	9164	-1.322188E-11	-7.563218E+10	18.069082	0.610949	0	0
0	0	0	-0.095999	6.008512	-21.86745	6.008512	9167.5	-1.730932E-11	-5.777234E+10	18.156027	0.608731	0	0
0	0	0	-0.097388	6.008525	-21.869391	6.008525	9160.5	-1.637708E-11	-6.106096E+10	18.166484	0.608295	0	0
0	0	0	-0.096367	6.008584	-21.868215	6.008584	9166	-1.322477E-11	-7.561568E+10	18.024513	0.606988	0	0
0	0	0	-0.096857	6.008499	-21.868571	6.008499	9163.5	-1.833041E-11	-5.455415E+10	18.231634	0.605087	0	0
0	0	0	-0.097715	6.008479	-21.869669	6.008479	9159	-2.011528E-11	-4.971345E+10	17.99877	0.605285	0	0
0	0	0	-0.097755	6.008346	-21.869245	6.008346	9159	-5.792596E-11	-1.726342E+10	18.183393	0.602631	0	0
0	0	0	-0.094815	6.008505	-21.865812	6.008505	9173.5	-1.782067E-11	-5.611461E+10	18.072731	0.602948	0	0
0	0	0	-0.09506	6.008499	-21.866122	6.008499	9172.5	-1.834842E-11	-5.450062E+10	18.038748	0.600928	0	0
0	0	0	-0.094815	6.008346	-21.865237	6.008346	9173.5	-5.801767E-11	-1.723613E+10	18.187148	0.599779	0	0
0	0	0	-0.093835	6.008439	-21.864236	6.008439	9178.5	-2.506674E-11	-3.98935E+10	17.958209	0.599462	0	0
0	0	0	-0.092814	6.008413	-21.862749	6.008413	9183.5	-2.994094E-11	-3.339909E+10	18.182251	0.596848	0	0
0	0	0	-0.092406	6.008518	-21.862575	6.008518	9185.5	-1.686996E-11	-5.927695E+10	18.008977	0.597323	0	0
0	0	0	-0.090854	6.008366	-21.859909	6.008366	9193.5	-4.535585E-11	-2.204787E+10	18.069875	0.595026	0	0
0	0	0	-0.091303	6.008413	-21.860689	6.008413	9191	-2.996539E-11	-3.337184E+10	18.124809	0.594392	0	0
0	0	0	-0.090119	6.008432	-21.859147	6.008432	9197	-2.617975E-11	-3.819746E+10	17.924031	0.593759	0	0
0	0	0	-0.090323	6.00828	-21.858874	6.00828	9196	-9.669095E-10	-1.034223E+9	18.144142	0.591699	0	0
0	0	0	-0.089016	6.008512	-21.857931	6.008512	9202.5	-1.737541E-11	-5.755261E+10	17.908741	0.591699	0	0
0	0	0	-0.088363	6.00834	-21.856417	6.00834	9205.5	-6.425948E-11	-1.556191E+10	18.050011	0.589283	0	0
0	0	0	-0.088608	6.008551	-21.857518	6.008551	9204.5	-1.487498E-11	-6.722699E+10	18.017929	0.588808	0	0
0	0	0	-0.087342	6.00836	-21.855098	6.00836	9210.5	-4.903464E-11	-2.039375E+10	17.915103	0.587659	0	0
0	0	0	-0.086444	6.008485	-21.854328	6.008485	9215	-1.959863E-11	-5.102398E+10	18.095166	0.585995	0	0
0	0	0	-0.08677	6.008551	-21.855013	6.008551	9213.5	-1.488952E-11	-6.716132E+10	17.855553	0.586074	0	0
0	0	0	-0.086199	6.008234	-21.853084	6.008234	9216.5	9.751597E-11	1.025473E+10	18.057707	0.583738	0	0
0	0	0	-0.086852	6.008677	-21.855579	6.008677	9213	-1.022371E-11	-9.781181E+10	17.919357	0.583817	0	0
0	0	0	-0.087628	6.008551	-21.856182	6.008551	9209	-1.488225E-11	-6.719414E+10	17.92401	0.581916	0	0
0	0	0	-0.0882	6.008551	-21.856961	6.008551	9206.5	-1.487821E-11	-6.721239E+10	18.027336	0.581044	0	0
0	0	0	-0.085749	6.008611	-21.853837	6.008611	9218.5	-1.224992E-11	-8.163316E+10	17.831872	0.580173	0	0
0	0	0	-0.08726	6.00838	-21.855058	6.00838	9211	-3.963117E-11	-2.523267E+10	18.041777	0.578311	0	0
0	0	0	-0.087832	6.0083	-21.85555	6.0083	9208.5	-1.702372E-10	-5.874158E+9	17.819979	0.578707	0	0
0	0	0	-0.088894	6.00834	-21.857141	6.00834	9203	-6.424203E-11	-1.556613E+10	17.944865	0.576172	0	0
0	0	0	-0.088241	6.008234	-21.855867	6.008234	9206.5	9.741016E-11	1.026587E+10	17.92057	0.576053	0	0
0	0	0	-0.088077	6.008624	-21.857058	6.008624	9207	-1.17698E-11	-8.496321E+10	17.79668	0.574746	0	0
0	0	0	-0.090405	6.008518	-21.859848	6.008518	9195.5	-1.688833E-11	-5.921248E+10	18.013616	0.572845	0	0
0	0	0	-0.090609	6.008426	-21.859791	6.008426	9194.5	-2.732867E-11	-3.659161E+10	17.760242	0.573043	0	0
0	0	0	-0.09114	6.008333	-21.860179	6.008333	9192	-7.159177E-11	-1.396809E+10	17.961563	0.570785	0	0
0	0	0	-0.092733	6.008432	-21.862709	6.008432	9184	-2.614275E-11	-3.825153E+10	17.842397	0.570944	0	0
0	0	0	-0.095142	6.00834	-21.865658	6.00834	9172	-6.402563E-11	-1.561875E+10	17.823123	0.569122	0	0
0	0	0	-0.094774	6.008644	-21.866259	6.008644	9173.5	-1.109468E-11	-9.013329E+10	17.948247	0.567973	0	0
0	0	0	-0.09649	6.008565	-21.86831	6.008565	9165	-1.413236E-11	-7.075961E+10	17.708879	0.567775	0	0
0	0	0	-0.095918	6.008538	-21.867435	6.008538	9168	-1.556352E-11	-6.425282E+10	17.938908	0.565478	0	0
0	0	0	-0.097429	6.008532	-21.86947	6.008532	9160.5	-1.595324E-11	-6.268319E+10	17.722644	0.565953	0	0
0	0	0	-0.097755	6.008459	-21.869652	6.008459	9159	-2.229856E-11	-4.484594E+10	17.826077	0.563577	0	0
0	0	0	-0.097674	6.008538	-21.869828	6.008538	9159.5	-1.554909E-11	-6.431245E+10	17.827794	0.563537	0	0
0	0	0	-0.099961	6.008439	-21.872587	6.008439	9148	-2.498344E-11	-4.002651E+10	17.706482	0.562071	0	0
0	0	0	-0.098817	6.00838	-21.870812	6.00838	9153.5	-3.938377E-11	-2.539117E+10	17.921264	0.560289	0	0
0	0	0	-0.099266	6.008465	-21.871736	6.008465	9151.5	-2.150236E-11	-4.650653E+10	17.65995	0.560646	0	0
0	0	0	-0.099797	6.0083	-21.871861	6.0083	9149	-1.691372E-10	-5.912361E+9	17.838262	0.558348	0	0
0	0	0	-0.100941	6.008492	-21.874114	6.008492	9143.5	-1.885077E-11	-5.304822E+10	17.735124	0.558507	0	0
0	0	0	-0.10041	6.008479	-21.873343	6.008479	9145.5	-2.008563E-11	-4.978683E+10	17.715074	0.556645	0	0
0	0	0	-0.099307	6.008525	-21.872007	6.008525	9151.5	-1.636099E-11	-6.112101E+10	17.846309	0.555417	0	0
0	0	0	-0.099838	6.008505	-21.872659	6.008505	9148.5	-1.77721E-11	-5.626796E+10	17.601861	0.555496	0	0
0	0	0	-0.100042	6.008558	-21.873129	6.008558	9147.5	-1.443617E-11	-6.927044E+10	17.835344	0.55308	0	0
0	0	0	-0.099593	6.008545	-21.872469	6.008545	9150	-1.515075E-11	-6.600332E+10	17.635379	0.553397	0	0
0	0	0	-0.098491	6.008432	-21.870559	6.008432	9155.5	-2.606162E-11	-3.83706E+10	17.722266	0.551179	0	0
0	0	0	-0.09702	6.008518	-21.868866	6.008518	9162.5	-1.682772E-11	-5.942575E+10	17.742777	0.550941	0	0
0	0	0	-0.097347	6.008452	-21.869072	6.008452	9161	-2.314065E-11	-4.3214E+10	17.599294	0.549951	0	0
0	0	0	-0.09747	6.008346	-21.868855	6.008346	9160.5	-5.793545E-11	-1.726059E+10	17.805312	0.548208	0	0
0	0	0	-0.09604	6.008419	-21.867171	6.008419	9167.5	-2.850759E-11	-3.507838E+10	17.566222	0.548406	0	0
0	0	0	-0.095305	6.008465	-21.866336	6.008465	9171	-2.154818E-11	-4.640764E+10	17.751281	0.545911	0	0
0	0	0	-0.094611	6.008479	-21.865438	6.008479	9174.5	-2.014932E-11	-4.962946E+10	17.647832	0.546188	0	0
0	0	0	-0.093345	6.008512	-21.863832	6.008512	9180.5	-1.733387E-11	-5.769053E+10	17.600057	0.544485	0	0
0	0	0	-0.091916	6.008333	-21.861237	6.008333	9188	-7.156062E-11	-1.397417E+10	17.723395	0.543534	0	0
0	0	0	-0.091058	6.008406	-21.860331	6.008406	9192	-3.149455E-11	-3.175153E+10	17.49906	0.543297	0	0
0	0	0	-0.09114	6.008565	-21.861017	6.008565	9192	-1.417399E-11	-7.055177E+10	17.730367	0.540841	0	0
0	0	0	-0.091589	6.008485	-21.861342	6.008485	9189.5	-1.95444E-11	-5.116556E+10	17.539144	0.541277	0	0
0	0	0	-0.090078	6.008492	-21.859306	6.008492	9197	-1.896107E-11	-5.273964E+10	17.618154	0.539138	0	0
0	0	0	-0.089629	6.008465	-21.858598	6.008465	9199	-2.161396E-11	-4.626638E+10	17.630411	0.538742	0	0
0	0	0	-0.08869	6.008452	-21.85727	6.008452	9204	-2.324926E-11	-4.301211E+10	17.465272	0.53795	0	0
0	0	0	-0.088526	6.008551	-21.857407	6.008551	9205	-1.487579E-11	-6.722334E+10	17.688154	0.536128	0	0
0	0	0	-0.08869	6.008307	-21.856743	6.008307	9204	-1.334828E-10	-7.491599E+9	17.449773	0.536444	0	0
0	0	0	-0.090405	6.00834	-21.859201	6.00834	9195.5	-6.418967E-11	-1.557883E+10	17.64018	0.533632	0	0
0	0	0	-0.08918	6.008657	-21.85868	6.008657	9201.5	-1.07424E-11	-9.308903E+10	17.547375	0.533751	0	0
0	0	0	-0.088935	6.008439	-21.857556	6.008439	9202.5	-2.513228E-11	-3.978946E+10	17.493255	0.532444	0	0
0	0	0	-0.090446	6.008432	-21.859592	6.008432	9195	-2.617406E-11	-3.820577E+10	17.610999	0.531414	0	0
0	0	0	-0.088567	6.008327	-21.856648	6.008327	9204.5	-8.107252E-11	-1.233464E+10	17.368243	0.531097	0	0
0	0	0	-0.089833	6.008346	-21.858445	6.008346	9198.5	-5.817578E-11	-1.718928E+10	17.59692	0.528839	0	0
0	0	0	-0.089302	6.008373	-21.857818	6.008373	9201	-4.229225E-11	-2.364499E+10	17.389616	0.529434	0	0
0	0	0	-0.091099	6.008512	-21.86077	6.008512	9192	-1.735558E-11	-5.761835E+10	17.497838	0.527136	0	0
0	0	0	-0.093223	6.00834	-21.863042	6.00834	9181.5	-6.409194E-11	-1.560259E+10	17.535014	0.526542	0	0
0	0	0	-0.093958	6.00834	-21.864044	6.00834	9177.5	-6.406402E-11	-1.560939E+10	17.369641	0.525869	0	0
0	0	0	-0.095795	6.008446	-21.866932	6.008446	9168.5	-2.406285E-11	-4.155783E+10	17.574436	0.523968	0	0
0	0	0	-0.094938	6.00836	-21.865452	6.00836	9173	-4.8835E-11	-2.047712E+10	17.309198	0.524562	0	0
0	0	0	-0.095428	6.008558	-21.866839	6.008558	9170.5	-1.447247E-11	-6.909671E+10	17.499316	0.521908	0	0
0	0	0	-0.096857	6.008439	-21.868356	6.008439	9163.5	-2.502577E-11	-3.99588E+10	0	0	0	0
0	0	0	-0.097429	6.008717	-21.870141	6.008717	9160.5	-9.250198E-12	-1.081058E+11	0	0	0	0
0	0	0	-0.097102	6.008426	-21.868642	6.008426	9162	-2.723207E-11	-3.672141E+10	0	0	0	0
0	0	0	-0.100042	6.008472	-21.872818	6.008472	9147.5	-2.076783E-11	-4.81514E+10	0	0	0	0
0	0	0	-0.100042	6.008525	-21.873009	6.008525	9147.5	-1.635384E-11	-6.114773E+10	0	0	0	0
0	0	0	-0.099389	6.008485	-21.871975	6.008485	9151	-1.946251E-11	-5.138083E+10	0	0	0	0
0	0	0	-0.101512	6.008459	-21.874774	6.008459	9140.5	-2.225352E-11	-4.493671E+10	0	0	0	0
0	0	0	-0.101676	6.008703	-21.875883	6.008703	9139.5	-9.514543E-12	-1.051023E+11	0	0	0	0
0	0	0	-0.101635	6.008393	-21.874701	6.008393	9140	-3.486699E-11	-2.868042E+10	0	0	0	0
0	0	0	-0.102656	6.008558	-21.876692	6.008558	9135	-1.441645E-11	-6.936523E+10	0	0	0	0
0	0	0	-0.102656	6.008571	-21.87674	6.008571	9135	-1.377055E-11	-7.261875E+10	0	0	0	0
0	0	0	-0.103922	6.008651	-21.878753	6.008651	9128.5	-1.084534E-11	-9.220553E+10	0	0	0	0
0	0	0	-0.10188	6.00836	-21.874916	6.00836	9138.5	-4.865133E-11	-2.055442E+10	0	0	0	0
0	0	0	-0.102288	6.008373	-21.87552	6.008373	9136.5	-4.199578E-11	-2.381192E+10	0	0	0	0
0	0	0	-0.101227	6.008571	-21.874791	6.008571	9142	-1.37811E-11	-7.256315E+10	0	0	0	0
0	0	0	-0.101839	6.008611	-21.87577	6.008611	9138.5	-1.214362E-11	-8.234779E+10	0	0	0	0
0	0	0	-0.102288	6.008505	-21.875999	6.008505	9136.5	-1.774879E-11	-5.634186E+10	0	0	0	0
0	0	0	-0.100001	6.008565	-21.873097	6.008565	9147.5	-1.410537E-11	-7.089498E+10	0	0	0	0
0	0	0	-0.099144	6.008525	-21.871785	6.008525	9152	-1.636188E-11	-6.111767E+10	0	0	0	0
0	0	0	-0.09845	6.008353	-21.870215	6.008353	9155.5	-5.292927E-11	-1.889314E+10	0	0	0	0
0	0	0	-0.097551	6.008432	-21.869278	6.008432	9160	-2.607443E-11	-3.835175E+10	0	0	0	0
0	0	0	-0.09751	6.008346	-21.868911	6.008346	9160	-5.793229E-11	-1.726153E+10	0	0	0	0
0	0	0	-0.095142	6.008439	-21.866018	6.008439	9172	-2.504899E-11	-3.992177E+10	0	0	0	0
0	0	0	-0.095305	6.008551	-21.866648	6.008551	9171	-1.482084E-11	-6.747256E+10	0	0	0	0
0	0	0	-0.094611	6.008333	-21.864911	6.008333	9174.5	-7.145547E-11	-1.399473E+10	0	0	0	0
0	0	0	-0.09359	6.008604	-21.864501	6.008604	9179.5	-1.244383E-11	-8.036111E+10	0	0	0	0
0	0	0	-0.093876	6.008386	-21.8641	6.008386	9178.5	-3.711806E-11	-2.694107E+10	0	0	0	0
0	0	0	-0.092161	6.008604	-21.862553	6.008604	9186.5	-1.245332E-11	-8.029987E+10	0	0	0	0
0	0	0	-0.090364	6.00828	-21.85893	6.00828	9195.5	-9.668569E-10	-1.034279E+9	0	0	0	0
0	0	0	-0.091344	6.008399	-21.860697	6.008399	9190.5	-3.317875E-11	-3.013977E+10	0	0	0	0
0	0	0	-0.090895	6.008432	-21.860204	6.008432	9193	-2.616837E-11	-3.821408E+10	0	0	0	0
0	0	0	-0.090813	6.008551	-21.860524	6.008551	9193.5	-1.48572E-11	-6.730743E+10	0	0	0	0
0	0	0	-0.092161	6.00834	-21.861595	6.00834	9186.5	-6.412685E-11	-1.559409E+10	0	0	0	0
0	0	0	-0.090119	6.008432	-21.859147	6.008432	9197	-2.617975E-11	-3.819746E+10	0	0	0	0
0	0	0	-0.08967	6.008432	-21.858534	6.008432	9199	-2.618545E-11	-3.818915E+10	0	0	0	0
0	0	0	-0.089915	6.008518	-21.85918	6.008518	9197.5	-1.6892E-11	-5.919961E+10	0	0	0	0
0	0	0	-0.090323	6.008465	-21.859545	6.008465	9196	-2.160692E-11	-4.628148E+10	0	0	0	0
0	0	0	-0.090732	6.008313	-21.85955	6.008313	9194	-1.096964E-10	-9.116072E+9	0	0	0	0
0	0	0	-0.0931	6.008558	-21.863665	6.008558	9182	-1.449062E-11	-6.901017E+10	0	0	0	0
0	0	0	-0.092569	6.008333	-21.862127	6.008333	9185	-7.153725E-11	-1.397873E+10	0	0	0	0
0	0	0	-0.093427	6.008439	-21.86368	6.008439	9180.5	-2.50722E-11	-3.988481E+10	0	0	0	0
0	0	0	-0.093508	6.008624	-21.864462	6.008624	9180	-1.173528E-11	-8.52131E+10	0	0	0	0
0	0	0	-0.09408	6.008492	-21.864762	6.008492	9177	-1.891984E-11	-5.285457E+10	0	0	0	0
0	0	0	-0.093631	6.008492	-21.86415	6.008492	9179.5	-1.892499E-11	-5.284018E+10	0	0	0	0
0	0	0	-0.096857	6.008439	-21.868356	6.008439	9163.5	-2.502577E-11	-3.99588E+10	0	0	0	0
0	0	0	-0.097429	6.008565	-21.86959	6.008565	9160.5	-1.412542E-11	-7.079437E+10	0	0	0	0
0	0	0	-0.098409	6.008512	-21.870735	6.008512	9155.5	-1.728666E-11	-5.784806E+10	0	0	0	0
0	0	0	-0.098082	6.008459	-21.870098	6.008459	9157.5	-2.229491E-11	-4.485329E+10	0	0	0	0
0	0	0	-0.098776	6.008465	-21.871068	6.008465	9154	-2.150823E-11	-4.649382E+10	0	0	0	0
0	0	0	-0.099879	6.008479	-21.872619	6.008479	9148.5	-2.009222E-11	-4.97705E+10	0	0	0	0
0	0	0	-0.101349	6.008551	-21.874887	6.008551	9141.5	-1.477317E-11	-6.76903E+10	0	0	0	0
0	0	0	-0.100818	6.008551	-21.874163	6.008551	9144	-1.477721E-11	-6.767179E+10	0	0	0	0
0	0	0	-0.101717	6.008459	-21.875052	6.008459	9139.5	-2.225109E-11	-4.494162E+10	0	0	0	0
0	0	0	-0.102697	6.008598	-21.876891	6.008598	9134.5	-1.263741E-11	-7.913014E+10	0	0	0	0
0	0	0	-0.102738	6.008796	-21.877666	6.008796	9134	-7.815996E-12	-1.279427E+11	0	0	0	0
0	0	0	-0.104453	6.008518	-21.878998	6.008518	9126	-1.676069E-11	-5.966342E+10	0	0	0	0
0	0	0	-0.105514	6.008545	-21.880541	6.008545	9120.5	-1.510191E-11	-6.62168E+10	0	0	0	0
0	0	0	-0.10482	6.008611	-21.879834	6.008611	9124	-1.212435E-11	-8.247866E+10	0	0	0	0
0	0	0	-0.103799	6.00834	-21.87746	6.00834	9129	-6.372546E-11	-1.569231E+10	0	0	0	0
0	0	0	-0.104003	6.008551	-21.878505	6.008551	9128	-1.475135E-11	-6.779041E+10	0	0	0	0
0	0	0	-0.103595	6.008346	-21.877206	6.008346	9130	-5.774255E-11	-1.731825E+10	0	0	0	0
0	0	0	-0.103758	6.00869	-21.878674	6.00869	9129	-9.807048E-12	-1.019675E+11	0	0	0	0
0	0	0	-0.101349	6.008452	-21.874527	6.008452	9141.5	-2.309139E-11	-4.330618E+10	0	0	0	0
0	0	0	-0.101635	6.008578	-21.875372	6.008578	9140	-1.34762E-11	-7.42049E+10	0	0	0	0
0	0	0	-0.099675	6.008479	-21.872341	6.008479	9149.5	-2.009442E-11	-4.976506E+10	0	0	0	0
0	0	0	-0.099593	6.008538	-21.872445	6.008538	9150	-1.553296E-11	-6.437922E+10	0	0	0	0
0	0	0	-0.099756	6.008413	-21.872212	6.008413	9149	-2.982846E-11	-3.352503E+10	0	0	0	0
0	0	0	-0.097061	6.008274	-21.868035	6.008274	9162.5	1.712688E-9	5.838774E+8	0	0	0	0
0	0	0	-0.098695	6.008406	-21.870741	6.008406	9154	-3.136435E-11	-3.188333E+10	0	0	0	0
0	0	0	-0.09649	6.008406	-21.867735	6.008406	9165	-3.140204E-11	-3.184507E+10	0	0	0	0
0	0	0	-0.096122	6.008565	-21.867809	6.008565	9167	-1.413544E-11	-7.074417E+10	0	0	0	0
0	0	0	-0.094203	6.008518	-21.865025	6.008518	9176.5	-1.685344E-11	-5.933508E+10	0	0	0	0
0	0	0	-0.094693	6.008393	-21.865238	6.008393	9174	-3.499669E-11	-2.857413E+10	0	0	0	0
0	0	0	-0.092488	6.008472	-21.862519	6.008472	9185	-2.085296E-11	-4.795481E+10	0	0	0	0
0	0	0	-0.092243	0	-0.092243	0	9186.5	0	0	0	0	0	0
0	0	0	-0.092488	0	-0.092488	0	9185	0	0	0	0	0	0
