Vload_(V)	ILoad_(A)	RsLoad (ohm)	SunsVoc_Voltage_(V)	SunsVoc_Current_(A)	Model_Voltage_(V)	Model_Current_(A)	Carrier_Density_(cm-3)	Lifetime_(s)	Inverse_Lifetime_(s-1)	Efficiency_(%)	Intensity_(suns)	Dark_IV_Voltage_(V)	Dark_IV_Current_(A)
2.988837	6.420638	0	65.09744	-0.801025	65.316296	-0.801025	3.913557E+15	0.000227	4370.403682	19.66387	1.111073	0	0
3.015126	6.419174	3.004186	65.052397	-0.564943	65.208184	-0.564943	3.872069E+15	0.000233	4272.796053	19.669187	1.108076	0	0
7.218716	6.412936	5.66584	64.910653	-0.151613	64.953672	-0.151613	3.744027E+15	0.000239	4158.405571	19.682278	1.103759	0	0
12.11439	6.393247	5.944446	64.7411	0.282311	64.658299	0.282311	3.595758E+15	0.000246	4045.167106	19.644914	1.100537	0	0
16.788628	6.387828	5.309167	64.564931	0.694375	64.354382	0.694375	3.447175E+15	0.000253	3937.429037	19.580402	1.099058	0	0
21.587653	6.380795	4.657137	64.392927	1.075356	64.056436	1.075356	3.307304E+15	0.00026	3831.939102	19.615283	1.097712	0	0
26.815951	6.307263	4.356517	64.217207	1.436992	63.75333	1.436992	3.169537E+15	0.000267	3728.967446	19.678377	1.096061	0	0
31.659931	6.299628	3.621384	64.042508	1.76627	63.454953	1.76627	3.037534E+15	0.000274	3634.867897	19.672595	1.093922	0	0
36.555164	6.28911	2.884994	63.872383	2.068949	63.16431	2.068949	2.913583E+15	0.000281	3543.905353	19.61987	1.090622	0	0
41.073995	6.339806	1.938745	63.699644	2.351018	62.872157	2.351018	2.792216E+15	0.000288	3459.06056	19.629725	1.086053	0	0
45.885179	6.315444	1.299149	63.532418	2.614827	62.587443	2.614827	2.678889E+15	0.000295	3372.378156	19.660713	1.081327	0	0
47.301392	6.305186	1.117045	63.363886	2.861706	62.30252	2.861706	2.568689E+15	0.000303	3289.574533	19.616752	1.077934	0	0
48.702334	6.279191	0.986139	63.1947	3.091532	62.018627	3.091532	2.461983E+15	0.00031	3211.138059	19.590807	1.074805	0	0
50.105876	6.236197	0.882441	63.030986	3.296592	61.746499	3.296592	2.362351E+15	0.000317	3141.009475	19.622042	1.071464	0	0
51.515822	6.170563	0.794777	62.86915	3.481801	61.480753	3.481801	2.267252E+15	0.000324	3079.278936	19.664381	1.067239	0	0
52.943094	6.072319	0.717353	62.71634	3.657688	61.226316	3.657688	2.180458E+15	0.000331	3010.67162	19.630528	1.062645	0	0
54.341043	5.925207	0.656615	62.553402	3.826941	60.959301	3.826941	2.091026E+15	0.000338	2947.589415	19.59193	1.057073	0	0
55.710832	5.710186	0.606828	62.395569	3.986159	60.6997	3.986159	2.007368E+15	0.000346	2882.354782	19.619027	1.051158	0	0
57.073347	5.400438	0.563217	62.231446	4.135863	60.433646	4.135863	1.923386E+15	0.000353	2823.636083	19.622931	1.046035	0	0
58.41348	4.971963	0.526895	62.073327	4.274468	60.177199	4.274468	1.845288E+15	0.000361	2764.955611	19.594006	1.041441	0	0
59.713016	4.397936	0.495861	61.914636	4.403513	59.921895	4.403513	1.769601E+15	0.000368	2710.193959	19.596369	1.036767	0	0
60.976895	3.656467	0.468909	61.756558	4.523092	59.669421	4.523092	1.696808E+15	0.000375	2659.224788	19.637966	1.03167	0	0
62.160709	2.773507	0.446952	61.600439	4.632927	59.421872	4.632927	1.627391E+15	0.000382	2612.464885	19.638819	1.026706	0	0
63.230896	1.808181	0.444805	61.448486	4.73403	59.18185	4.73403	1.562118E+15	0.000389	2567.977	19.603316	1.021148	0	0
64.12055	0.878097	0.455463	61.298698	4.828274	58.946192	4.828274	1.499925E+15	0.000395	2525.261408	19.611123	1.014955	0	0
53.668844	6.002516	0.685316	61.148623	4.916736	58.711445	4.916736	1.439693E+15	0.000402	2484.986279	19.642834	1.008922	0	0
64.867682	0	0	60.996303	4.999769	58.47506	4.999769	1.38063E+15	0.000408	2448.448031	19.606725	1.003918	0	0
0	0	0	60.847821	5.077986	58.244657	5.077986	1.325007E+15	0.000414	2410.992444	19.588279	0.998663	0	0
0	0	0	60.702075	5.151698	58.018823	5.151698	1.27223E+15	0.000421	2373.337241	19.618467	0.992933	0	0
0	0	0	60.554696	5.221085	57.791952	5.221085	1.220646E+15	0.000427	2338.545847	19.653084	0.987255	0	0
0	0	0	60.403478	5.286376	57.561149	5.286376	1.169532E+15	0.000433	2308.072552	19.619007	0.981842	0	0
0	0	0	60.257814	5.348057	57.338432	5.348057	1.121986E+15	0.000439	2275.198653	19.591153	0.975967	0	0
0	0	0	60.115498	5.405722	57.121296	5.405722	1.07709E+15	0.000445	2242.748301	19.64051	0.970026	0	0
0	0	0	59.970079	5.460228	56.900953	5.460228	1.032763E+15	0.000451	2213.523167	19.641796	0.964559	0	0
0	0	0	59.830337	5.511096	56.689229	5.511096	9.916013E+14	0.000458	2183.414814	19.600807	0.959424	0	0
0	0	0	59.688552	5.560089	56.475107	5.560089	9.512372E+14	0.000464	2153.570462	19.596703	0.95405	0	0
0	0	0	59.550483	5.605458	56.267215	5.605458	9.132502E+14	0.00047	2124.985844	19.644227	0.94828	0	0
0	0	0	59.410332	5.647979	56.057563	5.647979	8.759866E+14	0.000476	2099.919266	19.649013	0.942867	0	0
0	0	0	59.26867	5.687508	55.847043	5.687508	8.396135E+14	0.000481	2078.89451	19.598856	0.937322	0	0
0	0	0	59.135216	5.724528	55.648277	5.724528	8.065055E+14	0.000486	2055.026874	19.609645	0.931314	0	0
0	0	0	59.000415	5.759464	55.448455	5.759464	7.741739E+14	0.000492	2033.481639	19.649329	0.925756	0	0
0	0	0	58.868227	5.792308	55.252875	5.792308	7.435256E+14	0.000497	2012.19198	19.630656	0.920541	0	0
0	0	0	58.732853	5.822907	55.053993	5.822907	7.131953E+14	0.000501	1995.671489	19.593423	0.915484	0	0
0	0	0	58.605892	5.852045	54.866764	5.852045	6.856968E+14	0.000506	1974.572591	19.6315	0.909424	0	0
0	0	0	58.474439	5.879563	54.674186	5.879563	6.581667E+14	0.000511	1957.662498	19.644039	0.904235	0	0
0	0	0	58.346907	5.905001	54.487784	5.905001	6.323501E+14	0.000515	1941.839078	19.617296	0.898861	0	0
0	0	0	58.219537	5.929435	54.301897	5.929435	6.074218E+14	0.000519	1925.784306	19.596125	0.893197	0	0
0	0	0	58.095435	5.952139	54.121179	5.952139	5.839344E+14	0.000523	1910.696587	19.64151	0.887401	0	0
0	0	0	57.97121	5.973832	53.94066	5.973832	5.611965E+14	0.000527	1896.092121	19.640451	0.882226	0	0
0	0	0	57.842371	5.994404	53.75443	5.994404	5.3841E+14	0.00053	1885.382295	19.600687	0.877261	0	0
0	0	0	57.720882	6.014181	53.57829	6.014181	5.176473E+14	0.000535	1870.049504	19.617967	0.871822	0	0
0	0	0	57.595881	6.032857	53.39794	6.032857	4.969991E+14	0.000538	1858.279665	19.663072	0.866382	0	0
0	0	0	57.471615	6.050456	53.219069	6.050456	4.771724E+14	0.000541	1847.679789	19.645496	0.86118	0	0
0	0	0	57.350331	6.06716	53.044588	6.06716	4.584773E+14	0.000544	1836.277522	19.594113	0.856084	0	0
0	0	0	57.226677	6.082846	52.867426	6.082846	4.400668E+14	0.000547	1828.224996	19.636241	0.850459	0	0
0	0	0	57.105679	6.098045	52.693965	6.098045	4.226703E+14	0.00055	1817.847745	19.64262	0.845402	0	0
0	0	0	56.981494	6.1125	52.516559	6.1125	4.054354E+14	0.000552	1810.232573	19.602257	0.840583	0	0
0	0	0	56.860251	6.126287	52.343397	6.126287	3.891981E+14	0.000555	1801.398866	19.594999	0.835645	0	0
0	0	0	56.736026	6.139547	52.166427	6.139547	3.731492E+14	0.000557	1794.25598	19.645265	0.83043	0	0
0	0	0	56.616865	6.151804	51.996844	6.151804	3.582984E+14	0.000559	1787.158898	19.643521	0.825915	0	0
0	0	0	56.500399	6.163627	51.831056	6.163627	3.442843E+14	0.000562	1778.12229	19.58458	0.821465	0	0
0	0	0	56.378134	6.175013	51.657631	6.175013	3.300906E+14	0.000564	1772.435089	19.603822	0.81629	0	0
0	0	0	56.264649	6.185301	51.496736	6.185301	3.173783E+14	0.000566	1766.235871	19.648592	0.811484	0	0
0	0	0	56.142793	6.195886	51.324184	6.195886	3.042097E+14	0.000568	1759.822507	19.608816	0.807365	0	0
0	0	0	56.025796	6.205528	51.158785	6.205528	2.920226E+14	0.00057	1754.626784	19.578704	0.80273	0	0
0	0	0	55.911412	6.214663	50.997188	6.214663	2.805276E+14	0.000572	1748.967137	19.609151	0.797753	0	0
0	0	0	55.790455	6.223591	50.82676	6.223591	2.688108E+14	0.000573	1746.104439	19.616997	0.793356	0	0
0	0	0	55.682238	6.231624	50.674144	6.231624	2.586997E+14	0.000575	1740.393873	19.58576	0.788814	0	0
0	0	0	55.563362	6.239498	50.507152	6.239498	2.479856E+14	0.000575	1739.956424	19.566539	0.784405	0	0
0	0	0	55.450694	6.246995	50.348756	6.246995	2.381997E+14	0.000576	1736.475407	19.624294	0.77944	0	0
0	0	0	55.338026	6.254245	50.190468	6.254245	2.287622E+14	0.000577	1732.628081	19.598369	0.775268	0	0
0	0	0	55.220825	6.261243	50.026164	6.261243	2.19304E+14	0.000578	1731.346923	19.547988	0.771083	0	0
0	0	0	55.110403	6.267898	49.871228	6.267898	2.107176E+14	0.000579	1726.672713	19.587217	0.76625	0	0
0	0	0	54.995693	6.27409	49.710795	6.27409	2.021217E+14	0.000579	1727.133719	19.606669	0.761907	0	0
0	0	0	54.882902	6.280149	49.552995	6.280149	1.939815E+14	0.00058	1725.216927	19.556913	0.757933	0	0
0	0	0	54.769948	6.285665	49.39536	6.285665	1.861302E+14	0.000579	1727.403785	19.53523	0.753351	0	0
0	0	0	54.656912	6.291347	49.2374	6.291347	1.785649E+14	0.00058	1724.782901	19.5942	0.748717	0	0
0	0	0	54.542978	6.296746	49.078397	6.296746	1.712257E+14	0.00058	1723.609652	19.582194	0.744743	0	0
0	0	0	54.430759	6.30174	48.922003	6.30174	1.642689E+14	0.00058	1724.193073	19.525057	0.740742	0	0
0	0	0	54.31511	6.306857	48.760789	6.306857	1.573727E+14	0.000581	1722.291643	19.53475	0.73653	0	0
0	0	0	54.209752	6.311004	48.614318	6.311004	1.51324E+14	0.000579	1725.863077	19.571714	0.732174	0	0
0	0	0	54.09251	6.31563	48.451258	6.31563	1.448466E+14	0.000579	1726.954914	19.544868	0.728437	0	0
0	0	0	53.982619	6.319472	48.298811	6.319472	1.390099E+14	0.000577	1733.642607	19.507104	0.724344	0	0
0	0	0	53.872768	6.323615	48.146098	6.323615	1.333947E+14	0.000577	1732.632982	19.555029	0.719697	0	0
0	0	0	53.761448	6.327463	47.99161	6.327463	1.279208E+14	0.000576	1735.118973	19.544777	0.716039	0	0
0	0	0	53.64976	6.33114	47.836731	6.33114	1.226404E+14	0.000575	1738.407321	19.498377	0.712158	0	0
0	0	0	53.541175	6.334817	47.686018	6.334817	1.177032E+14	0.000576	1736.917582	19.508043	0.708025	0	0
0	0	0	53.424913	6.338115	47.525193	6.338115	1.126242E+14	0.000573	1745.492343	19.545781	0.703787	0	0
0	0	0	53.322332	6.341417	47.382888	6.341417	1.083147E+14	0.000574	1742.312688	19.502435	0.700196	0	0
0	0	0	53.208643	6.344175	47.225981	6.344175	1.037206E+14	0.000569	1756.144614	19.477285	0.696354	0	0
0	0	0	53.098507	6.347281	47.073531	6.347281	9.944606E+13	0.000569	1757.215216	19.517624	0.692248	0	0
0	0	0	52.988084	6.350107	46.920923	6.350107	9.532828E+13	0.000567	1762.522178	19.526759	0.688485	0	0
0	0	0	52.874681	6.352786	46.764372	6.352786	9.126801E+13	0.000565	1770.989145	19.454579	0.685092	0	0
0	0	0	52.763361	6.355551	46.610533	6.355551	8.744258E+13	0.000564	1773.167202	19.451664	0.680985	0	0
0	0	0	52.653143	6.358156	46.458312	6.358156	8.38058E+13	0.000563	1776.045123	19.507438	0.676932	0	0
0	0	0	52.538147	6.360494	46.299831	6.360494	8.01654E+13	0.00056	1787.237155	19.462866	0.673631	0	0
0	0	0	52.427398	6.362538	46.147378	6.362538	7.680265E+13	0.000555	1802.091258	19.438953	0.669829	0	0
0	0	0	52.3113	6.364921	45.987296	6.364921	7.342264E+13	0.000553	1807.72827	19.465718	0.665868	0	0
0	0	0	52.193159	6.367138	45.824574	6.367138	7.012984E+13	0.00055	1817.293177	19.479947	0.662132	0	0
0	0	0	52.082329	6.369182	45.671931	6.369182	6.717008E+13	0.000548	1824.904048	19.414219	0.658831	0	0
0	0	0	51.963658	6.371224	45.508608	6.371224	6.413425E+13	0.000545	1835.446173	19.430353	0.654817	0	0
0	0	0	51.852501	6.37302	45.35572	6.37302	6.141086E+13	0.000541	1847.147356	19.472858	0.65083	0	0
0	0	0	51.730767	6.374743	45.18851	6.374743	5.85564E+13	0.000536	1867.112022	19.422079	0.647727	0	0
0	0	0	51.603112	6.376664	45.013022	6.376664	5.570095E+13	0.000532	1880.647476	19.396011	0.643859	0	0
0	0	0	51.482562	6.378591	44.847161	6.378591	5.312846E+13	0.00053	1885.318244	19.432204	0.639937	0	0
0	0	0	51.361767	6.380058	44.681421	6.380058	5.06664E+13	0.000524	1907.950639	19.436861	0.636346	0	0
0	0	0	51.243178	6.38168	44.518497	6.38168	4.835719E+13	0.000521	1919.16229	19.373827	0.633111	0	0
0	0	0	51.117728	6.383242	44.346286	6.383242	4.602575E+13	0.000517	1935.539139	19.381754	0.629322	0	0
0	0	0	50.992564	6.384661	44.174595	6.384661	4.380877E+13	0.000511	1956.351112	19.428606	0.625625	0	0
0	0	0	50.870095	6.38622	44.006399	6.38622	4.174038E+13	0.000509	1964.315056	19.390674	0.622536	0	0
0	0	0	50.749423	6.387462	43.840967	6.387462	3.979563E+13	0.000504	1985.975229	19.353607	0.619103	0	0
0	0	0	50.62822	6.388842	43.674645	6.388842	3.793146E+13	0.000501	1996.866402	19.391359	0.615419	0	0
0	0	0	50.500034	6.389824	43.499244	6.389824	3.605278E+13	0.000491	2036.029033	19.372291	0.612237	0	0
0	0	0	50.382383	6.39116	43.337769	6.39116	3.440883E+13	0.00049	2040.855388	19.313459	0.609108	0	0
0	0	0	50.255341	6.392047	43.163998	6.392047	3.271606E+13	0.00048	2081.842989	19.34418	0.605491	0	0
0	0	0	50.131075	6.393315	42.993566	6.393315	3.113937E+13	0.000478	2090.229041	19.366406	0.601992	0	0
0	0	0	50.006483	6.394182	42.823122	6.394182	2.963346E+13	0.00047	2126.764035	19.323261	0.598995	0	0
0	0	0	49.874254	6.395345	42.641945	6.395345	2.811347E+13	0.000467	2143.244504	19.288276	0.595813	0	0
0	0	0	49.748518	6.396208	42.469924	6.396208	2.673932E+13	0.000459	2176.482135	19.339956	0.591931	0	0
0	0	0	49.616616	6.396878	42.289723	6.396878	2.53688E+13	0.000448	2231.164263	19.313681	0.589132	0	0
0	0	0	49.487286	6.397728	42.112804	6.397728	2.409223E+13	0.000441	2265.287115	19.257806	0.585937	0	0
0	0	0	49.351015	6.398741	41.92624	6.398741	2.281561E+13	0.000437	2286.352523	19.291356	0.582465	0	0
0	0	0	49.217724	6.399304	41.744241	6.399304	2.163151E+13	0.000426	2349.433543	19.295443	0.579322	0	0
0	0	0	49.075939	6.399916	41.55062	6.399916	2.043849E+13	0.000414	2415.260164	19.248428	0.576484	0	0
0	0	0	48.934277	6.400723	41.356924	6.400723	1.931143E+13	0.000407	2456.642222	19.248149	0.573064	0	0
0	0	0	48.788327	6.401599	41.157299	6.401599	1.82145E+13	0.000402	2490.034303	19.275068	0.569684	0	0
0	0	0	48.642867	6.402096	40.958783	6.402096	1.718258E+13	0.000389	2570.764792	19.227574	0.567096	0	0
0	0	0	48.489771	6.402796	40.74962	6.402796	1.615894E+13	0.00038	2630.303829	19.186408	0.563875	0	0
0	0	0	48.334061	6.403542	40.536833	6.403542	1.517977E+13	0.000373	2682.911272	19.241697	0.560429	0	0
0	0	0	48.173491	6.40414	40.317602	6.40414	1.423159E+13	0.000362	2761.590861	19.238738	0.557617	0	0
0	0	0	48.009206	6.404728	40.093316	6.404728	1.332223E+13	0.000351	2844.952663	19.166338	0.554936	0	0
0	0	0	47.835079	6.40542	39.855496	6.40542	1.242125E+13	0.000343	2918.684201	19.18586	0.55149	0	0
0	0	0	47.656786	6.405711	39.612498	6.405711	1.156136E+13	0.000325	3075.805383	19.207963	0.548309	0	0
0	0	0	47.466569	6.406459	39.352686	6.406459	1.070905E+13	0.000317	3154.100269	19.139595	0.545892	0	0
0	0	0	47.268879	6.406918	39.083057	6.406918	9.889369E+12	0.000303	3304.943437	19.132478	0.542592	0	0
0	0	0	47.061552	6.407643	38.799959	6.407643	9.096656E+12	0.000294	3403.122102	19.169032	0.539317	0	0
0	0	0	46.841198	6.408152	38.499395	6.408152	8.323307E+12	0.00028	3573.652973	19.147917	0.536637	0	0
0	0	0	46.609654	6.408581	38.183695	6.408581	7.581086E+12	0.000264	3788.803214	19.091016	0.534023	0	0
0	0	0	46.366227	6.408918	37.851931	6.408918	6.871721E+12	0.000246	4063.046293	19.158149	0.530524	0	0
0	0	0	46.119044	6.409368	37.514894	6.409368	6.219028E+12	0.000232	4317.299223	19.138231	0.527804	0	0
0	0	0	45.861079	6.409866	37.163102	6.409866	5.60365E+12	0.000218	4579.342202	19.059597	0.525203	0	0
0	0	0	45.59364	6.410582	36.798103	6.410582	5.029674E+12	0.00021	4762.801959	19.067879	0.521969	0	0
0	0	0	45.314359	6.410697	36.417796	6.410697	4.492761E+12	0.00019	5271.049682	19.096144	0.519064	0	0
0	0	0	45.020376	6.411252	36.016857	6.411252	3.989229E+12	0.000178	5605.070771	19.05553	0.516608	0	0
0	0	0	44.714142	6.411551	35.599587	6.411551	3.524494E+12	0.000163	6142.185309	19.026497	0.513637	0	0
0	0	0	44.391901	6.412317	35.159844	6.412317	3.093689E+12	0.000156	6407.822936	19.07093	0.510535	0	0
0	0	0	44.052385	6.412368	34.6976	6.412368	2.696532E+12	0.000137	7306.040376	19.012941	0.508171	0	0
0	0	0	43.699394	6.412726	34.216558	6.412726	2.337498E+12	0.000124	8064.207957	18.974768	0.505306	0	0
0	0	0	43.325086	6.413211	33.706291	6.413211	2.008792E+12	0.000114	8808.638309	19.025427	0.502362	0	0
0	0	0	42.934116	6.413412	33.173753	6.413412	1.71465E+12	9.960882E-5	10039.272028	19.026738	0.499629	0	0
0	0	0	42.520687	6.413975	32.610074	6.413975	1.450284E+12	9.135875E-5	10945.859393	18.939033	0.497292	0	0
0	0	0	42.071811	6.414319	31.998454	6.414319	1.209158E+12	8.03189E-5	12450.370031	18.952312	0.494203	0	0
0	0	0	41.605375	6.414561	31.363075	6.414561	1.000949E+12	6.914133E-5	14463.129153	18.987959	0.491549	0	0
0	0	0	41.115622	6.41507	30.695505	6.41507	8.207806E+11	6.18769E-5	16161.120307	18.921546	0.489265	0	0
0	0	0	40.595977	6.415174	29.987879	6.415174	6.649244E+11	5.108084E-5	19576.81388	18.918002	0.48632	0	0
0	0	0	40.049665	6.415578	29.243438	6.415578	5.328629E+11	4.420493E-5	22621.913259	18.964848	0.483521	0	0
0	0	0	39.483915	6.415632	28.473108	6.415632	4.23672E+11	3.552664E-5	28147.895006	18.898784	0.481211	0	0
0	0	0	38.892805	6.415945	27.667797	6.415945	3.33406E+11	2.981874E-5	33535.955258	18.853619	0.478689	0	0
0	0	0	38.27458	6.416353	26.825377	6.416353	2.595005E+11	2.542055E-5	39338.252374	18.917426	0.475626	0	0
0	0	0	37.62634	6.416589	25.942377	6.416589	1.995327E+11	2.068605E-5	48341.764935	18.878045	0.473329	0	0
0	0	0	36.954619	6.416625	25.027762	6.416625	1.51968E+11	1.589438E-5	62915.308669	18.809456	0.470992	0	0
0	0	0	36.259049	6.416884	24.08025	6.416884	1.146273E+11	1.281605E-5	78027.180681	18.835969	0.468008	0	0
0	0	0	35.534772	6.417091	23.093732	6.417091	8.546077E+10	1.011347E-5	98878.05006	18.856805	0.465486	0	0
0	0	0	34.793138	6.417169	22.083822	6.417169	6.326852E+10	7.655956E-6	130617.257176	18.787817	0.463321	0	0
0	0	0	34.033864	6.41738	21.049617	6.41738	4.650513E+10	5.991562E-6	166901.398146	18.779147	0.46068	0	0
0	0	0	33.253027	6.417802	19.985602	6.417802	3.388569E+10	5.014322E-6	199428.740284	18.836329	0.457828	0	0
0	0	0	32.443278	6.417897	18.882872	6.417897	2.440282E+10	3.73679E-6	267609.368901	18.738909	0.45598	0	0
0	0	0	31.631978	6.417956	17.778098	6.417956	1.756264E+10	2.748632E-6	363817.329176	18.732445	0.453247	0	0
0	0	0	30.814103	6.418022	16.664353	6.418022	1.260612E+10	2.022284E-6	494490.478708	18.778791	0.450488	0	0
0	0	0	29.992266	6.4182	15.544955	6.4182	9.033899E+9	1.554994E-6	643089.237209	18.741009	0.448415	0	0
0	0	0	29.166224	6.418271	14.420058	6.418271	6.46291E+9	1.146123E-6	872506.323037	18.683755	0.446078	0	0
0	0	0	28.331361	6.418548	13.282665	6.418548	4.6071E+9	9.24958E-7	1081130.176823	18.721328	0.443226	0	0
0	0	0	27.493925	6.418569	12.142351	6.418569	3.280757E+9	6.655842E-7	1502439.402584	18.702016	0.441232	0	0
0	0	0	26.654324	6.418767	10.998657	6.418767	2.334206E+9	5.237113E-7	1909449.037046	18.624861	0.439093	0	0
0	0	0	25.811171	6.418831	9.850441	6.418831	1.65836E+9	3.852217E-7	2595907.594056	18.691771	0.436083	0	0
0	0	0	24.971163	6.41893	8.706412	6.41893	1.179701E+9	2.899321E-7	3449083.685334	18.684698	0.433931	0	0
0	0	0	24.1285	6.419114	7.55854	6.419114	8.382966E+8	2.308713E-7	4331417.850416	18.597506	0.431937	0	0
0	0	0	23.281549	6.41922	6.405017	6.41922	5.946596E+8	1.760209E-7	5681143.864623	18.609592	0.42931	0	0
0	0	0	22.44493	6.419157	5.266005	6.419157	4.236023E+8	1.20013E-7	8332433.650047	18.632431	0.427013	0	0
0	0	0	21.635712	6.419227	4.163945	6.419227	3.051216E+8	9.077645E-8	1.101607E+7	18.555659	0.425045	0	0
0	0	0	20.844544	6.419114	3.086964	6.419114	2.21394E+8	6.098301E-8	1.639801E+7	18.561154	0.422471	0	0
0	0	0	20.077429	6.419376	2.041692	6.419376	1.62216E+8	5.393334E-8	1.854141E+7	18.596551	0.420015	0	0
0	0	0	19.330486	6.419447	1.024411	6.419447	1.198323E+8	4.22035E-8	2.369472E+7	18.532605	0.418206	0	0
0	0	0	18.610578	6.419687	0.043445	6.419687	8.949809E+7	3.947521E-8	2.533236E+7	18.48705	0.415896	0	0
0	0	0	17.91799	6.419955	-0.900422	6.419955	6.758717E+7	4.152317E-8	2.408294E+7	18.530896	0.4134	0	0
0	0	0	17.248637	6.41939	-1.810195	6.41939	5.152358E+7	1.732489E-8	5.772041E+7	18.487681	0.411486	0	0
0	0	0	16.60248	6.41975	-2.691124	6.41975	3.964898E+7	1.874035E-8	5.33608E+7	18.444345	0.409321	0	0
0	0	0	15.982866	6.41987	-3.535204	6.41987	3.084123E+7	1.685672E-8	5.932353E+7	18.500082	0.406772	0	0
0	0	0	15.387306	6.419644	-4.345475	6.419644	2.422516E+7	1.022971E-8	9.775446E+7	18.431269	0.40499	0	0
0	0	0	14.809468	6.419991	-5.133376	6.419991	1.916559E+7	1.241682E-8	8.053594E+7	18.380647	0.402957	0	0
0	0	0	14.252048	6.419892	-5.8921	6.419892	1.528878E+7	8.593479E-9	1.163673E+8	18.425463	0.400567	0	0
0	0	0	13.707656	6.42004	-6.633862	6.42004	1.226076E+7	8.59973E-9	1.162827E+8	18.41592	0.398613	0	0
0	0	0	13.184498	6.420047	-7.346266	6.420047	9917470.75	7.039235E-9	1.420609E+8	18.340741	0.396685	0	0
0	0	0	12.69107	6.420033	-8.01812	6.420033	8119308.875	5.628479E-9	1.776679E+8	18.366786	0.394203	0	0
0	0	0	12.211362	6.420132	-8.671656	6.420132	6684257.75	5.538181E-9	1.805647E+8	18.36604	0.392289	0	0
0	0	0	11.753952	6.420273	-9.294976	6.420273	5552815.875	6.379826E-9	1.567441E+8	18.285187	0.39048	0	0
0	0	0	11.313897	6.420273	-9.894202	6.420273	4645466	5.337343E-9	1.873591E+8	18.327069	0.387998	0	0
0	0	0	10.895077	6.420308	-10.464631	6.420308	3919984.375	4.985812E-9	2.005691E+8	18.34034	0.385964	0	0
0	0	0	10.490182	6.420259	-11.015814	6.420259	3326528.875	3.67968E-9	2.717628E+8	18.25448	0.384248	0	0
0	0	0	10.099988	6.420217	-11.547001	6.420217	2839793.875	2.825673E-9	3.53898E+8	18.266788	0.381924	0	0
0	0	0	9.719922	6.420485	-12.06545	6.420485	2434252.25	6.659782E-9	1.501551E+8	18.30207	0.379653	0	0
0	0	0	9.35517	6.420323	-12.561586	6.420323	2099620.125	2.789934E-9	3.584315E+8	18.209366	0.378201	0	0
0	0	0	9.00569	6.420386	-13.037694	6.420386	1822238	3.031437E-9	3.298766E+8	18.219478	0.375983	0	0
0	0	0	8.667318	6.420471	-13.498753	6.420471	1588639.125	3.979838E-9	2.512665E+8	18.257503	0.373778	0	0
0	0	0	8.341075	6.42069	-13.943765	6.42069	1391813.25	-1.136074E-8	-8.802243E+7	18.161706	0.372352	0	0
0	0	0	8.026837	6.42057	-14.371253	6.42057	1225323.25	7.490981E-9	1.334939E+8	18.146076	0.370042	0	0
0	0	0	7.720399	6.420584	-14.788587	6.420584	1082165.75	8.329726E-9	1.20052E+8	18.197181	0.368022	0	0
0	0	0	7.424947	6.420591	-15.190937	6.420591	959999.625	8.48899E-9	1.177996E+8	18.122453	0.366556	0	0
0	0	0	7.137743	6.420308	-15.58103	6.420308	854477.875	1.086809E-9	9.201249E+8	18.084298	0.36443	0	0
0	0	0	6.862708	6.420513	-15.956276	6.420513	764316.625	2.563095E-9	3.901534E+8	18.147775	0.362278	0	0
0	0	0	6.596454	6.420591	-16.319118	6.420591	686106.875	6.067044E-9	1.648249E+8	18.036632	0.360839	0	0
0	0	0	6.338979	6.420633	-16.66988	6.420633	618096.375	5.101209E-8	1.96032E+7	18.039408	0.358806	0	0
0	0	0	6.089794	6.420605	-17.0091	6.420605	558702	7.033845E-9	1.421697E+8	18.084552	0.356746	0	0
0	0	0	5.848654	6.420768	-17.338054	6.420768	506664.875	-1.647025E-9	-6.071554E+8	18.02039	0.355281	0	0
0	0	0	5.612741	6.420796	-17.659407	6.420796	460449.25	-1.228067E-9	-8.142878E+8	17.989518	0.3533	0	0
0	0	0	5.38226	6.420838	-17.973417	6.420838	419371.625	-8.812013E-10	-1.134815E+9	18.016245	0.351201	0	0
0	0	0	5.15529	6.420683	-18.281924	6.420683	382502.875	-3.619352E-9	-2.762926E+8	17.955123	0.349735	0	0
0	0	0	4.932853	6.420775	-18.585159	6.420775	349517.125	-1.077251E-9	-9.282887E+8	17.89554	0.347874	0	0
0	0	0	4.706292	6.420655	-18.893235	6.420655	318842.25	-8.309927E-9	-1.20338E+8	17.96281	0.345722	0	0
0	0	0	4.50072	6.420513	-19.172647	6.420513	293345.5	9.837189E-10	1.016551E+9	17.897239	0.344269	0	0
0	0	0	4.298457	6.420598	-19.448387	6.420598	270249.625	2.807529E-9	3.561852E+8	17.853594	0.342355	0	0
0	0	0	4.098357	6.420605	-19.720894	6.420605	249190.875	3.137222E-9	3.187534E+8	17.90513	0.340322	0	0
0	0	0	3.901811	6.420725	-19.988983	6.420725	230104.25	-1.113478E-9	-8.980867E+8	17.839244	0.338975	0	0
0	0	0	3.711145	6.420711	-20.248567	6.420711	212986.75	-1.231161E-9	-8.122412E+8	17.801723	0.337087	0	0
0	0	0	3.526523	6.420704	-20.499946	6.420704	197626.25	-1.265471E-9	-7.902197E+8	17.846877	0.335133	0	0
0	0	0	3.343207	6.42064	-20.749335	6.42064	183470.75	-3.893746E-8	-2.568221E+7	17.797763	0.333628	0	0
0	0	0	3.16226	6.420704	-20.995974	6.420704	170492.875	-1.091726E-9	-9.159806E+8	17.737003	0.332083	0	0
0	0	0	2.983518	6.420895	-21.240092	6.420895	158574.625	-2.597298E-10	-3.850155E+9	17.806501	0.329786	0	0
0	0	0	2.804082	6.420718	-21.48377	6.420718	147448	-7.767571E-10	-1.287404E+9	17.685601	0.328862	0	0
0	0	0	2.630445	6.420732	-21.720271	6.420732	137424.875	-6.149258E-10	-1.626213E+9	17.7003	0.326775	0	0
0	0	0	2.459585	6.42081	-21.953233	6.42081	128227.375	-3.13825E-10	-3.18649E+9	17.727137	0.324914	0	0
0	0	0	2.28848	6.420633	-22.18556	6.420633	119633.5	9.873585E-9	1.012803E+8	17.674555	0.323501	0	0
0	0	0	2.120315	6.420909	-22.415608	6.420909	111748.75	-1.734707E-10	-5.764662E+9	17.623714	0.32189	0	0
0	0	0	1.948515	6.420626	-22.648473	6.420626	104229.875	3.600964E-9	2.777034E+8	17.662959	0.320095	0	0
0	0	0	1.778227	6.420937	-22.881553	6.420937	97276.625	-1.36719E-10	-7.314272E+9	17.591646	0.318722	0	0
0	0	0	1.602017	6.420478	-23.119738	6.420478	90569.375	2.3688E-10	4.221547E+9	17.54423	0.316979	0	0
0	0	0	1.423683	6.420881	-23.364133	6.420881	84252.125	-1.460479E-10	-6.847067E+9	17.623944	0.315183	0	0
0	0	0	1.25168	6.420761	-23.597893	6.420761	78576.875	-2.702131E-10	-3.700783E+9	17.540424	0.313982	0	0
0	0	0	1.087557	6.420987	-23.822261	6.420987	73518.5	-8.865053E-11	-1.128025E+10	17.521098	0.312199	0	0
0	0	0	0.940546	6.420838	-24.021877	6.420838	69264.5	-1.455414E-10	-6.870895E+9	17.567822	0.310417	0	0
0	0	0	0.802395	6.420753	-24.209672	6.420753	65491.625	-2.390489E-10	-4.183244E+9	17.444536	0.309295	0	0
0	0	0	0.681192	6.420994	-24.375655	6.420994	62351.25	-7.368944E-11	-1.357046E+10	17.442722	0.307525	0	0
0	0	0	0.564032	6.421043	-24.535391	6.421043	59458.75	-6.168338E-11	-1.621182E+10	17.476973	0.305677	0	0
0	0	0	0.454018	6.42081	-24.68429	6.42081	56865	-1.39172E-10	-7.185355E+9	17.391566	0.304674	0	0
0	0	0	0.35499	6.420987	-24.819834	6.420987	54627	-6.587066E-11	-1.518127E+10	17.392333	0.302786	0	0
0	0	0	0.265925	6.421015	-24.941228	6.421015	52689.625	-5.876467E-11	-1.701703E+10	17.422016	0.301122	0	0
0	0	0	0.185191	6.421022	-25.051196	6.421022	50992.875	-5.582453E-11	-1.791327E+10	17.297175	0.300039	0	0
0	0	0	0.121078	6.421064	-25.138669	6.421064	49684.5	-4.897823E-11	-2.041724E+10	17.334173	0.298151	0	0
0	0	0	0.071951	6.42081	-25.204566	6.42081	48704.625	-1.192002E-10	-8.389249E+9	17.325881	0.296765	0	0
0	0	0	0.026419	6.421177	-25.268016	6.421177	47813.875	-3.724763E-11	-2.684735E+10	17.248203	0.295537	0	0
0	0	0	0.004285	6.421128	-25.297962	6.421128	47386.625	-4.064464E-11	-2.460349E+10	17.296227	0.29361	0	0
0	0	0	-0.029446	6.421029	-25.343506	6.421029	46743	-5.024628E-11	-1.990197E+10	17.292817	0.292342	0	0
0	0	0	-0.047945	6.420831	-25.367917	6.420831	46393.75	-1.01058E-10	-9.895312E+9	17.1648	0.291114	0	0
0	0	0	-0.056684	6.421001	-25.380485	6.421001	46229.75	-5.35709E-11	-1.866685E+10	17.228827	0.289134	0	0
0	0	0	-0.069425	6.420605	-25.396275	6.420605	45991.5	5.790165E-10	1.727066E+9	17.18222	0.287945	0	0
0	0	0	-0.085719	6.42098	-25.41994	6.42098	45688.625	-5.623364E-11	-1.778295E+10	17.107644	0.286652	0	0
0	0	0	-0.098541	6.4211	-25.437875	6.4211	45451.75	-4.137384E-11	-2.416986E+10	17.176391	0.284896	0	0
0	0	0	-0.108791	6.420937	-25.451192	6.420937	45263.25	-6.361597E-11	-1.571932E+10	17.10625	0.283839	0	0
0	0	0	-0.115366	6.420859	-25.459838	6.420859	45142.75	-8.57584E-11	-1.166067E+10	17.069289	0.282242	0	0
0	0	0	-0.120021	6.42098	-25.466652	6.42098	45057.625	-5.545701E-11	-1.803199E+10	17.102007	0.28071	0	0
0	0	0	-0.123778	6.421078	-25.472158	6.421078	44989	-4.292528E-11	-2.32963E+10	17.015549	0.279522	0	0
0	0	0	-0.124554	6.421064	-25.473159	6.421064	44974.875	-4.433555E-11	-2.255526E+10	16.988214	0.278004	0	0
0	0	0	-0.126065	6.420732	-25.473906	6.420732	44947.375	-2.01123E-10	-4.972083E+9	17.018338	0.276419	0	0
0	0	0	-0.127658	6.421015	-25.47719	6.421015	44918.375	-5.00974E-11	-1.996112E+10	16.950891	0.275442	0	0
0	0	0	-0.128556	6.420895	-25.477939	6.420895	44902	-7.354511E-11	-1.35971E+10	16.918205	0.27399	0	0
0	0	0	-0.128679	6.420859	-25.477967	6.420859	44899.75	-8.529676E-11	-1.172377E+10	16.99184	0.272194	0	0
0	0	0	-0.129251	6.421022	-25.479387	6.421022	44889.375	-4.914271E-11	-2.03489E+10	16.859883	0.271376	0	0
0	0	0	-0.129332	6.420987	-25.479358	6.420987	44887.875	-5.412697E-11	-1.847508E+10	16.878249	0.269606	0	0
0	0	0	-0.129618	6.420951	-25.479608	6.420951	44882.625	-6.023182E-11	-1.660252E+10	16.856404	0.268563	0	0
0	0	0	-0.131292	6.420874	-25.481581	6.420874	44852.25	-8.008594E-11	-1.248659E+10	16.774386	0.26719	0	0
0	0	0	-0.131129	6.421177	-25.482558	6.421177	44855.25	-3.494282E-11	-2.861818E+10	16.837838	0.265527	0	0
0	0	0	-0.131047	6.420803	-25.480969	6.420803	44856.75	-1.144986E-10	-8.733731E+9	16.791162	0.264444	0	0
0	0	0	-0.131742	6.420923	-25.482388	6.420923	44844.125	-6.615634E-11	-1.511571E+10	16.697491	0.263243	0	0
0	0	0	-0.132722	6.420796	-25.483221	6.420796	44826.25	-1.195563E-10	-8.364258E+9	16.767614	0.261566	0	0
0	0	0	-0.131578	6.420633	-25.481022	6.420633	44847	3.701317E-9	2.701741E+8	16.659647	0.260628	0	0
0	0	0	-0.133253	6.420867	-25.484223	6.420867	44816.625	-8.250134E-11	-1.212102E+10	16.650797	0.259031	0	0
0	0	0	-0.135049	6.420895	-25.486781	6.420895	44784	-7.335183E-11	-1.363292E+10	16.708999	0.257526	0	0
0	0	0	-0.134723	6.421057	-25.486978	6.421057	44789.875	-4.4898E-11	-2.227271E+10	16.577158	0.256826	0	0
0	0	0	-0.135784	6.420944	-25.487977	6.420944	44770.625	-6.146973E-11	-1.626817E+10	16.623764	0.255004	0	0
0	0	0	-0.134763	6.420987	-25.486754	6.420987	44789.125	-5.40079E-11	-1.851581E+10	16.619892	0.253961	0	0
0	0	0	-0.136724	6.421086	-25.489814	6.421086	44753.625	-4.202591E-11	-2.379484E+10	16.516712	0.252918	0	0
0	0	0	-0.13558	6.421022	-25.488006	6.421022	44774.375	-4.901681E-11	-2.040116E+10	16.550096	0.251281	0	0
0	0	0	-0.136274	6.420782	-25.488003	6.420782	44761.75	-1.311579E-10	-7.624397E+9	16.488247	0.250357	0	0
0	0	0	-0.13803	6.421121	-25.491733	6.421121	44729.875	-3.892777E-11	-2.56886E+10	16.429852	0.249036	0	0
0	0	0	-0.138765	6.42081	-25.491507	6.42081	44716.5	-1.094396E-10	-9.13746E+9	16.503286	0.247373	0	0
0	0	0	-0.140603	6.421015	-25.494818	6.421015	44683.25	-4.983517E-11	-2.006615E+10	16.412113	0.246686	0	0
0	0	0	-0.140562	6.420775	-25.493814	6.420775	44684	-1.377211E-10	-7.261053E+9	16.379072	0.245287	0	0
0	0	0	-0.139705	6.420874	-25.493037	6.420874	44699.5	-7.98132E-11	-1.252926E+10	16.422982	0.243834	0	0
0	0	0	-0.14191	6.420824	-25.495844	6.420824	44659.625	-1.009823E-10	-9.902729E+9	16.280689	0.24324	0	0
0	0	0	-0.142645	6.421107	-25.497961	6.421107	44646.25	-4.002744E-11	-2.498286E+10	16.306727	0.241405	0	0
0	0	0	-0.143094	6.420824	-25.497457	6.420824	44638.125	-1.009336E-10	-9.907499E+9	16.287792	0.240388	0	0
0	0	0	-0.144768	6.420965	-25.500295	6.420965	44607.875	-5.727612E-11	-1.745928E+10	16.201599	0.239372	0	0
0	0	0	-0.143788	6.421156	-25.499714	6.421156	44625.625	-3.618714E-11	-2.763413E+10	16.283115	0.237866	0	0
0	0	0	-0.14485	6.420987	-25.50049	6.420987	44606.375	-5.378753E-11	-1.859167E+10	16.191315	0.237114	0	0
0	0	0	-0.146565	6.420994	-25.502853	6.420994	44575.375	-5.268113E-11	-1.898213E+10	16.170393	0.235688	0	0
0	0	0	-0.145544	6.420874	-25.500989	6.420874	44593.75	-7.962438E-11	-1.255897E+10	16.21511	0.234434	0	0
0	0	0	-0.146198	6.420958	-25.502213	6.420958	44582	-5.850709E-11	-1.709195E+10	16.081263	0.233615	0	0
0	0	0	-0.145749	6.420902	-25.501379	6.420902	44590.125	-7.107521E-11	-1.40696E+10	16.110427	0.23215	0	0
0	0	0	-0.147055	6.421262	-25.504581	6.421262	44566.5	-2.999864E-11	-3.333484E+10	16.096989	0.23112	0	0
0	0	0	-0.147668	6.420937	-25.504132	6.420937	44555.5	-6.262125E-11	-1.596902E+10	15.984413	0.230248	0	0
0	0	0	-0.146974	6.421057	-25.503661	6.421057	44568	-4.467559E-11	-2.238359E+10	16.091276	0.228558	0	0
0	0	0	-0.148893	6.421093	-25.506414	6.421093	44533.25	-4.116839E-11	-2.429048E+10	15.966844	0.227964	0	0
0	0	0	-0.148975	6.421057	-25.506385	6.421057	44531.875	-4.463938E-11	-2.240174E+10	15.96143	0.226644	0	0
0	0	0	-0.148199	6.420987	-25.50505	6.420987	44545.875	-5.371458E-11	-1.861692E+10	15.998564	0.225363	0	0
0	0	0	-0.14873	6.421156	-25.506442	6.421156	44536.25	-3.611466E-11	-2.768958E+10	15.854815	0.224677	0	0
0	0	0	-0.147872	6.421086	-25.504996	6.421086	44551.75	-4.183634E-11	-2.390267E+10	15.930667	0.223079	0	0
0	0	0	-0.147464	6.421057	-25.504328	6.421057	44559.125	-4.46667E-11	-2.238804E+10	15.828394	0.222445	0	0
0	0	0	-0.145749	6.421001	-25.501769	6.421001	44590.125	-5.16709E-11	-1.935325E+10	15.798159	0.22127	0	0
0	0	0	-0.146402	6.420895	-25.50224	6.420895	44578.375	-7.301504E-11	-1.369581E+10	15.840171	0.220016	0	0
0	0	0	-0.145626	6.421064	-25.501853	6.421064	44592.375	-4.395849E-11	-2.274874E+10	15.743958	0.21929	0	0
0	0	0	-0.144646	6.421008	-25.500296	6.421008	44610.125	-5.070529E-11	-1.972181E+10	15.744512	0.217983	0	0
0	0	0	-0.145871	6.420789	-25.501099	6.420789	44587.875	-1.245089E-10	-8.031552E+9	15.752494	0.216874	0	0
0	0	0	-0.14485	6.421022	-25.500629	6.421022	44606.375	-4.883289E-11	-2.0478E+10	15.626874	0.216214	0	0
0	0	0	-0.143952	6.421008	-25.49935	6.421008	44622.625	-5.071949E-11	-1.971628E+10	15.712977	0.214484	0	0
0	0	0	-0.143421	6.421071	-25.498878	6.421071	44632.25	-4.327982E-11	-2.310546E+10	15.598694	0.213995	0	0
0	0	0	-0.145299	6.420951	-25.500962	6.420951	44598.25	-5.98502E-11	-1.670838E+10	15.568035	0.212834	0	0
0	0	0	-0.142196	6.420775	-25.496038	6.420775	44654.375	-1.376298E-10	-7.26587E+9	15.61731	0.211553	0	0
0	0	0	-0.142237	6.420902	-25.496596	6.420902	44653.625	-7.117643E-11	-1.40496E+10	15.497785	0.210919	0	0
0	0	0	-0.140889	6.420824	-25.494454	6.420824	44678	-1.010238E-10	-9.898657E+9	15.578471	0.209427	0	0
0	0	0	-0.142196	6.42098	-25.496847	6.42098	44654.375	-5.496068E-11	-1.819482E+10	15.496125	0.208833	0	0
0	0	0	-0.142237	6.42093	-25.496708	6.42093	44653.625	-6.427949E-11	-1.555706E+10	15.44326	0.207579	0	0
0	0	0	-0.14191	6.420987	-25.496486	6.420987	44659.625	-5.385174E-11	-1.85695E+10	15.456244	0.206549	0	0
0	0	0	-0.142155	6.421071	-25.497154	6.421071	44655.125	-4.3302E-11	-2.309362E+10	15.332244	0.205968	0	0
0	0	0	-0.143502	6.420803	-25.49793	6.420803	44630.75	-1.139217E-10	-8.777956E+9	15.402473	0.20437	0	0
0	0	0	-0.141992	6.421036	-25.496793	6.421036	44658.125	-4.715218E-11	-2.120793E+10	15.325633	0.203842	0	0
0	0	0	-0.141665	6.421008	-25.496236	6.421008	44664	-5.076652E-11	-1.969802E+10	15.309557	0.202746	0	0
0	0	0	-0.143053	6.420817	-25.497374	6.420817	44638.875	-1.04928E-10	-9.530341E+9	15.350893	0.201585	0	0
0	0	0	-0.144074	6.420549	-25.497704	6.420549	44620.375	2.084498E-10	4.797318E+9	15.264646	0.200924	0	0
0	0	0	-0.142931	6.421036	-25.498072	6.421036	44641.125	-4.713423E-11	-2.1216E+10	15.273364	0.199551	0	0
0	0	0	-0.145299	6.421008	-25.501185	6.421008	44598.25	-5.069179E-11	-1.972706E+10	15.234483	0.198957	0	0
0	0	0	-0.143584	6.421064	-25.499073	6.421064	44629.25	-4.399484E-11	-2.272994E+10	15.134988	0.197954	0	0
0	0	0	-0.144809	6.420965	-25.500351	6.420965	44607.125	-5.727515E-11	-1.745958E+10	15.196343	0.196686	0	0
0	0	0	-0.144564	6.421008	-25.500184	6.421008	44611.5	-5.070685E-11	-1.97212E+10	15.05976	0.196039	0	0
0	0	0	-0.146688	6.421001	-25.503048	6.421001	44573.125	-5.16512E-11	-1.936063E+10	15.093972	0.194732	0	0
0	0	0	-0.146892	6.421071	-25.503605	6.421071	44569.5	-4.321897E-11	-2.313799E+10	15.01242	0.194178	0	0
0	0	0	-0.147831	6.421015	-25.504661	6.421015	44552.5	-4.968934E-11	-2.012504E+10	14.987167	0.193108	0	0
0	0	0	-0.149424	6.42105	-25.506969	6.42105	44523.75	-4.539704E-11	-2.202787E+10	15.040409	0.192052	0	0
0	0	0	-0.149015	6.421078	-25.506525	6.421078	44531.125	-4.248841E-11	-2.353583E+10	14.885949	0.191696	0	0
0	0	0	-0.150159	6.42105	-25.50797	6.42105	44510.5	-4.538353E-11	-2.203442E+10	14.979257	0.190111	0	0
0	0	0	-0.151098	6.421149	-25.50964	6.421149	44493.5	-3.657917E-11	-2.733797E+10	14.889688	0.189623	0	0
0	0	0	-0.151425	6.420768	-25.508578	6.420768	44487.625	-1.446167E-10	-6.914831E+9	14.868468	0.188461	0	0
0	0	0	-0.149914	6.421057	-25.507664	6.421057	44514.875	-4.462234E-11	-2.24103E+10	14.857764	0.187589	0	0
0	0	0	-0.151915	6.420852	-25.50958	6.420852	44478.75	-8.728751E-11	-1.145639E+10	14.74141	0.186903	0	0
0	0	0	-0.150077	6.421043	-25.507831	6.421043	44511.875	-4.617727E-11	-2.165568E+10	14.781155	0.185662	0	0
0	0	0	-0.152691	6.421078	-25.51153	6.421078	44464.75	-4.242508E-11	-2.357097E+10	14.680347	0.185253	0	0
0	0	0	-0.151792	6.420923	-25.509692	6.420923	44481	-6.562064E-11	-1.523911E+10	14.68592	0.183972	0	0
0	0	0	-0.150771	6.421036	-25.508749	6.421036	44499.375	-4.698456E-11	-2.128359E+10	14.679966	0.183285	0	0
0	0	0	-0.151547	6.421093	-25.510028	6.421093	44485.375	-4.112413E-11	-2.431662E+10	14.644878	0.182387	0	0
0	0	0	-0.151833	6.421078	-25.510362	6.421078	44480.25	-4.243986E-11	-2.356275E+10	14.684485	0.181292	0	0
0	0	0	-0.151547	6.421057	-25.509889	6.421057	44485.375	-4.459277E-11	-2.242516E+10	14.544506	0.180856	0	0
0	0	0	-0.150486	6.420831	-25.50755	6.420831	44504.625	-9.694293E-11	-1.031535E+10	14.57421	0.17976	0	0
0	0	0	-0.151588	6.421029	-25.509833	6.421029	44484.625	-4.781865E-11	-2.091234E+10	14.504083	0.179192	0	0
0	0	0	-0.150976	6.421036	-25.509027	6.421036	44495.75	-4.698074E-11	-2.128532E+10	14.460304	0.178149	0	0
0	0	0	-0.14926	6.421008	-25.506579	6.421008	44526.625	-5.061038E-11	-1.975879E+10	14.485334	0.177106	0	0
0	0	0	-0.14824	6.420796	-25.504352	6.420796	44545.125	-1.188065E-10	-8.417045E+9	14.350664	0.176723	0	0
0	0	0	-0.149791	6.420881	-25.5068	6.420881	44517.125	-7.716879E-11	-1.295861E+10	14.419069	0.175363	0	0
0	0	0	-0.148525	6.421008	-25.505578	6.421008	44540	-5.062558E-11	-1.975286E+10	14.305756	0.175073	0	0
0	0	0	-0.148321	6.420923	-25.504966	6.420923	44543.625	-6.571303E-11	-1.521768E+10	14.298916	0.173938	0	0
0	0	0	-0.147259	6.421022	-25.50391	6.421022	44562.875	-4.878527E-11	-2.049799E+10	14.275212	0.173304	0	0
0	0	0	-0.146892	6.420958	-25.503159	6.420958	44569.5	-5.849069E-11	-1.709674E+10	14.220281	0.172432	0	0
0	0	0	-0.144646	6.42098	-25.500184	6.42098	44610.125	-5.490622E-11	-1.821287E+10	14.279063	0.171376	0	0
0	0	0	-0.144728	6.420824	-25.499681	6.420824	44608.625	-1.008669E-10	-9.914051E+9	14.115046	0.171139	0	0
0	0	0	-0.144891	6.421043	-25.500769	6.421043	44605.625	-4.627453E-11	-2.161016E+10	14.223987	0.169739	0	0
0	0	0	-0.145463	6.420994	-25.501352	6.420994	44595.25	-5.270462E-11	-1.897367E+10	14.071715	0.169488	0	0
0	0	0	-0.144973	6.420909	-25.50035	6.420909	44604.125	-6.924023E-11	-1.444247E+10	14.090044	0.168313	0	0
0	0	0	-0.143788	6.420895	-25.498681	6.420895	44625.625	-7.309243E-11	-1.368131E+10	14.035979	0.167891	0	0
0	0	0	-0.142318	6.420775	-25.496205	6.420775	44652.125	-1.376228E-10	-7.266236E+9	13.983328	0.166874	0	0
0	0	0	-0.142849	6.420888	-25.497375	6.420888	44642.625	-7.519285E-11	-1.329914E+10	14.00622	0.165976	0	0
0	0	0	-0.144728	6.421114	-25.500825	6.421114	44608.625	-3.939928E-11	-2.538118E+10	13.850719	0.165606	0	0
0	0	0	-0.143584	6.421001	-25.498822	6.421001	44629.25	-5.171624E-11	-1.933629E+10	13.946348	0.164418	0	0
0	0	0	-0.143625	6.421008	-25.498905	6.421008	44628.5	-5.072617E-11	-1.971369E+10	13.755513	0.164326	0	0
0	0	0	-0.14485	6.420972	-25.500434	6.420972	44606.375	-5.606281E-11	-1.783714E+10	13.870629	0.162939	0	0
0	0	0	-0.144891	6.420909	-25.500239	6.420909	44605.625	-6.924255E-11	-1.444199E+10	13.746129	0.162609	0	0
0	0	0	-0.143911	6.421064	-25.499518	6.421064	44623.375	-4.398905E-11	-2.273293E+10	13.72399	0.1615	0	0
0	0	0	-0.14485	6.420916	-25.500211	6.420916	44606.375	-6.748089E-11	-1.481901E+10	13.753172	0.160959	0	0
0	0	0	-0.14632	6.420867	-25.502018	6.420867	44579.75	-8.206528E-11	-1.218542E+10	13.649751	0.160299	0	0
0	0	0	-0.146851	6.420676	-25.501987	6.420676	44570.125	-5.01609E-10	-1.993585E+9	13.718147	0.159295	0	0
0	0	0	-0.146647	6.421001	-25.502993	6.421001	44573.875	-5.165207E-11	-1.936031E+10	13.566792	0.158926	0	0
0	0	0	-0.147382	6.420902	-25.503603	6.420902	44560.625	-7.102819E-11	-1.407892E+10	13.64671	0.15779	0	0
0	0	0	-0.148117	6.420746	-25.50399	6.420746	44547.25	-1.732419E-10	-5.772276E+9	13.522538	0.157421	0	0
0	0	0	-0.148158	6.421128	-25.505552	6.421128	44546.625	-3.82087E-11	-2.617205E+10	13.55807	0.156364	0	0
0	0	0	-0.149546	6.421121	-25.507415	6.421121	44521.5	-3.874643E-11	-2.580883E+10	13.455302	0.156087	0	0
0	0	0	-0.149138	6.421036	-25.506524	6.421036	44528.875	-4.701571E-11	-2.126949E+10	13.423476	0.155255	0	0
0	0	0	-0.150853	6.420888	-25.508274	6.420888	44498	-7.494925E-11	-1.334236E+10	13.401196	0.154582	0	0
0	0	0	-0.150486	6.421163	-25.508861	6.421163	44504.625	-3.560317E-11	-2.808739E+10	13.3205	0.154001	0	0
0	0	0	-0.152242	6.421149	-25.511197	6.421149	44472.875	-3.656221E-11	-2.735064E+10	13.359893	0.153077	0	0
0	0	0	-0.150241	6.420965	-25.507747	6.420965	44509	-5.714916E-11	-1.749807E+10	13.213069	0.152668	0	0
0	0	0	-0.151874	6.420888	-25.509664	6.420888	44479.5	-7.491809E-11	-1.334791E+10	13.320605	0.151585	0	0
0	0	0	-0.152977	6.420987	-25.511556	6.420987	44459.625	-5.361058E-11	-1.865304E+10	13.131684	0.151545	0	0
0	0	0	-0.152895	6.420895	-25.511082	6.420895	44461.125	-7.2823E-11	-1.373193E+10	13.254835	0.150265	0	0
0	0	0	-0.15118	6.420817	-25.50844	6.420817	44492	-1.045828E-10	-9.561802E+9	13.08452	0.150106	0	0
0	0	0	-0.153262	6.420859	-25.511443	6.420859	44454.5	-8.445092E-11	-1.18412E+10	13.173104	0.148878	0	0
0	0	0	-0.153058	6.421036	-25.511863	6.421036	44458.125	-4.694101E-11	-2.130333E+10	13.070439	0.148707	0	0
0	0	0	-0.153671	6.421086	-25.512892	6.421086	44447.125	-4.173809E-11	-2.395893E+10	13.070205	0.147756	0	0
0	0	0	-0.153548	6.421057	-25.512614	6.421057	44449.375	-4.455668E-11	-2.244332E+10	13.03927	0.147228	0	0
0	0	0	-0.153712	6.420838	-25.511971	6.420838	44446.375	-9.339257E-11	-1.070749E+10	12.949819	0.146515	0	0
0	0	0	-0.152446	6.421107	-25.511308	6.421107	44469.25	-3.986876E-11	-2.50823E+10	12.992106	0.145855	0	0
0	0	0	-0.152242	6.421191	-25.511364	6.421191	44472.875	-3.375979E-11	-2.962104E+10	12.874902	0.145353	0	0
0	0	0	-0.15265	6.421191	-25.51192	6.421191	44465.5	-3.375419E-11	-2.962595E+10	12.934118	0.144442	0	0
0	0	0	-0.151221	6.42098	-25.509137	6.42098	44491.25	-5.475991E-11	-1.826153E+10	12.765128	0.144244	0	0
0	0	0	-0.151261	6.420965	-25.509137	6.420965	44490.625	-5.712557E-11	-1.75053E+10	12.850931	0.143175	0	0
0	0	0	-0.149424	6.42093	-25.506495	6.42093	44523.75	-6.409253E-11	-1.560244E+10	12.695979	0.14295	0	0
0	0	0	-0.150077	6.421015	-25.507719	6.421015	44511.875	-4.964403E-11	-2.014341E+10	12.806395	0.141788	0	0
0	0	0	-0.149832	6.420888	-25.506884	6.420888	44516.375	-7.49802E-11	-1.333685E+10	12.622224	0.141709	0	0
0	0	0	-0.147709	6.420937	-25.504187	6.420937	44554.625	-6.262002E-11	-1.596933E+10	12.701511	0.140508	0	0
0	0	0	-0.146688	6.420895	-25.50263	6.420895	44573.125	-7.300644E-11	-1.369742E+10	12.573557	0.140296	0	0
0	0	0	-0.147137	6.421128	-25.504162	6.421128	44565	-3.822446E-11	-2.616126E+10	12.590631	0.139451	0	0
0	0	0	-0.147219	6.420994	-25.503743	6.420994	44563.5	-5.26671E-11	-1.898719E+10	12.537178	0.138936	0	0
0	0	0	-0.146769	6.421184	-25.503885	6.421184	44571.625	-3.427257E-11	-2.917785E+10	12.473907	0.138157	0	0
0	0	0	-0.145871	6.420958	-25.501769	6.420958	44587.875	-5.85148E-11	-1.708969E+10	12.466339	0.137761	0	0
0	0	0	-0.145953	6.420803	-25.501266	6.420803	44586.375	-1.138085E-10	-8.786693E+9	12.371392	0.136996	0	0
0	0	0	-0.144728	6.420965	-25.500239	6.420965	44608.625	-5.727708E-11	-1.745899E+10	12.398686	0.136415	0	0
0	0	0	-0.144033	6.421206	-25.500243	6.421206	44621.125	-3.302848E-11	-3.02769E+10	12.284539	0.135781	0	0
0	0	0	-0.144115	6.420902	-25.499154	6.420902	44619.625	-7.112223E-11	-1.40603E+10	12.30313	0.1352	0	0
0	0	0	-0.14534	6.420951	-25.501018	6.420951	44597.5	-5.984919E-11	-1.670866E+10	12.223816	0.134685	0	0
0	0	0	-0.145749	6.420761	-25.500821	6.420761	44590.125	-1.533382E-10	-6.521533E+9	12.267642	0.13384	0	0
0	0	0	-0.14681	6.420775	-25.502322	6.420775	44571	-1.373728E-10	-7.279462E+9	12.169665	0.133299	0	0
0	0	0	-0.145463	6.420965	-25.50124	6.420965	44595.25	-5.725991E-11	-1.746423E+10	12.147609	0.132823	0	0
0	0	0	-0.144973	6.420881	-25.500238	6.420881	44604.125	-7.73196E-11	-1.293333E+10	12.084009	0.132176	0	0
0	0	0	-0.145585	6.4211	-25.501937	6.4211	44593.125	-4.059225E-11	-2.463524E+10	12.101771	0.131477	0	0
0	0	0	-0.145667	6.420965	-25.501518	6.420965	44591.625	-5.725525E-11	-1.746565E+10	11.998263	0.130935	0	0
0	0	0	-0.14632	6.42081	-25.501794	6.42081	44579.75	-1.091049E-10	-9.16549E+9	12.039144	0.130275	0	0
0	0	0	-0.147341	6.420867	-25.503408	6.420867	44561.375	-8.203146E-11	-1.219045E+10	11.957993	0.129747	0	0
0	0	0	-0.146361	6.421022	-25.502687	6.421022	44579	-4.880293E-11	-2.049057E+10	11.922366	0.129166	0	0
0	0	0	-0.148485	6.420972	-25.505383	6.420972	44540.625	-5.598017E-11	-1.786347E+10	11.842552	0.128559	0	0
0	0	0	-0.148199	6.420859	-25.504548	6.420859	44545.875	-8.46245E-11	-1.181691E+10	11.866935	0.127899	0	0
0	0	0	-0.149179	6.420944	-25.506217	6.420944	44528.125	-6.113678E-11	-1.635677E+10	11.796432	0.127344	0	0
0	0	0	-0.148525	6.420803	-25.504769	6.420803	44540	-1.136901E-10	-8.795841E+9	11.812972	0.126737	0	0
0	0	0	-0.150159	6.420796	-25.506966	6.420796	44510.5	-1.187142E-10	-8.423592E+9	11.714941	0.126196	0	0
0	0	0	-0.152201	6.42081	-25.509802	6.42081	44473.625	-1.088452E-10	-9.187361E+9	11.727697	0.125667	0	0
0	0	0	-0.153957	6.421008	-25.512974	6.421008	44442	-5.051419E-11	-1.979642E+10	11.603551	0.125139	0	0
0	0	0	-0.151792	6.421022	-25.510083	6.421022	44481	-4.869564E-11	-2.053572E+10	11.684259	0.124228	0	0
0	0	0	-0.151751	6.421022	-25.510027	6.421022	44481.75	-4.869646E-11	-2.053537E+10	11.513013	0.12407	0	0
0	0	0	-0.153099	6.421078	-25.512086	6.421078	44457.5	-4.241816E-11	-2.357481E+10	11.583972	0.123251	0	0
0	0	0	-0.153589	6.420881	-25.511972	6.420881	44448.625	-7.705004E-11	-1.297858E+10	11.458253	0.122868	0	0
0	0	0	-0.153099	6.420994	-25.511751	6.420994	44457.5	-5.254182E-11	-1.903246E+10	11.457599	0.122274	0	0
0	0	0	-0.153589	6.421064	-25.512697	6.421064	44448.625	-4.381678E-11	-2.282231E+10	11.405902	0.121693	0	0
0	0	0	-0.153834	6.420958	-25.512612	6.420958	44444.25	-5.832632E-11	-1.714492E+10	11.372145	0.121244	0	0
0	0	0	-0.154406	6.421086	-25.513893	6.421086	44433.875	-4.172565E-11	-2.396607E+10	11.353017	0.120558	0	0
0	0	0	-0.15412	6.421163	-25.513811	6.421163	44439	-3.555067E-11	-2.812887E+10	11.281021	0.120294	0	0
0	0	0	-0.155345	6.421008	-25.514865	6.421008	44417	-5.048577E-11	-1.980756E+10	11.29067	0.119422	0	0
0	0	0	-0.155059	6.421156	-25.515062	6.421156	44422.125	-3.602212E-11	-2.776072E+10	11.172549	0.11933	0	0
0	0	0	-0.153181	6.421128	-25.512392	6.421128	44456	-3.813097E-11	-2.62254E+10	11.220238	0.118379	0	0
0	0	0	-0.153834	6.420895	-25.512361	6.420895	44444.25	-7.279536E-11	-1.373714E+10	11.081511	0.118261	0	0
0	0	0	-0.153507	6.421022	-25.512419	6.421022	44450	-4.86617E-11	-2.055004E+10	11.138052	0.11727	0	0
0	0	0	-0.153834	6.421022	-25.512863	6.421022	44444.25	-4.865541E-11	-2.05527E+10	10.990739	0.117244	0	0
0	0	0	-0.152364	6.421142	-25.511336	6.421142	44470.625	-3.707327E-11	-2.697361E+10	11.081173	0.116227	0	0
0	0	0	-0.151302	6.421227	-25.510225	6.421227	44489.875	-3.174504E-11	-3.150099E+10	10.921106	0.116188	0	0
0	0	0	-0.151139	6.421121	-25.509584	6.421121	44492.75	-3.872141E-11	-2.582551E+10	10.97372	0.115277	0	0
0	0	0	-0.148893	6.421191	-25.506804	6.421191	44533.25	-3.380562E-11	-2.958088E+10	10.797127	0.115263	0	0
0	0	0	-0.149546	6.421093	-25.507303	6.421093	44521.5	-4.115753E-11	-2.429689E+10	10.817466	0.114352	0	0
0	0	0	-0.149301	6.420874	-25.506105	6.420874	44526	-7.950341E-11	-1.257808E+10	10.760891	0.113877	0	0
0	0	0	-0.148158	6.420888	-25.504604	6.420888	44546.625	-7.503115E-11	-1.33278E+10	10.696081	0.113534	0	0
0	0	0	-0.147096	6.420739	-25.502572	6.420739	44565.75	-1.854507E-10	-5.39227E+9	10.66994	0.112887	0	0
0	0	0	-0.148076	6.421036	-25.505078	6.421036	44548.125	-4.703604E-11	-2.126029E+10	10.612819	0.112504	0	0
0	0	0	-0.145381	6.420895	-25.50085	6.420895	44596.75	-7.304514E-11	-1.369017E+10	10.566676	0.111831	0	0
0	0	0	-0.144809	6.420937	-25.500239	6.420937	44607.125	-6.269381E-11	-1.595054E+10	10.507601	0.11154	0	0
0	0	0	-0.146565	6.421071	-25.50316	6.421071	44575.375	-4.322466E-11	-2.313494E+10	10.490176	0.110788	0	0
0	0	0	-0.145463	6.421043	-25.501547	6.421043	44595.25	-4.626376E-11	-2.161519E+10	10.395748	0.110682	0	0
0	0	0	-0.146075	6.420796	-25.501405	6.420796	44584.25	-1.189109E-10	-8.409658E+9	10.423201	0.10989	0	0
0	0	0	-0.145381	6.420831	-25.500599	6.420831	44596.75	-9.714361E-11	-1.029404E+10	10.322987	0.109547	0	0
0	0	0	-0.145258	6.420923	-25.500795	6.420923	44599	-6.579472E-11	-1.519879E+10	10.366392	0.108939	0	0
0	0	0	-0.146157	6.420902	-25.501935	6.420902	44582.75	-7.106346E-11	-1.407193E+10	10.287901	0.108517	0	0
0	0	0	-0.144891	6.420888	-25.500155	6.420888	44605.625	-7.513053E-11	-1.331017E+10	10.259838	0.1082	0	0
0	0	0	-0.145503	6.420796	-25.500626	6.420796	44594.625	-1.189386E-10	-8.407702E+9	10.176585	0.107619	0	0
0	0	0	-0.145177	6.421086	-25.501325	6.421086	44600.5	-4.188212E-11	-2.387654E+10	10.119405	0.107262	0	0
0	0	0	-0.147055	6.420775	-25.502656	6.420775	44566.5	-1.373589E-10	-7.280197E+9	10.166062	0.106497	0	0
0	0	0	-0.146239	6.420874	-25.501934	6.420874	44581.25	-7.960206E-11	-1.256249E+10	10.006539	0.10647	0	0
0	0	0	-0.147178	6.421043	-25.503883	6.421043	44564.25	-4.62316E-11	-2.163022E+10	10.052306	0.105678	0	0
0	0	0	-0.148975	6.42081	-25.505409	6.42081	44531.875	-1.089877E-10	-9.175343E+9	9.942561	0.105454	0	0
0	0	0	-0.149015	6.421022	-25.506302	6.421022	44531.125	-4.875051E-11	-2.05126E+10	9.936559	0.104833	0	0
0	0	0	-0.1502	6.421043	-25.507998	6.421043	44509.75	-4.617507E-11	-2.165671E+10	9.885414	0.104265	0	0
0	0	0	-0.148689	6.420845	-25.505159	6.420845	44537	-9.038685E-11	-1.106356E+10	9.779057	0.104028	0	0
0	0	0	-0.150281	6.421022	-25.508025	6.421022	44508.25	-4.872547E-11	-2.052315E+10	9.788673	0.103288	0	0
0	0	0	-0.152487	6.42093	-25.510666	6.42093	44468.5	-6.4013E-11	-1.562183E+10	9.630213	0.103288	0	0
0	0	0	-0.152078	6.420923	-25.510082	6.420923	44475.875	-6.561308E-11	-1.524086E+10	0	0	0	0
0	0	0	-0.152527	6.420994	-25.510972	6.420994	44467.75	-5.255394E-11	-1.902807E+10	0	0	0	0
0	0	0	-0.151751	6.421022	-25.510027	6.421022	44481.75	-4.869646E-11	-2.053537E+10	0	0	0	0
0	0	0	-0.152813	6.421064	-25.511641	6.421064	44462.625	-4.383058E-11	-2.281512E+10	0	0	0	0
0	0	0	-0.153385	6.420958	-25.512001	6.420958	44452.25	-5.833681E-11	-1.714183E+10	0	0	0	0
0	0	0	-0.154528	6.421128	-25.514227	6.421128	44431.625	-3.811007E-11	-2.623979E+10	0	0	0	0
0	0	0	-0.154283	6.421269	-25.514452	6.421269	44436.125	-2.957586E-11	-3.381136E+10	0	0	0	0
0	0	0	-0.155631	6.42117	-25.515896	6.42117	44411.875	-3.505701E-11	-2.852497E+10	0	0	0	0
0	0	0	-0.153385	6.42098	-25.512084	6.42098	44452.25	-5.471191E-11	-1.827756E+10	0	0	0	0
0	0	0	-0.155468	6.421022	-25.515088	6.421022	44414.75	-4.862311E-11	-2.056635E+10	0	0	0	0
0	0	0	-0.155876	6.421199	-25.516341	6.421199	44407.375	-3.328487E-11	-3.004368E+10	0	0	0	0
0	0	0	-0.15559	6.421057	-25.515394	6.421057	44412.5	-4.451972E-11	-2.246196E+10	0	0	0	0
0	0	0	-0.154692	6.421029	-25.514059	6.421029	44428.75	-4.775858E-11	-2.093864E+10	0	0	0	0
0	0	0	-0.154283	6.421177	-25.514089	6.421177	44436.125	-3.461632E-11	-2.888811E+10	0	0	0	0
0	0	0	-0.1551	6.421036	-25.514643	6.421036	44421.375	-4.690221E-11	-2.132096E+10	0	0	0	0
0	0	0	-0.153712	6.421128	-25.513115	6.421128	44446.375	-3.812272E-11	-2.623108E+10	0	0	0	0
0	0	0	-0.153467	6.421057	-25.512502	6.421057	44450.875	-4.455819E-11	-2.244257E+10	0	0	0	0
0	0	0	-0.152282	6.420803	-25.509885	6.420803	44472.125	-1.135168E-10	-8.809266E+9	0	0	0	0
0	0	0	-0.151711	6.421128	-25.51039	6.421128	44482.5	-3.81537E-11	-2.620978E+10	0	0	0	0
0	0	0	-0.151221	6.420909	-25.508858	6.420909	44491.25	-6.906501E-11	-1.447911E+10	0	0	0	0
0	0	0	-0.15069	6.421043	-25.508665	6.421043	44500.875	-4.616586E-11	-2.166103E+10	0	0	0	0
0	0	0	-0.150567	0	-0.150567	0	44503.125	0	0	0	0	0	0
0	0	0	-0.149791	0	-0.149791	0	44517.125	0	0	0	0	0	0
