Vload_(V)	ILoad_(A)	RsLoad (ohm)	SunsVoc_Voltage_(V)	SunsVoc_Current_(A)	Model_Voltage_(V)	Model_Current_(A)	Carrier_Density_(cm-3)	Lifetime_(s)	Inverse_Lifetime_(s-1)	Efficiency_(%)	Intensity_(suns)	Dark_IV_Voltage_(V)	Dark_IV_Current_(A)
5.28412	6.442353	0	66.034589	-0.931376	66.289834	-0.931376	4.27432E+15	0.000243	4079.230923	19.907665	1.118444	0	0
5.148942	6.441154	2.992192	66.016825	-0.70893	66.21177	-0.70893	4.254911E+15	0.00025	3973.712549	19.950074	1.116474	0	0
8.987174	6.435387	5.404036	65.875653	-0.280957	65.954994	-0.280957	4.103292E+15	0.000256	3875.295579	19.958243	1.11346	0	0
13.811433	6.416915	5.644648	65.6876	0.190831	65.631827	0.190831	3.908429E+15	0.000262	3784.937017	19.855298	1.111331	0	0
18.4599	6.412761	5.002282	65.50012	0.621547	65.312346	0.621547	3.721977E+15	0.000268	3702.504047	19.860311	1.109533	0	0
23.252267	6.406549	4.352799	65.313333	1.016153	64.996384	1.016153	3.543704E+15	0.000274	3626.807081	19.908436	1.108727	0	0
28.169461	6.402037	3.645106	65.13014	1.376087	64.68769	1.376087	3.375869E+15	0.00028	3556.093843	19.866084	1.107471	0	0
33.424879	6.334587	3.316567	64.946621	1.712267	64.379585	1.712267	3.214453E+15	0.000285	3488.24286	19.890146	1.104575	0	0
37.953882	6.393287	2.212962	64.768369	2.020557	64.080334	2.020557	3.063891E+15	0.000291	3422.374088	19.92246	1.101257	0	0
42.706274	6.380918	1.578031	64.592241	2.306278	63.785591	2.306278	2.920942E+15	0.000296	3359.025424	19.861275	1.097264	0	0
47.518426	6.336022	1.08582	64.416112	2.567929	63.494206	2.567929	2.783586E+15	0.000302	3302.855963	19.865739	1.09269	0	0
52.253894	6.169517	0.781142	64.242557	2.808488	63.208702	2.808488	2.653531E+15	0.000307	3250.580147	19.904239	1.088446	0	0
53.346562	6.09025	0.729478	64.069369	3.037487	62.923602	3.037487	2.52882E+15	0.000312	3196.813933	19.832233	1.085498	0	0
54.47983	5.985049	0.675729	63.894956	3.251558	62.638671	3.251558	2.40818E+15	0.000317	3146.722089	19.839346	1.081809	0	0
55.611542	5.839416	0.630317	63.722462	3.447607	62.359215	3.447607	2.293599E+15	0.000322	3101.676571	19.909333	1.077684	0	0
56.677374	5.658725	0.589981	63.550703	3.626576	62.083991	3.626576	2.184033E+15	0.000326	3063.325205	19.869522	1.073031	0	0
57.759355	5.412456	0.555998	63.38115	3.794771	61.812641	3.794771	2.080161E+15	0.00033	3024.805936	19.849862	1.067478	0	0
58.819475	5.103428	0.522653	63.216048	3.956462	61.546417	3.956462	1.982984E+15	0.000335	2979.804921	19.88947	1.062124	0	0
59.852269	4.703335	0.501232	63.038	4.109128	61.26554	4.109128	1.882434E+15	0.000339	2946.767844	19.830704	1.05747	0	0
60.906488	4.200107	0.476541	62.865915	4.251413	60.993678	4.251413	1.789305E+15	0.000343	2911.582106	19.824422	1.052724	0	0
61.926024	3.594147	0.453862	62.69824	4.382446	60.729726	4.382446	1.702274E+15	0.000347	2877.848243	19.886048	1.04811	0	0
62.854497	2.934285	0.431776	62.530483	4.504407	60.467522	4.504407	1.61875E+15	0.000351	2847.568939	19.849261	1.043919	0	0
63.743439	2.192235	0.418399	62.361705	4.617713	60.205942	4.617713	1.538186E+15	0.000354	2821.886214	19.84377	1.038816	0	0
64.55789	1.419852	0.409262	62.198441	4.722762	59.953161	4.722762	1.46346E+15	0.000357	2795.55166	19.909638	1.033131	0	0
65.250964	0.701326	0.356306	62.041342	4.819076	59.710534	4.819076	1.394441E+15	0.000361	2769.885094	19.858452	1.027869	0	0
54.033155	6.038273	0.685921	61.881549	4.909197	59.465975	4.909197	1.327052E+15	0.000363	2749.234514	19.836075	1.022329	0	0
65.794182	0	0	61.72494	4.994845	59.226163	4.994845	1.263676E+15	0.000366	2726.076686	19.896024	1.016896	0	0
0	0	0	61.56678	5.076148	58.985187	5.076148	1.202272E+15	0.000369	2704.600916	19.860556	1.011978	0	0
0	0	0	61.40813	5.152864	58.744609	5.152864	1.143221E+15	0.000372	2684.798417	19.845637	1.006332	0	0
0	0	0	61.247887	5.224388	58.503451	5.224388	1.086082E+15	0.000374	2669.493617	19.909648	1.000489	0	0
0	0	0	61.094138	5.290081	58.272498	5.290081	1.03355E+15	0.000377	2654.047047	19.871912	0.994936	0	0
0	0	0	60.941654	5.352273	58.044002	5.352273	9.835981E+14	0.000379	2638.466226	19.842525	0.988907	0	0
0	0	0	60.790273	5.41052	57.818093	5.41052	9.360566E+14	0.000381	2624.471295	19.901019	0.982958	0	0
0	0	0	60.639177	5.465007	57.593722	5.465007	8.905772E+14	0.000383	2612.961296	19.865862	0.977564	0	0
0	0	0	60.490328	5.51659	57.373025	5.51659	8.476397E+14	0.000384	2600.546193	19.846775	0.972011	0	0
0	0	0	60.340458	5.565825	57.151547	5.565825	8.062194E+14	0.000386	2588.848728	19.917759	0.96626	0	0
0	0	0	60.193691	5.612427	56.934841	5.612427	7.673623E+14	0.000388	2575.425661	19.872855	0.961118	0	0
0	0	0	60.046434	5.655073	56.719111	5.655073	7.300168E+14	0.000389	2568.159166	19.851618	0.955234	0	0
0	0	0	59.901709	5.695538	56.507309	5.695538	6.948635E+14	0.000391	2559.485908	19.915076	0.949259	0	0
0	0	0	59.756821	5.733392	56.296256	5.733392	6.611594E+14	0.000391	2553.689384	19.870309	0.944221	0	0
0	0	0	59.614587	5.769171	56.089354	5.769171	6.294744E+14	0.000393	2546.931932	19.850153	0.938642	0	0
0	0	0	59.468678	5.803127	55.87825	5.803127	5.983653E+14	0.000393	2544.261139	19.91485	0.933063	0	0
0	0	0	59.328772	5.83468	55.675972	5.83468	5.698183E+14	0.000394	2539.898274	19.872232	0.928079	0	0
0	0	0	59.186334	5.864851	55.470795	5.864851	5.420003E+14	0.000394	2537.729718	19.856832	0.922632	0	0
0	0	0	59.048225	5.892997	55.272133	5.892997	5.16187E+14	0.000394	2534.814913	19.925612	0.917119	0	0
0	0	0	58.904602	5.920114	55.066504	5.920114	4.90512E+14	0.000394	2535.866736	19.881939	0.912095	0	0
0	0	0	58.766738	5.94535	54.869254	5.94535	4.669481E+14	0.000394	2535.1516	19.869213	0.906331	0	0
0	0	0	58.629364	5.969138	54.673242	5.969138	4.444846E+14	0.000394	2535.835661	19.926802	0.900963	0	0
0	0	0	58.4935	5.99189	54.479567	5.99189	4.232313E+14	0.000394	2535.159873	19.872288	0.895926	0	0
0	0	0	58.356739	6.012836	54.285609	6.012836	4.027703E+14	0.000394	2540.106411	19.866477	0.8904	0	0
0	0	0	58.223979	6.033166	54.097041	6.033166	3.837712E+14	0.000394	2539.704691	19.937596	0.8849	0	0
0	0	0	58.089545	6.051917	53.907074	6.051917	3.653677E+14	0.000393	2545.407467	19.880513	0.879956	0	0
0	0	0	57.96091	6.069963	53.724981	6.069963	3.485167E+14	0.000393	2545.162711	19.875548	0.874496	0	0
0	0	0	57.82521	6.087146	53.533931	6.087146	3.315149E+14	0.000392	2552.248342	19.938743	0.869049	0	0
0	0	0	57.695308	6.103095	53.351171	6.103095	3.159573E+14	0.000391	2557.697096	19.880218	0.864157	0	0
0	0	0	57.567327	6.118031	53.171457	6.118031	3.012908E+14	0.00039	2564.129653	19.877028	0.858657	0	0
0	0	0	57.439263	6.132702	52.991627	6.132702	2.872474E+14	0.000389	2567.84424	19.932368	0.853382	0	0
0	0	0	57.310587	6.146651	52.811317	6.146651	2.737506E+14	0.000389	2573.078356	19.865097	0.848623	0	0
0	0	0	57.179501	6.159441	52.628488	6.159441	2.606096E+14	0.000387	2585.93444	19.880635	0.843057	0	0
0	0	0	57.054909	6.172121	52.45416	6.172121	2.48667E+14	0.000386	2588.66936	19.926945	0.838099	0	0
0	0	0	56.926396	6.183966	52.275103	6.183966	2.368864E+14	0.000385	2598.310044	19.862291	0.83326	0	0
0	0	0	56.799884	6.195358	52.09888	6.195358	2.25802E+14	0.000384	2605.680593	19.878038	0.828038	0	0
0	0	0	56.672474	6.206166	51.921762	6.206166	2.151331E+14	0.000382	2615.237248	19.929404	0.822948	0	0
0	0	0	56.547637	6.216435	51.748329	6.216435	2.051417E+14	0.000381	2623.378731	19.858248	0.81836	0	0
0	0	0	56.421329	6.226197	51.573204	6.226197	1.954798E+14	0.00038	2634.083954	19.89061	0.813178	0	0
0	0	0	56.291551	6.235532	51.393679	6.235532	1.860021E+14	0.000378	2648.760903	19.92371	0.808524	0	0
0	0	0	56.17341	6.244285	51.22994	6.244285	1.777549E+14	0.000377	2654.351952	19.848188	0.804082	0	0
0	0	0	56.047511	6.252982	51.055832	6.252982	1.693492E+14	0.000375	2663.779827	19.891544	0.798781	0	0
0	0	0	55.923695	6.260627	50.885223	6.260627	1.614529E+14	0.000373	2681.26249	19.915525	0.794272	0	0
0	0	0	55.803635	6.268383	50.719417	6.268383	1.541327E+14	0.000372	2688.736313	19.842421	0.78987	0	0
0	0	0	55.680676	6.275673	50.55004	6.275673	1.469652E+14	0.00037	2701.702196	19.898853	0.784727	0	0
0	0	0	55.558575	6.282747	50.381888	6.282747	1.401645E+14	0.000369	2712.571526	19.899565	0.780391	0	0
0	0	0	55.433778	6.289287	50.210503	6.289287	1.335262E+14	0.000366	2730.759076	19.830968	0.775962	0	0
0	0	0	55.319926	6.296035	50.05342	6.296035	1.277346E+14	0.000366	2728.736662	19.890819	0.770925	0	0
0	0	0	55.196109	6.302033	49.883626	6.302033	1.217108E+14	0.000364	2746.380097	19.874596	0.766681	0	0
0	0	0	55.07654	6.307936	49.71949	6.307936	1.161543E+14	0.000363	2756.708724	19.818976	0.762358	0	0
0	0	0	54.956031	6.31332	49.554473	6.31332	1.108024E+14	0.00036	2774.11927	19.892504	0.757466	0	0
0	0	0	54.833154	6.318775	49.386172	6.318775	1.055913E+14	0.000359	2787.945418	19.878021	0.753434	0	0
0	0	0	54.718689	6.323897	49.229295	6.323897	1.009511E+14	0.000358	2795.234271	19.83035	0.749137	0	0
0	0	0	54.594995	6.328722	49.060321	6.328722	9.615913E+13	0.000355	2815.000873	19.891402	0.744562	0	0
0	0	0	54.476691	6.333401	48.898596	6.333401	9.178313E+13	0.000354	2827.793729	19.84121	0.740808	0	0
0	0	0	54.359245	6.337712	48.738282	6.337712	8.763069E+13	0.000352	2844.596208	19.813388	0.736538	0	0
0	0	0	54.235592	6.341719	48.569912	6.341719	8.345654E+13	0.000348	2872.495011	19.880676	0.732122	0	0
0	0	0	54.120759	6.345757	48.413221	6.345757	7.975411E+13	0.000347	2885.225259	19.826137	0.728288	0	0
0	0	0	53.999801	6.349837	48.248277	6.349837	7.602759E+13	0.000345	2898.797783	19.823975	0.724044	0	0
0	0	0	53.882069	6.353482	48.08798	6.353482	7.256405E+13	0.000343	2917.518738	19.889665	0.719774	0	0
0	0	0	53.76834	6.356835	47.933242	6.356835	6.936498E+13	0.00034	2936.906864	19.806928	0.716019	0	0
0	0	0	53.640684	6.360593	47.759517	6.360593	6.593851E+13	0.000339	2953.763445	19.82108	0.711696	0	0
0	0	0	53.516296	6.363714	47.590693	6.363714	6.275948E+13	0.000335	2984.941367	19.871896	0.707492	0	0
0	0	0	53.399503	6.366798	47.431995	6.366798	5.991165E+13	0.000333	3004.182597	19.794324	0.703763	0	0
0	0	0	53.28218	6.36957	47.272847	6.36957	5.717867E+13	0.00033	3032.3056	19.824488	0.699572	0	0
0	0	0	53.167143	6.372304	47.116752	6.372304	5.4618E+13	0.000327	3055.23005	19.854812	0.695606	0	0
0	0	0	53.042632	6.375316	46.947714	6.375316	5.197343E+13	0.000325	3072.609524	19.777391	0.691904	0	0
0	0	0	52.926942	6.378012	46.790714	6.378012	4.962933E+13	0.000324	3088.329828	19.835037	0.687528	0	0
0	0	0	52.810885	6.380364	46.633525	6.380364	4.738244E+13	0.000321	3116.555477	19.828432	0.683998	0	0
0	0	0	52.694011	6.382661	46.475269	6.382661	4.522107E+13	0.000318	3144.485549	19.760701	0.680151	0	0
0	0	0	52.579464	6.38488	46.32017	6.38488	4.319715E+13	0.000316	3169.4538	19.833958	0.675841	0	0
0	0	0	52.460425	6.387291	46.158857	6.387291	4.118854E+13	0.000314	3184.576983	19.809887	0.672377	0	0
0	0	0	52.347716	6.389118	46.006546	6.389118	3.937182E+13	0.00031	3220.981484	19.770247	0.668464	0	0
0	0	0	52.229045	6.39135	45.845847	6.39135	3.754451E+13	0.000309	3236.133952	19.845577	0.664128	0	0
0	0	0	52.113233	6.393253	45.689268	6.393253	3.584209E+13	0.000306	3263.38207	19.77375	0.660928	0	0
0	0	0	52.000401	6.394872	45.536934	6.394872	3.425696E+13	0.000303	3301.74377	19.748182	0.656843	0	0
0	0	0	51.874706	6.396974	45.366908	6.396974	3.257267E+13	0.000301	3318.747023	19.807153	0.652903	0	0
0	0	0	51.757954	6.39868	45.209207	6.39868	3.108175E+13	0.000299	3347.240174	19.741677	0.649479	0	0
0	0	0	51.641978	6.400156	45.052758	6.400156	2.966768E+13	0.000295	3388.233602	19.753334	0.645487	0	0
0	0	0	51.522041	6.401866	44.890757	6.401866	2.827233E+13	0.000293	3411.420085	19.816412	0.6416	0	0
0	0	0	51.407454	6.403298	44.73617	6.403298	2.700004E+13	0.00029	3445.768976	19.735343	0.638255	0	0
0	0	0	51.284822	6.404909	44.57063	6.404909	2.570126E+13	0.000288	3470.585901	19.773147	0.634183	0	0
0	0	0	51.167906	6.406528	44.412701	6.406528	2.45208E+13	0.000287	3480.388804	19.786121	0.630745	0	0
0	0	0	51.04654	6.407712	44.249264	6.407712	2.335228E+13	0.000283	3533.714398	19.715848	0.627387	0	0
0	0	0	50.925541	6.408979	44.086216	6.408979	2.224235E+13	0.00028	3574.441581	19.789695	0.623382	0	0
0	0	0	50.804175	6.410275	43.922628	6.410275	2.118167E+13	0.000277	3607.594065	19.777949	0.620116	0	0
0	0	0	50.680399	6.411381	43.75601	6.411381	2.015169E+13	0.000273	3661.351912	19.713073	0.616626	0	0
0	0	0	50.555725	6.412608	43.588044	6.412608	1.916454E+13	0.00027	3697.341366	19.774364	0.612779	0	0
0	0	0	50.427743	6.41373	43.415756	6.41373	1.820118E+13	0.000267	3746.269369	19.71881	0.609751	0	0
0	0	0	50.305029	6.414921	43.250419	6.414921	1.732273E+13	0.000265	3772.426175	19.690798	0.606261	0	0
0	0	0	50.173617	6.416068	43.073487	6.416068	1.642873E+13	0.000262	3811.345027	19.759647	0.602519	0	0
0	0	0	50.041837	6.41701	42.896276	6.41701	1.557832E+13	0.000258	3875.311188	19.686924	0.599624	0	0
0	0	0	49.909527	6.417956	42.718339	6.417956	1.476856E+13	0.000254	3935.303331	19.710844	0.595803	0	0
0	0	0	49.775583	6.418781	42.538341	6.418781	1.399147E+13	0.000249	4013.451312	19.756122	0.592591	0	0
0	0	0	49.640005	6.419747	42.355986	6.419747	1.324636E+13	0.000246	4065.358684	19.671156	0.589722	0	0
0	0	0	49.49671	6.420428	42.163625	6.420428	1.250175E+13	0.000239	4177.837194	19.71002	0.586073	0	0
0	0	0	49.353414	6.421232	41.971112	6.421232	1.179883E+13	0.000234	4264.400096	19.718546	0.582992	0	0
0	0	0	49.207505	6.422184	41.774921	6.422184	1.112354E+13	0.000232	4319.382747	19.641869	0.580031	0	0
0	0	0	49.057308	6.422897	41.57326	6.422897	1.046862E+13	0.000226	4427.296781	19.710713	0.576408	0	0
0	0	0	48.903681	6.423793	41.366786	6.423793	9.838485E+12	0.000223	4493.850345	19.668998	0.573764	0	0
0	0	0	48.747603	6.424574	41.157158	6.424574	9.237014E+12	0.000218	4585.118165	19.631858	0.570604	0	0
0	0	0	48.586871	6.425193	40.941484	6.425193	8.655904E+12	0.000212	4722.626779	19.717496	0.567194	0	0
0	0	0	48.424219	6.425906	40.72312	6.425906	8.104962E+12	0.000207	4834.089042	19.644006	0.564576	0	0
0	0	0	48.256053	6.426527	40.497482	6.426527	7.5721E+12	0.000201	4978.794773	19.655229	0.561205	0	0
0	0	0	48.083764	6.427418	40.265989	6.427418	7.062398E+12	0.000199	5037.535335	19.706839	0.558256	0	0
0	0	0	47.908779	6.427888	40.031391	6.427888	6.579753E+12	0.000191	5236.893021	19.611755	0.55552	0	0
0	0	0	47.724116	6.42843	39.783752	6.42843	6.106068E+12	0.000184	5431.791943	19.643297	0.552175	0	0
0	0	0	47.536023	6.429204	39.531225	6.429204	5.658561E+12	0.000181	5535.443984	19.633885	0.549451	0	0
0	0	0	47.343356	6.42982	39.272764	6.42982	5.234097E+12	0.000175	5704.347451	19.539341	0.546768	0	0
0	0	0	47.141337	6.430276	39.001984	6.430276	4.823131E+12	0.000168	5964.830674	19.608844	0.54341	0	0
0	0	0	46.930498	6.430648	38.719505	6.430648	4.428543E+12	0.000159	6296.464884	19.584699	0.540739	0	0
0	0	0	46.714146	6.431319	38.429258	6.431319	4.057128E+12	0.000154	6478.926719	19.550246	0.53783	0	0
0	0	0	46.483868	6.431712	38.120729	6.431712	3.695925E+12	0.000146	6858.410131	19.647034	0.534657	0	0
0	0	0	46.236847	6.432046	37.789874	6.432046	3.344092E+12	0.000136	7342.148947	19.568398	0.532212	0	0
0	0	0	45.980761	6.432627	37.446556	6.432627	3.014629E+12	0.00013	7685.76248	19.572137	0.529118	0	0
0	0	0	45.715568	6.433205	37.091043	6.433205	2.707589E+12	0.000124	8048.697258	19.614783	0.526289	0	0
0	0	0	45.442658	6.433522	36.725543	6.433522	2.424205E+12	0.000115	8677.676675	19.518388	0.52379	0	0
0	0	0	45.158026	6.433994	36.344145	6.433994	2.160179E+12	0.000108	9218.434682	19.559245	0.520604	0	0
0	0	0	44.859266	6.434189	35.944214	6.434189	1.913901E+12	9.84109E-5	10161.476023	19.56669	0.517973	0	0
0	0	0	44.544089	6.434374	35.52233	6.434374	1.684443E+12	8.861712E-5	11284.500667	19.49755	0.515249	0	0
0	0	0	44.199796	6.434946	35.06094	6.434946	1.465093E+12	8.302836E-5	12044.077222	19.57485	0.512367	0	0
0	0	0	43.832757	6.435476	34.569159	6.435476	1.262602E+12	7.706622E-5	12975.853238	19.524922	0.509869	0	0
0	0	0	43.446238	6.435785	34.051621	6.435785	1.079531E+12	6.899223E-5	14494.385254	19.494358	0.507105	0	0
0	0	0	43.046081	6.436114	33.515793	6.436114	9.179076E+11	6.175838E-5	16192.134122	19.54945	0.50425	0	0
0	0	0	42.621217	6.436465	32.946865	6.436465	7.726992E+11	5.508746E-5	18152.951152	19.44879	0.502002	0	0
0	0	0	42.174955	6.436808	32.349306	6.436808	6.448396E+11	4.88154E-5	20485.336631	19.492754	0.498895	0	0
0	0	0	41.706886	6.437164	31.722535	6.437164	5.333974E+11	4.314883E-5	23175.601485	19.517469	0.496476	0	0
0	0	0	41.222278	6.437298	31.073968	6.437298	4.382639E+11	3.639391E-5	27477.125106	19.426808	0.494043	0	0
0	0	0	40.723377	6.437246	30.406572	6.437246	3.580154E+11	2.942557E-5	33984.049618	19.503098	0.49095	0	0
0	0	0	40.208591	6.437489	29.717442	6.437489	2.905821E+11	2.50781E-5	39875.424403	19.453868	0.488808	0	0
0	0	0	39.685638	6.438219	29.016566	6.438219	2.350694E+11	2.38705E-5	41892.707785	19.412387	0.486045	0	0
0	0	0	39.161296	6.438258	28.314957	6.438258	1.900542E+11	1.948331E-5	51325.968289	19.489341	0.483242	0	0
0	0	0	38.640874	6.438409	27.618399	6.438409	1.539033E+11	1.637943E-5	61052.188468	19.407066	0.481034	0	0
0	0	0	38.11102	6.438657	26.909042	6.438657	1.241528E+11	1.410178E-5	70913.038276	19.413482	0.478139	0	0
0	0	0	37.570507	6.438734	26.185713	6.438734	9.97212E+10	1.156775E-5	86447.254665	19.431575	0.475693	0	0
0	0	0	37.023011	6.439044	25.452617	6.439044	7.987086E+10	1.01335E-5	98682.632576	19.346498	0.473393	0	0
0	0	0	36.472656	6.43902	24.71629	6.43902	6.389771E+10	8.04764E-6	124260.027877	19.434732	0.470299	0	0
0	0	0	35.913276	6.439187	23.967535	6.439187	5.093224E+10	6.752345E-6	148096.692175	19.39999	0.468131	0	0
0	0	0	35.344545	6.439275	23.206405	6.439275	4.044392E+10	5.515169E-6	181318.10256	19.340323	0.465553	0	0
0	0	0	34.766217	6.439596	22.431982	6.439596	3.19907E+10	4.871557E-6	205273.177392	19.41568	0.462697	0	0
0	0	0	34.184949	6.439634	21.654159	6.439634	2.527413E+10	3.901569E-6	256307.16925	19.31275	0.460503	0	0
0	0	0	33.614013	6.439827	20.88985	6.439827	2.005154E+10	3.331865E-6	300132.216008	19.321479	0.457779	0	0
0	0	0	33.039769	6.439771	20.121603	6.439771	1.58868E+10	2.582909E-6	387160.431051	19.357495	0.455333	0	0
0	0	0	32.463034	6.439886	19.349679	6.439886	1.257438E+10	2.139183E-6	467468.249156	19.257236	0.453271	0	0
0	0	0	31.884828	6.440106	18.575562	6.440106	9.946674E+9	1.858389E-6	538100.390664	19.343956	0.450256	0	0
0	0	0	31.300171	6.440114	17.793245	6.440114	7.847528E+9	1.471212E-6	679711.855098	19.308994	0.448088	0	0
0	0	0	30.708122	6.440193	17.000886	6.440193	6.17286E+9	1.199312E-6	833811.193736	19.258604	0.445695	0	0
0	0	0	30.108396	6.440491	16.197775	6.440491	4.840476E+9	1.091178E-6	916440.938515	19.326724	0.443144	0	0
0	0	0	29.5043	6.440243	15.389996	6.440243	3.788963E+9	7.53706E-7	1326777.243169	19.229431	0.441108	0	0
0	0	0	28.889179	6.440527	14.566296	6.440527	2.952644E+9	6.78733E-7	1473333.379587	19.248853	0.438477	0	0
0	0	0	28.257273	6.440896	13.719927	6.440896	2.285318E+9	6.584886E-7	1518629.084439	19.273158	0.436203	0	0
0	0	0	27.610708	6.440882	12.854795	6.440882	1.758331E+9	5.018074E-7	1992796.632821	19.178837	0.434035	0	0
0	0	0	26.955117	6.440882	11.977555	6.440882	1.347925E+9	3.847151E-7	2599325.795181	19.264003	0.431311	0	0
0	0	0	26.289481	6.440875	11.086889	6.440875	1.02911E+9	2.923308E-7	3420782.589414	19.218646	0.429381	0	0
0	0	0	25.614901	6.44123	10.18339	6.44123	7.828588E+8	2.926826E-7	3416671.046458	19.177672	0.426988	0	0
0	0	0	24.920148	6.441053	9.254166	6.441053	5.906807E+8	1.907069E-7	5243647.91642	19.246119	0.424436	0	0
0	0	0	24.245283	6.441174	8.35083	6.441174	4.492871E+8	1.599012E-7	6253859.936936	19.13225	0.422586	0	0
0	0	0	23.571438	6.44123	7.449012	6.44123	3.418809E+8	1.27833E-7	7822705.942593	19.177645	0.420047	0	0
0	0	0	22.898206	6.441025	6.548676	6.441025	2.602157E+8	8.222432E-8	1.216185E+7	19.175678	0.417932	0	0
0	0	0	22.224239	6.44133	5.646056	6.44133	1.979989E+8	8.122656E-8	1.231124E+7	19.091914	0.415817	0	0
0	0	0	21.546393	6.441557	4.738427	6.441557	1.504212E+8	7.93143E-8	1.260807E+7	19.177656	0.413199	0	0
0	0	0	20.864258	6.441415	3.82602	6.441415	1.140776E+8	5.104933E-8	1.958889E+7	19.097742	0.411599	0	0
0	0	0	20.180572	6.441585	2.91071	6.441585	8.646059E+7	4.727622E-8	2.115228E+7	19.105442	0.409061	0	0
0	0	0	19.492394	6.441571	1.989878	6.441571	6.541016E+7	3.511696E-8	2.847627E+7	19.148474	0.406853	0	0
0	0	0	18.794987	6.441578	1.056639	6.441578	4.930003E+7	2.671053E-8	3.743842E+7	19.024457	0.404989	0	0
0	0	0	18.097212	6.441514	0.123105	6.441514	3.715219E+7	1.859584E-8	5.377548E+7	19.097511	0.402411	0	0
0	0	0	17.429084	6.441827	-0.771815	6.441827	2.833622E+7	2.259817E-8	4.425137E+7	19.036798	0.400771	0	0
0	0	0	16.816331	6.441805	-1.591704	6.441805	2.210292E+7	1.694183E-8	5.90255E+7	18.993433	0.398603	0	0
0	0	0	16.251561	6.44216	-2.34847	6.44216	1.757949E+7	3.828021E-8	2.612316E+7	19.103544	0.396065	0	0
0	0	0	15.7126	6.441855	-3.068796	6.441855	1.412886E+7	1.191028E-8	8.396111E+7	18.997134	0.394425	0	0
0	0	0	15.205246	6.441756	-3.747415	6.441756	1.1502E+7	8.083005E-9	1.237164E+8	19.029341	0.392006	0	0
0	0	0	14.729827	6.441862	-4.383907	6.441862	9485545.25	8.111717E-9	1.232785E+8	19.024841	0.390049	0	0
0	0	0	14.272784	6.442004	-4.995921	6.442004	7881104.75	9.481575E-9	1.054677E+8	18.942665	0.387974	0	0
0	0	0	13.833096	6.441749	-5.583519	6.441749	6594286.75	4.579715E-9	2.183542E+8	19.027894	0.385647	0	0
0	0	0	13.412071	6.441777	-6.146994	6.441777	5559485.25	4.051342E-9	2.468318E+8	18.930642	0.384127	0	0
0	0	0	13.004113	6.441976	-6.693505	6.441976	4711967.5	5.24232E-9	1.907552E+8	18.942897	0.381681	0	0
0	0	0	12.61098	6.44177	-7.218943	6.44177	4017723.75	2.892186E-9	3.457592E+8	18.98174	0.379737	0	0
0	0	0	12.231403	6.441912	-7.727308	6.441912	3444650.25	3.277485E-9	3.05112E+8	18.878382	0.377939	0	0
0	0	0	11.859505	6.441955	-8.225096	6.441955	2962524.5	3.119906E-9	3.205225E+8	18.9658	0.375652	0	0
0	0	0	11.503736	6.441784	-8.700632	6.441784	2564596.25	1.892205E-9	5.28484E+8	18.899127	0.37392	0	0
0	0	0	11.160586	6.442054	-9.160665	6.442054	2231505	3.13043E-9	3.19445E+8	18.877213	0.371805	0	0
0	0	0	10.826829	6.442082	-9.607373	6.442082	1949084	3.020848E-9	3.310329E+8	18.92743	0.369742	0	0
0	0	0	10.505976	6.442089	-10.036747	6.442089	1711336.5	2.723745E-9	3.671415E+8	18.80839	0.36809	0	0
0	0	0	10.194515	6.442089	-10.453529	6.442089	1508322	2.40063E-9	4.165574E+8	18.884453	0.36567	0	0
0	0	0	9.892039	6.442011	-10.858038	6.442011	1334242	1.638533E-9	6.103022E+8	18.809967	0.364243	0	0
0	0	0	9.599118	6.44216	-11.250493	6.44216	1184834.5	2.580089E-9	3.875835E+8	18.78543	0.362048	0	0
0	0	0	9.312731	6.442175	-11.63377	6.442175	1054948.75	2.479862E-9	4.032482E+8	18.866019	0.359959	0	0
0	0	0	9.037166	6.442224	-12.002683	6.442224	943431.5	3.072567E-9	3.254608E+8	18.752331	0.358544	0	0
0	0	0	8.771319	6.442068	-12.357916	6.442068	847033.75	1.247424E-9	8.016522E+8	18.825398	0.356191	0	0
0	0	0	8.511558	6.442011	-12.70533	6.442011	762364	9.362309E-10	1.068113E+9	18.800258	0.35475	0	0
0	0	0	8.263149	6.442132	-13.038137	6.442132	689323.5	1.308376E-9	7.643061E+8	18.728108	0.35282	0	0
0	0	0	8.022662	6.442345	-13.360653	6.442345	625286	3.188044E-8	3.136719E+7	18.785258	0.350612	0	0
0	0	0	7.786341	6.44226	-13.676607	6.44226	568156.25	2.5534E-9	3.916347E+8	18.655325	0.34933	0	0
0	0	0	7.558268	6.442302	-13.981947	6.442302	517975.5	4.278612E-9	2.337207E+8	18.710413	0.347016	0	0
0	0	0	7.335056	6.442025	-14.279714	6.442025	473158.25	6.062444E-10	1.6495E+9	18.697224	0.345443	0	0
0	0	0	7.118499	6.442175	-14.570001	6.442175	433386.75	1.01876E-9	9.815851E+8	18.628951	0.343552	0	0
0	0	0	6.904516	6.442253	-14.856609	6.442253	397372.5	1.659746E-9	6.025019E+8	18.714291	0.341582	0	0
0	0	0	6.686203	6.442373	-15.149156	6.442373	363712	-7.574381E-9	-1.32024E+8	18.593172	0.340247	0	0
0	0	0	6.486063	6.442189	-15.41635	6.442189	335364.75	8.564183E-10	1.167654E+9	18.6697	0.337907	0	0
0	0	0	6.292293	6.442274	-15.675935	6.442274	310026.5	1.643015E-9	6.08637E+8	18.659417	0.336466	0	0
0	0	0	6.104445	6.44248	-15.928011	6.44248	287291.75	-9.524355E-10	-1.04994E+9	18.583291	0.334813	0	0
0	0	0	5.913534	6.442387	-16.183167	6.442387	265893.5	-3.24915E-9	-3.077728E+8	18.645716	0.332738	0	0
0	0	0	5.735282	6.442309	-16.421429	6.442309	247355.5	2.374914E-9	4.210679E+8	18.523839	0.331495	0	0
0	0	0	5.561931	6.442352	-16.653549	6.442352	230567.5	8.522723E-8	1.173334E+7	18.575265	0.329313	0	0
0	0	0	5.389437	6.44248	-16.884817	6.44248	214993.75	-7.127516E-10	-1.403013E+9	18.556599	0.327859	0	0
0	0	0	5.22605	6.442224	-17.102572	6.442224	201213.5	6.553124E-10	1.52599E+9	18.494372	0.326061	0	0
0	0	0	5.061887	6.442373	-17.322766	6.442373	188257.25	-3.920494E-9	-2.550699E+8	18.571567	0.324131	0	0
0	0	0	4.899031	6.442331	-17.540547	6.442331	176228.5	3.298344E-9	3.031824E+8	18.437999	0.322915	0	0
0	0	0	4.74181	6.442231	-17.750588	6.442231	165345.75	5.698793E-10	1.754758E+9	18.511256	0.320786	0	0
0	0	0	4.587407	6.442288	-17.957403	6.442288	155312.25	1.002807E-9	9.972009E+8	18.489477	0.319424	0	0
0	0	0	4.441253	6.442175	-18.152583	6.442175	146376.5	3.440867E-10	2.906244E+9	18.430374	0.317666	0	0
0	0	0	4.295058	6.44204	-18.347742	6.44204	137952.5	1.847599E-10	5.412431E+9	18.491472	0.315842	0	0
0	0	0	4.152701	6.442437	-18.539636	6.442437	130216	-6.504589E-10	-1.537376E+9	18.366532	0.314467	0	0
0	0	0	4.011284	6.44243	-18.728851	6.44243	122960	-6.708753E-10	-1.49059E+9	18.43031	0.31251	0	0
0	0	0	3.874767	6.442508	-18.911811	6.442508	116339.25	-3.15051E-10	-3.17409E+9	18.384175	0.311241	0	0
0	0	0	3.736781	6.442522	-19.096512	6.442522	110009.25	-2.729167E-10	-3.664121E+9	18.35128	0.309496	0	0
0	0	0	3.604592	6.442451	-19.273151	6.442451	104268.75	-4.455796E-10	-2.244268E+9	18.413167	0.307777	0	0
0	0	0	3.477305	6.442508	-19.443686	6.442508	99024.25	-2.681613E-10	-3.729099E+9	18.282115	0.306547	0	0
0	0	0	3.347935	6.442473	-19.616679	6.442473	93964.25	-3.300105E-10	-3.030207E+9	18.386654	0.304538	0	0
0	0	0	3.225016	6.442508	-19.781292	6.442508	89396.25	-2.420883E-10	-4.130724E+9	18.336119	0.303282	0	0
0	0	0	3.101608	6.442537	-19.946536	6.442537	85033.5	-1.946277E-10	-5.138014E+9	18.312703	0.301643	0	0
0	0	0	2.984571	6.442444	-20.102822	6.442444	81092.75	-3.735289E-10	-2.677169E+9	18.358377	0.300135	0	0
0	0	0	2.865287	6.442274	-20.261833	6.442274	77264.25	4.094695E-10	2.442184E+9	18.228568	0.298906	0	0
0	0	0	2.754293	6.442451	-20.410999	6.442451	73864.25	-3.156497E-10	-3.168069E+9	18.315608	0.296843	0	0
0	0	0	2.644279	6.442409	-20.558063	6.442409	70642.25	-5.329122E-10	-1.876482E+9	18.209046	0.29572	0	0
0	0	0	2.538758	6.442267	-20.698757	6.442267	67683.75	3.291986E-10	3.03768E+9	18.222302	0.293869	0	0
0	0	0	2.439157	6.442466	-20.832757	6.442466	65005	-2.427162E-10	-4.120038E+9	18.249815	0.292441	0	0
0	0	0	2.35777	6.442217	-20.940769	6.442217	62895	1.941457E-10	5.150771E+9	18.153693	0.291053	0	0
0	0	0	2.293207	6.442466	-21.028063	6.442466	61270	-2.287704E-10	-4.371194E+9	18.235093	0.289255	0	0
0	0	0	2.24065	6.44221	-21.097468	6.44221	59978.25	1.759586E-10	5.683156E+9	18.09058	0.288528	0	0
0	0	0	2.20745	6.442451	-21.142769	6.442451	59176.25	-2.528824E-10	-3.954408E+9	18.189019	0.286426	0	0
0	0	0	2.166491	6.44243	-21.197503	6.44243	58201.75	-3.175513E-10	-3.149097E+9	18.14115	0.285341	0	0
0	0	0	2.144929	6.442544	-21.226768	6.442544	57695.25	-1.271349E-10	-7.865662E+9	18.076637	0.283795	0	0
0	0	0	2.134843	6.44226	-21.239236	6.44226	57459.75	2.582349E-10	3.872443E+9	18.146398	0.282089	0	0
0	0	0	2.106421	6.442409	-21.27781	6.442409	56801.5	-4.285001E-10	-2.333722E+9	17.997019	0.281084	0	0
0	0	0	2.083307	6.442288	-21.308302	6.442288	56271.5	3.633291E-10	2.752326E+9	18.093578	0.279114	0	0
0	0	0	2.073098	6.442267	-21.321886	6.442267	56039.25	2.725624E-10	3.668885E+9	17.989952	0.278149	0	0
0	0	0	2.068606	6.442231	-21.327768	6.442231	55937.25	1.927929E-10	5.186914E+9	17.981023	0.276536	0	0
0	0	0	2.061827	6.442288	-21.337046	6.442288	55783.5	3.601782E-10	2.776403E+9	18.014388	0.275162	0	0
0	0	0	2.052639	6.442373	-21.349651	6.442373	55576.25	-1.157386E-9	-8.640163E+8	17.910834	0.2738	0	0
0	0	0	2.038959	6.442288	-21.367648	6.442288	55268.75	3.568546E-10	2.802262E+9	18.020975	0.27216	0	0
0	0	0	2.029362	6.442295	-21.380515	6.442295	55054.25	3.990321E-10	2.506064E+9	17.897145	0.271116	0	0
0	0	0	2.018173	6.442288	-21.395462	6.442288	54805	3.538603E-10	2.825974E+9	17.966031	0.269397	0	0
0	0	0	2.01021	6.442317	-21.406222	6.442317	54628.5	6.261476E-10	1.597067E+9	17.89947	0.268353	0	0
0	0	0	2.006126	6.442096	-21.410886	6.442096	54538	8.920269E-11	1.121042E+10	17.85958	0.26678	0	0
0	0	0	2.002532	6.442203	-21.416082	6.442203	54458.5	1.522149E-10	6.569659E+9	17.930028	0.265365	0	0
0	0	0	1.999837	6.442522	-21.42085	6.442522	54399	-1.349559E-10	-7.409829E+9	17.788917	0.264228	0	0
0	0	0	1.998244	6.442281	-21.422104	6.442281	54364	3.164644E-10	3.159913E+9	17.88828	0.262575	0	0
0	0	0	1.99657	6.442387	-21.424731	6.442387	54327	-6.638616E-10	-1.506338E+9	17.760457	0.261756	0	0
0	0	0	1.994814	6.442572	-21.427752	6.442572	54288.5	-1.04112E-10	-9.605044E+9	17.809891	0.259971	0	0
0	0	0	1.993058	6.4426	-21.430205	6.4426	54249.75	-9.209303E-11	-1.085859E+10	17.771349	0.258913	0	0
0	0	0	1.991506	6.442416	-21.431611	6.442416	54215.75	-3.627274E-10	-2.756891E+9	17.706606	0.257776	0	0
0	0	0	1.988117	6.442402	-21.436095	6.442402	54141.25	-4.681439E-10	-2.136095E+9	17.791894	0.256203	0	0
0	0	0	1.984442	6.442487	-21.441323	6.442487	54060.5	-1.697096E-10	-5.89242E+9	17.654553	0.255278	0	0
0	0	0	1.982032	6.442402	-21.444237	6.442402	54007.75	-4.669895E-10	-2.141376E+9	17.766455	0.253532	0	0
0	0	0	1.977826	6.442324	-21.449582	6.442324	53915.75	7.665306E-10	1.304579E+9	17.632591	0.252858	0	0
0	0	0	1.974069	6.442508	-21.45528	6.442508	53833.75	-1.457838E-10	-6.859474E+9	17.684112	0.251192	0	0
0	0	0	1.970884	6.44238	-21.459078	6.44238	53764.25	-8.280747E-10	-1.20762E+9	17.666364	0.250108	0	0
0	0	0	1.971251	6.442096	-21.457554	6.442096	53772.25	8.795022E-11	1.137007E+10	17.588715	0.248773	0	0
0	0	0	1.96823	6.442423	-21.462785	6.442423	53706.5	-3.22804E-10	-3.097855E+9	17.636344	0.247543	0	0
0	0	0	1.964881	6.442416	-21.46724	6.442416	53633.5	-3.588319E-10	-2.78682E+9	17.500976	0.246473	0	0
0	0	0	1.959531	6.442182	-21.473547	6.442182	53517.5	1.310105E-10	7.632977E+9	17.584815	0.244899	0	0
0	0	0	1.955162	6.442281	-21.479756	6.442281	53422.75	3.109852E-10	3.215587E+9	17.46173	0.244225	0	0
0	0	0	1.949118	6.442302	-21.487921	6.442302	53292	4.402062E-10	2.271663E+9	17.506503	0.24248	0	0
0	0	0	1.944748	6.442402	-21.494129	6.442402	53197.5	-4.599835E-10	-2.173991E+9	17.490368	0.241621	0	0
0	0	0	1.940706	6.442253	-21.498997	6.442253	53110.5	2.218321E-10	4.507915E+9	17.421731	0.240404	0	0
0	0	0	1.935683	6.442338	-21.506028	6.442338	53002.5	1.451275E-9	6.890492E+8	17.493753	0.239175	0	0
0	0	0	1.93213	6.442402	-21.511015	6.442402	52926.25	-4.576381E-10	-2.185133E+9	17.354418	0.238315	0	0
0	0	0	1.930864	6.442416	-21.512761	6.442416	52899	-3.539178E-10	-2.825515E+9	17.486745	0.236663	0	0
0	0	0	1.92919	6.44238	-21.514872	6.44238	52863	-8.141937E-10	-1.228209E+9	17.368911	0.236002	0	0
0	0	0	1.927883	6.442366	-21.516569	6.442366	52835	-1.698287E-9	-5.888287E+8	17.456844	0.234402	0	0
0	0	0	1.926699	6.442238	-21.517689	6.442238	52809.75	1.932769E-10	5.173924E+9	17.383387	0.233609	0	0
0	0	0	1.925269	6.442451	-21.520376	6.442451	52779	-2.255445E-10	-4.433715E+9	17.394966	0.232168	0	0
0	0	0	1.924575	6.44226	-21.520608	6.44226	52764.25	2.371325E-10	4.217052E+9	17.404282	0.231216	0	0
0	0	0	1.923881	6.442387	-21.522002	6.442387	52749.5	-6.445849E-10	-1.551386E+9	17.263332	0.230198	0	0
0	0	0	1.923309	6.442345	-21.522612	6.442345	52737.25	2.68885E-9	3.719061E+8	17.336776	0.228823	0	0
0	0	0	1.922288	6.442387	-21.524133	6.442387	52715.5	-6.441695E-10	-1.552387E+9	17.174395	0.228162	0	0
0	0	0	1.920737	6.44216	-21.525383	6.44216	52682.25	1.147207E-10	8.716824E+9	17.295514	0.226575	0	0
0	0	0	1.920165	6.44226	-21.52651	6.44226	52670	2.367089E-10	4.224598E+9	17.165431	0.225809	0	0
0	0	0	1.919797	6.442352	-21.527337	6.442352	52662.25	1.946644E-8	5.137046E+7	17.209021	0.224407	0	0
0	0	0	1.918082	6.44238	-21.529736	6.44238	52625.5	-8.105358E-10	-1.233752E+9	17.16981	0.22368	0	0
0	0	0	1.91702	6.44238	-21.531157	6.44238	52603	-8.101892E-10	-1.23428E+9	17.143792	0.222239	0	0
0	0	0	1.91457	6.44238	-21.534435	6.44238	52550.75	-8.093845E-10	-1.235507E+9	17.18374	0.221327	0	0
0	0	0	1.912488	6.442025	-21.535931	6.442025	52506.25	6.727479E-11	1.486441E+10	17.064213	0.220401	0	0
0	0	0	1.912733	6.442366	-21.536843	6.442366	52511.5	-1.687889E-9	-5.924562E+8	17.17504	0.219093	0	0
0	0	0	1.911753	6.442281	-21.537844	6.442281	52490.75	3.055598E-10	3.272682E+9	17.030875	0.218379	0	0
0	0	0	1.910772	6.442338	-21.539363	6.442338	52469.75	1.436688E-9	6.960454E+8	17.124091	0.216858	0	0
0	0	0	1.911385	6.442267	-21.538284	6.442267	52483	2.552656E-10	3.917489E+9	16.977306	0.216395	0	0
0	0	0	1.911916	6.442267	-21.537574	6.442267	52494	2.553191E-10	3.916668E+9	17.049971	0.214756	0	0
0	0	0	1.91016	6.442338	-21.540182	6.442338	52456.75	1.436332E-9	6.962179E+8	16.99598	0.214095	0	0
0	0	0	1.911344	6.442302	-21.538468	6.442302	52482	4.335154E-10	2.306723E+9	16.945393	0.212998	0	0
0	0	0	1.9131	6.442359	-21.536325	6.442359	52519.25	-3.697825E-9	-2.704292E+8	16.977454	0.212019	0	0
0	0	0	1.912896	6.442529	-21.537218	6.442529	52515	-1.250371E-10	-7.997625E+9	16.881596	0.210949	0	0
0	0	0	1.911712	6.442352	-21.538157	6.442352	52489.75	1.940268E-8	5.153928E+7	16.96889	0.209825	0	0
0	0	0	1.91261	6.442182	-21.536335	6.442182	52509	1.285417E-10	7.779578E+9	16.816343	0.209084	0	0
0	0	0	1.913263	6.442359	-21.536107	6.442359	52522.75	-3.698072E-9	-2.704112E+8	16.917043	0.207723	0	0
0	0	0	1.912896	6.442458	-21.53696	6.442458	52515	-2.092939E-10	-4.777969E+9	16.775842	0.207141	0	0
0	0	0	1.911262	6.44226	-21.538423	6.44226	52480.25	2.358561E-10	4.239873E+9	16.84697	0.205779	0	0
0	0	0	1.911671	6.442423	-21.53847	6.442423	52489	-3.154862E-10	-3.169711E+9	16.766854	0.205092	0	0
0	0	0	1.913059	6.442352	-21.536354	6.442352	52518.5	1.941331E-8	5.151106E+7	16.763885	0.203955	0	0
0	0	0	1.911753	6.442295	-21.537896	6.442295	52490.75	3.804519E-10	2.628453E+9	16.743351	0.203201	0	0
0	0	0	1.912651	6.442402	-21.537081	6.442402	52509.75	-4.540368E-10	-2.202465E+9	16.68154	0.202077	0	0
0	0	0	1.912692	6.442253	-21.536484	6.442253	52510.75	2.19327E-10	4.559402E+9	16.735222	0.201059	0	0
0	0	0	1.913549	6.442402	-21.535879	6.442402	52529	-4.542032E-10	-2.201658E+9	16.627842	0.20024	0	0
0	0	0	1.91457	6.442409	-21.534539	6.442409	52550.75	-3.964332E-10	-2.522493E+9	16.725437	0.199142	0	0
0	0	0	1.914203	6.442544	-21.535521	6.442544	52542.75	-1.15781E-10	-8.636993E+9	16.569448	0.198402	0	0
0	0	0	1.91408	6.442551	-21.535711	6.442551	52540.25	-1.116169E-10	-8.959214E+9	16.686777	0.197054	0	0
0	0	0	1.913549	6.442508	-21.536267	6.442508	52529	-1.422505E-10	-7.029854E+9	16.523927	0.196591	0	0
0	0	0	1.913713	6.442324	-21.535376	6.442324	52532.5	7.468646E-10	1.338931E+9	16.64495	0.195269	0	0
0	0	0	1.912733	6.442537	-21.537463	6.442537	52511.5	-1.201902E-10	-8.320145E+9	16.510831	0.194806	0	0
0	0	0	1.912365	6.442395	-21.537438	6.442395	52503.75	-5.31722E-10	-1.880682E+9	16.567039	0.193405	0	0
0	0	0	1.909466	6.442544	-21.54186	6.442544	52442	-1.15559E-10	-8.653586E+9	16.469505	0.192968	0	0
0	0	0	1.907424	6.442466	-21.544309	6.442466	52398.75	-1.956469E-10	-5.11125E+9	16.498952	0.191633	0	0
0	0	0	1.905872	6.442203	-21.545429	6.442203	52365.75	1.463655E-10	6.832209E+9	16.472702	0.191065	0	0
0	0	0	1.90285	6.442061	-21.548956	6.442061	52301.5	7.515293E-11	1.33062E+10	16.411696	0.19002	0	0
0	0	0	1.901543	6.442295	-21.551558	6.442295	52273.75	3.788791E-10	2.639364E+9	16.467243	0.189068	0	0
0	0	0	1.898317	6.44248	-21.556546	6.44248	52205.5	-1.730727E-10	-5.777919E+9	16.361769	0.188288	0	0
0	0	0	1.896071	6.442338	-21.559035	6.442338	52158	1.428152E-9	7.002057E+8	16.422425	0.187297	0	0
0	0	0	1.895091	6.442466	-21.560812	6.442466	52137.25	-1.946705E-10	-5.136886E+9	16.257637	0.186622	0	0
0	0	0	1.8926	6.442288	-21.563499	6.442288	52084.75	3.362964E-10	2.973567E+9	16.363547	0.185459	0	0
0	0	0	1.889742	6.442352	-21.567557	6.442352	52024.25	1.923061E-8	5.200044E+7	16.195406	0.184957	0	0
0	0	0	1.88868	6.442253	-21.568616	6.442253	52002	2.172021E-10	4.604008E+9	16.291693	0.183846	0	0
0	0	0	1.889333	6.442352	-21.568103	6.442352	52015.75	1.922747E-8	5.200894E+7	16.153177	0.183198	0	0
0	0	0	1.885086	6.442281	-21.573528	6.442281	51926.25	3.022737E-10	3.30826E+9	16.265044	0.18185	0	0
0	0	0	1.8848	6.44226	-21.573833	6.44226	51920.25	2.333394E-10	4.285603E+9	16.121598	0.181506	0	0
0	0	0	1.881942	6.442373	-21.578072	6.442373	51860	-1.079994E-9	-9.259311E+8	16.201277	0.180237	0	0
0	0	0	1.882759	6.442615	-21.577858	6.442615	51877.25	-8.328456E-11	-1.200703E+10	16.112207	0.179761	0	0
0	0	0	1.879777	6.442302	-21.58071	6.442302	51814.5	4.280017E-10	2.33644E+9	16.144732	0.178611	0	0
0	0	0	1.875367	6.442508	-21.587361	6.442508	51722	-1.400651E-10	-7.139539E+9	16.077642	0.178095	0	0
0	0	0	1.875408	6.442203	-21.586195	6.442203	51722.75	1.445683E-10	6.917145E+9	16.074051	0.176985	0	0
0	0	0	1.873734	6.442295	-21.588772	6.442295	51687.75	3.746318E-10	2.669288E+9	16.055782	0.17639	0	0
0	0	0	1.874101	6.442451	-21.588848	6.442451	51695.5	-2.209143E-10	-4.526642E+9	15.990764	0.175438	0	0
0	0	0	1.87259	6.441947	-21.589035	6.441947	51663.75	5.345654E-11	1.870678E+10	15.997509	0.174777	0	0
0	0	0	1.874673	6.442238	-21.587308	6.442238	51707.5	1.892428E-10	5.284217E+9	15.926871	0.173891	0	0
0	0	0	1.875775	6.442317	-21.586117	6.442317	51730.5	5.92931E-10	1.686537E+9	15.982446	0.173137	0	0
0	0	0	1.87843	6.442494	-21.583211	6.442494	51786.25	-1.543761E-10	-6.477688E+9	15.903059	0.172252	0	0
0	0	0	1.880513	6.442508	-21.580476	6.442508	51830	-1.403575E-10	-7.124662E+9	15.970984	0.171498	0	0
0	0	0	1.878838	6.442182	-21.581527	6.442182	51794.75	1.267932E-10	7.886858E+9	15.828161	0.170771	0	0
0	0	0	1.882228	6.442281	-21.577353	6.442281	51866	3.01923E-10	3.312103E+9	15.911665	0.169845	0	0
0	0	0	1.882514	6.442153	-21.576506	6.442153	51872	1.089451E-10	9.178939E+9	15.738523	0.169224	0	0
0	0	0	1.884392	6.44226	-21.57438	6.44226	51911.5	2.333001E-10	4.286325E+9	15.852845	0.168153	0	0
0	0	0	1.887006	6.442295	-21.571012	6.442295	51966.75	3.76654E-10	2.654957E+9	15.686715	0.167717	0	0
0	0	0	1.887373	6.442487	-21.571218	6.442487	51974.25	-1.631603E-10	-6.128942E+9	15.815263	0.166659	0	0
0	0	0	1.888312	6.44221	-21.568953	6.44221	51994.25	1.525359E-10	6.555835E+9	15.623309	0.166302	0	0
0	0	0	1.888884	6.442359	-21.56873	6.442359	52006.25	-3.661706E-9	-2.730968E+8	15.76036	0.165179	0	0
0	0	0	1.889292	6.442281	-21.5679	6.442281	52014.75	3.027889E-10	3.302631E+9	15.599038	0.164755	0	0
0	0	0	1.890191	6.442522	-21.567576	6.442522	52033.75	-1.290881E-10	-7.74665E+9	15.709831	0.163592	0	0
0	0	0	1.889047	6.442437	-21.568796	6.442437	52009.75	-2.598006E-10	-3.849105E+9	15.549262	0.163222	0	0
0	0	0	1.892028	6.442324	-21.564393	6.442324	52072.5	7.403247E-10	1.350759E+9	15.68476	0.1619	0	0
0	0	0	1.89309	6.442338	-21.563024	6.442338	52095	1.426427E-9	7.010525E+8	15.506228	0.161662	0	0
0	0	0	1.895663	6.442537	-21.560305	6.442537	52149.25	-1.193611E-10	-8.377941E+9	15.581253	0.160538	0	0
0	0	0	1.895622	6.442444	-21.560024	6.442444	52148.5	-2.402061E-10	-4.163092E+9	15.424796	0.16026	0	0
0	0	0	1.897215	6.442387	-21.557686	6.442387	52182.25	-6.376533E-10	-1.56825E+9	15.506096	0.159084	0	0
0	0	0	1.898154	6.442302	-21.556119	6.442302	52202	4.312025E-10	2.319096E+9	15.348916	0.158793	0	0
0	0	0	1.895173	6.442409	-21.560496	6.442409	52139	-3.93327E-10	-2.542414E+9	15.447587	0.157497	0	0
0	0	0	1.896071	6.442522	-21.559707	6.442522	52158	-1.293963E-10	-7.728196E+9	15.314677	0.157365	0	0
0	0	0	1.892723	6.44248	-21.564033	6.44248	52087.25	-1.726807E-10	-5.791036E+9	15.418576	0.156149	0	0
0	0	0	1.893907	6.442175	-21.561337	6.442175	52112.25	1.225001E-10	8.16326E+9	15.292264	0.155831	0	0
0	0	0	1.891375	6.442444	-21.565707	6.442444	52058.75	-2.397927E-10	-4.170269E+9	15.347515	0.154708	0	0
0	0	0	1.887169	6.442359	-21.571026	6.442359	51970.25	-3.659171E-9	-2.73286E+8	15.194923	0.154576	0	0
0	0	0	1.886434	6.442146	-21.571234	6.442146	51954.5	1.053763E-10	9.489803E+9	15.268872	0.15332	0	0
0	0	0	1.88431	6.442529	-21.575471	6.442529	51910	-1.235966E-10	-8.090836E+9	15.150242	0.152844	0	0
0	0	0	1.882554	6.442331	-21.577097	6.442331	51873	9.708708E-10	1.030003E+9	15.203833	0.151918	0	0
0	0	0	1.880104	6.442345	-21.580428	6.442345	51821.5	2.64216E-9	3.784782E+8	15.080253	0.151508	0	0
0	0	0	1.877613	6.442515	-21.584381	6.442515	51769.25	-1.34055E-10	-7.459626E+9	15.137517	0.150543	0	0
0	0	0	1.877205	6.442494	-21.58485	6.442494	51760.5	-1.542993E-10	-6.480911E+9	15.04192	0.150133	0	0
0	0	0	1.874387	6.44238	-21.588207	6.44238	51701.5	-7.963043E-10	-1.255801E+9	15.105821	0.149168	0	0
0	0	0	1.873734	6.442345	-21.588953	6.442345	51687.75	2.635341E-9	3.794575E+8	14.959674	0.148851	0	0
0	0	0	1.874836	6.442373	-21.58758	6.442373	51711	-1.076891E-9	-9.285991E+8	15.031129	0.147767	0	0
0	0	0	1.872182	6.442196	-21.590486	6.442196	51655.25	1.378643E-10	7.253508E+9	14.881452	0.147582	0	0
0	0	0	1.872386	6.442324	-21.590678	6.442324	51659.5	7.34453E-10	1.361557E+9	14.976966	0.146432	0	0
0	0	0	1.870467	6.442324	-21.593247	6.442324	51619.5	7.338844E-10	1.362613E+9	14.799352	0.146154	0	0
0	0	0	1.869282	6.442387	-21.595064	6.442387	51594.5	-6.304711E-10	-1.586115E+9	14.922775	0.145043	0	0
0	0	0	1.868057	6.44226	-21.596238	6.44226	51569	2.317608E-10	4.314793E+9	14.767369	0.144739	0	0
0	0	0	1.86524	6.442231	-21.599905	6.442231	51510	1.77534E-10	5.632725E+9	14.839364	0.143708	0	0
0	0	0	1.863443	6.442373	-21.602827	6.442373	51472.5	-1.071924E-9	-9.329018E+8	14.664013	0.143483	0	0
0	0	0	1.863729	6.442096	-21.601436	6.442096	51478.5	8.419855E-11	1.187669E+10	14.803285	0.142426	0	0
0	0	0	1.863034	6.442451	-21.603658	6.442451	51464	-2.19925E-10	-4.547005E+9	14.614255	0.142201	0	0
0	0	0	1.86479	6.442409	-21.601153	6.442409	51500.75	-3.885122E-10	-2.573922E+9	14.735554	0.141143	0	0
0	0	0	1.864872	6.442217	-21.600345	6.442217	51502.5	1.589791E-10	6.290136E+9	14.549685	0.14076	0	0
0	0	0	1.865362	6.442196	-21.599612	6.442196	51512.5	1.374833E-10	7.273609E+9	14.623462	0.140006	0	0
0	0	0	1.867812	6.442295	-21.596695	6.442295	51563.75	3.73733E-10	2.675707E+9	14.444818	0.139504	0	0
0	0	0	1.866832	6.442309	-21.598058	6.442309	51543.25	4.948781E-10	2.0207E+9	14.520561	0.138671	0	0
0	0	0	1.871447	6.44226	-21.591702	6.44226	51639.75	2.320788E-10	4.308882E+9	14.372741	0.138208	0	0
0	0	0	1.87161	6.442153	-21.591096	6.442153	51643.25	1.084646E-10	9.219597E+9	14.474539	0.137375	0	0
0	0	0	1.872876	6.442458	-21.590514	6.442458	51669.75	-2.059253E-10	-4.856131E+9	14.396682	0.136847	0	0
0	0	0	1.876021	6.442409	-21.586125	6.442409	51735.75	-3.90285E-10	-2.56223E+9	14.466098	0.136318	0	0
0	0	0	1.87504	6.442288	-21.586997	6.442288	51715.25	3.339107E-10	2.994813E+9	14.433977	0.135564	0	0
0	0	0	1.876102	6.442458	-21.586197	6.442458	51737.5	-2.061953E-10	-4.849772E+9	14.433516	0.135207	0	0
0	0	0	1.877654	6.442288	-21.5835	6.442288	51770	3.342642E-10	2.991646E+9	14.358321	0.134176	0	0
0	0	0	1.878348	6.44238	-21.582907	6.44238	51784.5	-7.975827E-10	-1.253788E+9	14.257897	0.133951	0	0
0	0	0	1.878307	6.442395	-21.583013	6.442395	51783.75	-5.244303E-10	-1.906831E+9	14.294202	0.132933	0	0
0	0	0	1.879737	6.442253	-21.580583	6.442253	51813.75	2.164158E-10	4.620735E+9	14.181843	0.132629	0	0
0	0	0	1.881125	6.442309	-21.578932	6.442309	51843	4.977561E-10	2.009016E+9	14.232843	0.131783	0	0
0	0	0	1.881778	6.442338	-21.578161	6.442338	51856.75	1.419903E-9	7.042734E+8	14.072212	0.131466	0	0
0	0	0	1.881942	6.442409	-21.578201	6.442409	51860	-3.912223E-10	-2.556091E+9	14.156595	0.130633	0	0
0	0	0	1.885331	6.442167	-21.572787	6.442167	51931.5	1.174087E-10	8.517256E+9	14.015408	0.130263	0	0
0	0	0	1.887659	6.442338	-21.570292	6.442338	51980.5	1.423292E-9	7.025967E+8	14.113645	0.12943	0	0
0	0	0	1.890191	6.442608	-21.567886	6.442608	52033.75	-8.58666E-11	-1.164597E+10	13.962762	0.129073	0	0
0	0	0	1.888231	6.442423	-21.569837	6.442423	51992.5	-3.12502E-10	-3.19998E+9	14.070739	0.128359	0	0
0	0	0	1.888598	6.442395	-21.569242	6.442395	52000.25	-5.266229E-10	-1.898892E+9	13.91529	0.127764	0	0
0	0	0	1.88917	6.442515	-21.568916	6.442515	52012.25	-1.346842E-10	-7.424775E+9	13.962528	0.127129	0	0
0	0	0	1.888557	6.44238	-21.569245	6.44238	51999.25	-8.008903E-10	-1.24861E+9	13.899702	0.126482	0	0
0	0	0	1.886801	6.442501	-21.572034	6.442501	51962.25	-1.474679E-10	-6.781138E+9	13.866355	0.126072	0	0
0	0	0	1.884065	6.442338	-21.575101	6.442338	51904.75	1.421217E-9	7.036221E+8	13.867141	0.125358	0	0
0	0	0	1.88284	6.44226	-21.576456	6.44226	51879	2.33154E-10	4.289011E+9	13.758869	0.124974	0	0
0	0	0	1.878389	6.442217	-21.582258	6.442217	51785.5	1.598526E-10	6.255761E+9	13.823739	0.124009	0	0
0	0	0	1.877695	6.442267	-21.583367	6.442267	51770.75	2.518013E-10	3.971385E+9	13.645596	0.123851	0	0
0	0	0	1.87553	6.442345	-21.586548	6.442345	51725.5	2.637266E-9	3.791806E+8	13.729035	0.123031	0	0
0	0	0	1.873979	6.442359	-21.588676	6.442359	51693	-3.63965E-9	-2.747517E+8	13.572213	0.122714	0	0
0	0	0	1.871978	6.442416	-21.591561	6.442416	51651	-3.455681E-10	-2.893786E+9	13.68135	0.121894	0	0
0	0	0	1.869895	6.442366	-21.594167	6.442366	51607.5	-1.658831E-9	-6.028341E+8	13.512702	0.121563	0	0
0	0	0	1.870058	6.442246	-21.593509	6.442246	51610.75	2.013484E-10	4.966516E+9	13.572108	0.120902	0	0
0	0	0	1.869854	6.442366	-21.594221	6.442366	51606.5	-1.658799E-9	-6.028458E+8	13.517844	0.120281	0	0
0	0	0	1.868915	6.442373	-21.595504	6.442373	51587	-1.074309E-9	-9.308311E+8	13.453484	0.12003	0	0
0	0	0	1.868792	6.442629	-21.596599	6.442629	51584.25	-7.85498E-11	-1.273078E+10	13.479168	0.119197	0	0
0	0	0	1.86818	6.442451	-21.596772	6.442451	51571.5	-2.203844E-10	-4.537526E+9	13.3676	0.119038	0	0
0	0	0	1.866628	6.442423	-21.598745	6.442423	51539.25	-3.097777E-10	-3.228121E+9	13.484522	0.118152	0	0
0	0	0	1.86426	6.44243	-21.601941	6.44243	51489.5	-2.80929E-10	-3.559618E+9	13.320426	0.117809	0	0
0	0	0	1.8643	6.44243	-21.601886	6.44243	51490.5	-2.809344E-10	-3.559549E+9	13.441176	0.117055	0	0
0	0	0	1.861238	6.442473	-21.60614	6.442473	51426.5	-1.806143E-10	-5.536661E+9	13.288653	0.116764	0	0
0	0	0	1.860094	6.442231	-21.606791	6.442231	51402.75	1.771643E-10	5.644478E+9	13.30742	0.116249	0	0
0	0	0	1.861769	6.442544	-21.605688	6.442544	51437.75	-1.133461E-10	-8.822535E+9	13.295507	0.115561	0	0
0	0	0	1.861074	6.442423	-21.606177	6.442423	51423.25	-3.090805E-10	-3.235403E+9	13.172364	0.115323	0	0
0	0	0	1.86283	6.442473	-21.604008	6.442473	51459.75	-1.80731E-10	-5.533084E+9	13.248216	0.11449	0	0
0	0	0	1.861932	6.442324	-21.604668	6.442324	51441	7.313466E-10	1.367341E+9	13.049618	0.114371	0	0
0	0	0	1.862626	6.442338	-21.60379	6.442338	51455.5	1.408916E-9	7.097653E+8	13.153622	0.113512	0	0
0	0	0	1.862871	6.442253	-21.603152	6.442253	51460.5	2.149403E-10	4.652454E+9	12.97524	0.1133	0	0
0	0	0	1.862953	6.442551	-21.604129	6.442551	51462.25	-1.093268E-10	-9.146887E+9	13.0111	0.112626	0	0
0	0	0	1.866832	6.442182	-21.597593	6.442182	51543.25	1.261775E-10	7.925341E+9	12.975031	0.112097	0	0
0	0	0	1.867404	6.442444	-21.597785	6.442444	51555.25	-2.374734E-10	-4.210997E+9	12.893283	0.112005	0	0
0	0	0	1.869446	6.442345	-21.59469	6.442345	51598	2.630765E-9	3.801176E+8	13.000096	0.110974	0	0
0	0	0	1.870385	6.442494	-21.593976	6.442494	51617.75	-1.538738E-10	-6.498834E+9	12.825279	0.11096	0	0
0	0	0	1.872141	6.442324	-21.591006	6.442324	51654.5	7.34382E-10	1.361689E+9	12.936802	0.110141	0	0
0	0	0	1.871814	6.442274	-21.591262	6.442274	51647.5	2.73711E-10	3.653488E+9	12.818973	0.109718	0	0
0	0	0	1.874346	6.442231	-21.587719	6.442231	51700.5	1.781905E-10	5.61197E+9	12.823281	0.109268	0	0
0	0	0	1.874265	6.442416	-21.588501	6.442416	51699	-3.458892E-10	-2.891099E+9	12.796812	0.108686	0	0
0	0	0	1.876674	6.442317	-21.584915	6.442317	51749.5	5.931488E-10	1.685918E+9	12.701248	0.108409	0	0
0	0	0	1.877409	6.442572	-21.584861	6.442572	51764.75	-9.927203E-11	-1.007333E+10	12.767272	0.107602	0	0
0	0	0	1.876225	6.4426	-21.58655	6.4426	51740	-8.783254E-11	-1.13853E+10	12.571568	0.107629	0	0
0	0	0	1.877246	6.442324	-21.584175	6.442324	51761.5	7.359032E-10	1.358874E+9	12.66058	0.106743	0	0
0	0	0	1.877491	6.442246	-21.583563	6.442246	51766.5	2.01956E-10	4.951574E+9	12.536238	0.106439	0	0
0	0	0	1.878716	6.442529	-21.582958	6.442529	51792.25	-1.233163E-10	-8.109231E+9	12.511386	0.106108	0	0
0	0	0	1.883943	6.442203	-21.574774	6.442203	51902.25	1.4507E-10	6.893223E+9	12.52094	0.105328	0	0
0	0	0	1.885821	6.442437	-21.573113	6.442437	51941.75	-2.59461E-10	-3.854144E+9	12.383634	0.105196	0	0
0	0	0	1.886556	6.442317	-21.57169	6.442317	51957.25	5.9553E-10	1.679177E+9	12.530488	0.10431	0	0
0	0	0	1.885005	6.442537	-21.574568	6.442537	51924.5	-1.188467E-10	-8.414204E+9	12.379219	0.104059	0	0
0	0	0	1.885372	6.442387	-21.573533	6.442387	51932.25	-6.345984E-10	-1.5758E+9	12.384754	0.103715	0	0
0	0	0	1.883167	6.442309	-21.5762	6.442309	51885.75	4.981665E-10	2.007361E+9	12.376801	0.103028	0	0
0	0	0	1.881738	6.44243	-21.578552	6.44243	51855.75	-2.829273E-10	-3.534477E+9	0	0	0	0
0	0	0	1.880431	6.442529	-21.580663	6.442529	51828.25	-1.23402E-10	-8.103598E+9	0	0	0	0
0	0	0	1.880758	6.442444	-21.579915	6.442444	51835.25	-2.387632E-10	-4.188251E+9	0	0	0	0
0	0	0	1.877776	6.442387	-21.583698	6.442387	51772.5	-6.326463E-10	-1.580662E+9	0	0	0	0
0	0	0	1.875775	6.442359	-21.586272	6.442359	51730.5	-3.64229E-9	-2.745525E+8	0	0	0	0
0	0	0	1.874673	6.442678	-21.588911	6.442678	51707.5	-6.671386E-11	-1.498939E+10	0	0	0	0
0	0	0	1.873244	6.442288	-21.589401	6.442288	51677.5	3.336669E-10	2.997E+9	0	0	0	0
0	0	0	1.870303	6.442238	-21.593155	6.442238	51616	1.889079E-10	5.293584E+9	0	0	0	0
0	0	0	1.869568	6.442508	-21.595121	6.442508	51600.5	-1.39736E-10	-7.15635E+9	0	0	0	0
0	0	0	1.868057	6.442395	-21.596729	6.442395	51569	-5.222555E-10	-1.914772E+9	0	0	0	0
0	0	0	1.868302	6.442309	-21.596091	6.442309	51574	4.951734E-10	2.019495E+9	0	0	0	0
0	0	0	1.867281	6.442444	-21.597949	6.442444	51552.75	-2.374619E-10	-4.211201E+9	0	0	0	0
0	0	0	1.866097	6.442529	-21.599844	6.442529	51528	-1.226871E-10	-8.150817E+9	0	0	0	0
0	0	0	1.866138	6.442324	-21.599039	6.442324	51528.75	7.325941E-10	1.365012E+9	0	0	0	0
0	0	0	1.865566	6.442317	-21.599778	6.442317	51517	5.904839E-10	1.693526E+9	0	0	0	0
0	0	0	1.863647	6.442295	-21.602269	6.442295	51476.75	3.731025E-10	2.680229E+9	0	0	0	0
0	0	0	1.861687	6.442359	-21.605125	6.442359	51436	-3.621555E-9	-2.761245E+8	0	0	0	0
0	0	0	1.860176	6.442501	-21.607664	6.442501	51404.5	-1.45885E-10	-6.854715E+9	0	0	0	0
0	0	0	1.860666	6.442551	-21.607189	6.442551	51414.75	-1.092259E-10	-9.155337E+9	0	0	0	0
0	0	0	1.859563	6.44226	-21.607604	6.44226	51391.75	2.309642E-10	4.329675E+9	0	0	0	0
0	0	0	1.859686	6.442501	-21.60832	6.442501	51394.25	-1.458559E-10	-6.856082E+9	0	0	0	0
0	0	0	1.860748	0	1.860748	0	51416.25	0	0	0	0	0	0
0	0	0	1.860135	0	1.860135	0	51403.5	0	0	0	0	0	0
