Vload_(V)	ILoad_(A)	RsLoad (ohm)	SunsVoc_Voltage_(V)	SunsVoc_Current_(A)	Model_Voltage_(V)	Model_Current_(A)	Carrier_Density_(cm-3)	Lifetime_(s)	Inverse_Lifetime_(s-1)	Efficiency_(%)	Intensity_(suns)	Dark_IV_Voltage_(V)	Dark_IV_Current_(A)
2.99343	6.39951	0	65.064268	-0.769639	65.263685	-0.769639	3.882965E+15	0.000227	4373.214257	19.62726	1.108946	0	0
3.018082	6.401883	-0.496615	65.026861	-0.547581	65.169949	-0.547581	3.848722E+15	0.000233	4275.342951	19.62096	1.10723	0	0
7.219695	6.387646	6.278371	64.894918	-0.180605	64.943516	-0.180605	3.730045E+15	0.000238	4179.275776	19.639804	1.103916	0	0
12.114664	6.359948	6.1854	64.735247	0.23836	64.668867	0.23836	3.590734E+15	0.000245	4066.057835	19.615532	1.100813	0	0
16.787327	6.356556	5.491188	64.560875	0.652203	64.372545	0.652203	3.443819E+15	0.000252	3955.880218	19.538061	1.099229	0	0
21.555907	6.354736	4.761106	64.384869	1.045814	64.072037	1.045814	3.300875E+15	0.000259	3845.580106	19.561602	1.097513	0	0
26.791035	6.269911	4.455545	64.203065	1.421978	63.762482	1.421978	3.158669E+15	0.000266	3737.356953	19.625626	1.095453	0	0
31.659239	6.265943	3.694108	64.02322	1.764859	63.457702	1.764859	3.023256E+15	0.000274	3636.712904	19.596765	1.093367	0	0
36.53789	6.261389	2.931872	63.847256	2.07774	63.159942	2.07774	2.895651E+15	0.000281	3541.497915	19.561696	1.090079	0	0
41.055741	6.322097	1.943414	63.672924	2.367699	62.865377	2.367699	2.773836E+15	0.000289	3449.764608	19.584784	1.085564	0	0
45.868098	6.299472	1.296002	63.505617	2.628361	62.58326	2.628361	2.661098E+15	0.000296	3364.132031	19.603581	1.080732	0	0
47.280719	6.285676	1.129356	63.338636	2.86717	62.304272	2.86717	2.552517E+15	0.000303	3285.804121	19.543147	1.076824	0	0
48.676168	6.259709	0.998849	63.173615	3.085893	62.030345	3.085893	2.448954E+15	0.00031	3213.313795	19.5349	1.072691	0	0
50.078725	6.217388	0.89321	63.015455	3.28756	61.76684	3.28756	2.35308E+15	0.000317	3141.246281	19.580557	1.068941	0	0
51.508245	6.150824	0.804078	62.854314	3.477403	61.500586	3.477403	2.258699E+15	0.000324	3073.389712	19.586469	1.065086	0	0
52.917214	6.053903	0.727018	62.699217	3.6564	61.242399	3.6564	2.17091E+15	0.000332	3002.245035	19.551479	1.060531	0	0
54.317668	5.910475	0.661553	62.537504	3.825763	60.976761	3.825763	2.082468E+15	0.00034	2936.968019	19.557274	1.055223	0	0
55.696356	5.700177	0.607103	62.378894	3.983585	60.716546	3.983585	1.998698E+15	0.000347	2872.831204	19.593335	1.049889	0	0
57.056861	5.393584	0.563101	62.218366	4.129612	60.456028	4.129612	1.916821E+15	0.000354	2814.878849	19.552422	1.045018	0	0
58.402925	4.965679	0.526047	62.063472	4.263298	60.205182	4.263298	1.840511E+15	0.000362	2759.286721	19.532364	1.039829	0	0
59.694389	4.397865	0.494975	61.909355	4.387615	59.957042	4.387615	1.767128E+15	0.000369	2706.958589	19.572506	1.034666	0	0
60.959188	3.659571	0.466738	61.756177	4.504323	59.711288	4.504323	1.696635E+15	0.000376	2656.182667	19.590823	1.029887	0	0
62.135159	2.779815	0.446398	61.602101	4.614378	59.465365	4.614378	1.628117E+15	0.000383	2607.518997	19.551039	1.025226	0	0
63.223077	1.798301	0.443641	61.451373	4.716301	59.225563	4.716301	1.563337E+15	0.00039	2560.783194	19.553041	1.019206	0	0
64.105084	0.872392	0.454506	61.301135	4.810965	58.988071	4.810965	1.50092E+15	0.000397	2517.516465	19.587064	1.012776	0	0
53.699871	5.983047	0.686578	61.150081	4.899349	58.750925	4.899349	1.440268E+15	0.000403	2477.800274	19.568901	1.006808	0	0
64.843802	0	0	60.998781	4.982213	58.514641	4.982213	1.381575E+15	0.000409	2440.607749	19.531796	1.001038	0	0
0	0	0	60.852096	5.060573	58.285156	5.060573	1.326582E+15	0.000416	2401.447516	19.565651	0.994793	0	0
0	0	0	60.705819	5.134993	58.056881	5.134993	1.273563E+15	0.000423	2362.567419	19.597862	0.988839	0	0
0	0	0	60.558603	5.204505	57.828672	5.204505	1.221991E+15	0.000429	2327.097328	19.548414	0.983214	0	0
0	0	0	60.407876	5.269558	57.597031	5.269558	1.170993E+15	0.000435	2296.414114	19.546558	0.976996	0	0
0	0	0	60.266377	5.330657	57.378507	5.330657	1.124736E+15	0.000442	2261.722743	19.586222	0.970592	0	0
0	0	0	60.124878	5.387408	57.161356	5.387408	1.080003E+15	0.000448	2230.476386	19.582908	0.964572	0	0
0	0	0	59.984808	5.440748	56.947051	5.440748	1.037183E+15	0.000454	2200.280616	19.534204	0.958987	0	0
0	0	0	59.845719	5.490824	56.735012	5.490824	9.960645E+14	0.00046	2171.560009	19.56368	0.953072	0	0
0	0	0	59.70859	5.539037	56.525822	5.539037	9.568576E+14	0.000467	2140.702961	19.595276	0.947791	0	0
0	0	0	59.571011	5.583634	56.317365	5.583634	9.188171E+14	0.000473	2113.889395	19.555314	0.943302	0	0
0	0	0	59.43719	5.625983	56.114514	5.625983	8.83028E+14	0.000479	2085.482741	19.545972	0.938417	0	0
0	0	0	59.295119	5.665362	55.901771	5.665362	8.463075E+14	0.000484	2065.285771	19.593546	0.933083	0	0
0	0	0	59.16142	5.702518	55.700903	5.702518	8.129192E+14	0.00049	2041.369982	19.59513	0.928224	0	0
0	0	0	59.029069	5.73692	55.502946	5.73692	7.809545E+14	0.000495	2020.116088	19.54968	0.923378	0	0
0	0	0	58.900597	5.769242	55.310944	5.769242	7.509355E+14	0.0005	1998.452136	19.565167	0.918176	0	0
0	0	0	58.767511	5.800187	55.11313	5.800187	7.208599E+14	0.000505	1979.682675	19.602272	0.913054	0	0
0	0	0	58.640182	5.829241	54.923771	5.829241	6.930346E+14	0.00051	1959.398103	19.561633	0.908565	0	0
0	0	0	58.510771	5.856836	54.732117	5.856836	6.656812E+14	0.000515	1941.258086	19.543539	0.903878	0	0
0	0	0	58.381972	5.883127	54.541718	5.883127	6.393622E+14	0.00052	1923.296758	19.592439	0.898517	0	0
0	0	0	58.256359	5.908021	54.356137	5.908021	6.145419E+14	0.000525	1904.558961	19.589307	0.89354	0	0
0	0	0	58.125559	5.930977	54.164482	5.930977	5.895641E+14	0.000528	1892.5677	19.543845	0.888813	0	0
0	0	0	58.003458	5.952799	53.984988	5.952799	5.670259E+14	0.000533	1876.182129	19.561846	0.883413	0	0
0	0	0	57.879274	5.973566	53.803085	5.973566	5.448551E+14	0.000537	1861.791045	19.601557	0.878528	0	0
0	0	0	57.755376	5.9932	53.622046	5.9932	5.23472E+14	0.000541	1848.551949	19.578762	0.873973	0	0
0	0	0	57.631314	6.011934	53.441126	6.011934	5.027796E+14	0.000545	1835.921545	19.540285	0.869167	0	0
0	0	0	57.507947	6.029679	53.26157	6.029679	4.82898E+14	0.000548	1824.02315	19.586036	0.863714	0	0
0	0	0	57.387928	6.046361	53.087053	6.046361	4.642044E+14	0.000552	1811.91295	19.581031	0.858855	0	0
0	0	0	57.262723	6.062482	52.905666	6.062482	4.453669E+14	0.000555	1802.368707	19.553464	0.853812	0	0
0	0	0	57.145522	6.077399	52.735784	6.077399	4.283322E+14	0.000558	1791.123169	19.552989	0.848768	0	0
0	0	0	57.022155	6.091787	52.557704	6.091787	4.110104E+14	0.000561	1783.25612	19.590077	0.843645	0	0
0	0	0	56.900339	6.105666	52.381902	6.105666	3.945034E+14	0.000564	1774.096771	19.556583	0.839341	0	0
0	0	0	56.781096	6.118485	52.210193	6.118485	3.789042E+14	0.000566	1766.57049	19.531021	0.834443	0	0
0	0	0	56.660792	6.131024	52.03707	6.131024	3.637119E+14	0.000569	1758.266564	19.587419	0.829003	0	0
0	0	0	56.547879	6.142326	51.874777	6.142326	3.499386E+14	0.000571	1750.55789	19.574327	0.824514	0	0
0	0	0	56.428268	6.154039	51.702892	6.154039	3.358474E+14	0.000574	1740.949901	19.52066	0.819906	0	0
0	0	0	56.310414	6.164453	51.534243	6.164453	3.22452E+14	0.000576	1736.358369	19.549747	0.814836	0	0
0	0	0	56.197297	6.174806	51.371957	6.174806	3.10039E+14	0.000579	1726.345798	19.582741	0.810044	0	0
0	0	0	56.076339	6.184293	51.199519	6.184293	2.972334E+14	0.00058	1724.711592	19.537528	0.805964	0	0
0	0	0	55.967713	6.193377	51.044098	6.193377	2.861344E+14	0.000583	1716.00261	19.522322	0.801185	0	0
0	0	0	55.847449	6.202267	50.872826	6.202267	2.742764E+14	0.000584	1712.997465	19.562858	0.796299	0	0
0	0	0	55.735353	6.210637	50.713003	6.210637	2.636193E+14	0.000586	1706.618896	19.55554	0.791982	0	0
0	0	0	55.624278	6.218485	50.554891	6.218485	2.534252E+14	0.000588	1701.515321	19.49949	0.78777	0	0
0	0	0	55.509649	6.225828	50.392235	6.225828	2.432762E+14	0.000588	1700.610794	19.535792	0.782793	0	0
0	0	0	55.398655	6.233062	50.23454	6.233062	2.337981E+14	0.00059	1695.856627	19.562934	0.778317	0	0
0	0	0	55.284395	6.240141	50.072411	6.240141	2.243894E+14	0.000591	1691.823228	19.503886	0.774277	0	0
0	0	0	55.171849	6.246883	49.912817	6.246883	2.154573E+14	0.000593	1687.421873	19.511964	0.769643	0	0
0	0	0	55.061182	6.253013	49.756224	6.253013	2.069893E+14	0.000593	1685.921246	19.548386	0.765127	0	0
0	0	0	54.948269	6.259112	49.596503	6.259112	1.986619E+14	0.000594	1683.463785	19.535971	0.760942	0	0
0	0	0	54.835927	6.264716	49.437909	6.264716	1.906803E+14	0.000594	1683.921049	19.474522	0.756875	0	0
0	0	0	54.727914	6.27028	49.285204	6.27028	1.832833E+14	0.000595	1679.573493	19.519088	0.752122	0	0
0	0	0	54.611693	6.275392	49.121581	6.275392	1.756182E+14	0.000594	1683.547132	19.536364	0.747884	0	0
0	0	0	54.505396	6.280434	48.971545	6.280434	1.688662E+14	0.000595	1679.749167	19.472719	0.744082	0	0
0	0	0	54.388807	6.285438	48.807378	6.285438	1.617357E+14	0.000595	1680.098625	19.476374	0.739619	0	0
0	0	0	54.280713	6.290059	48.655126	6.290059	1.553738E+14	0.000596	1678.051329	19.511832	0.735222	0	0
0	0	0	54.167841	6.294547	48.496385	6.294547	1.489783E+14	0.000596	1678.322957	19.479576	0.731486	0	0
0	0	0	54.059134	6.298623	48.34367	6.298623	1.430502E+14	0.000595	1680.000797	19.461539	0.727208	0	0
0	0	0	53.947364	6.302937	48.186485	6.302937	1.371842E+14	0.000596	1676.928859	19.507154	0.722706	0	0
0	0	0	53.842046	6.306515	48.03877	6.306515	1.318626E+14	0.000595	1679.978832	19.492752	0.718798	0	0
0	0	0	53.726601	6.310514	47.876729	6.310514	1.262509E+14	0.000596	1679.2074	19.42693	0.715022	0	0
0	0	0	53.621692	6.314039	47.729529	6.314039	1.213459E+14	0.000596	1677.873481	19.454936	0.710559	0	0
0	0	0	53.508901	6.317206	47.571809	6.317206	1.162721E+14	0.000593	1686.206929	19.4972	0.706466	0	0
0	0	0	53.401174	6.320609	47.420772	6.320609	1.116128E+14	0.000594	1683.970326	19.431118	0.703139	0	0
0	0	0	53.292794	6.323523	47.269262	6.323523	1.07103E+14	0.000592	1690.082068	19.430976	0.698782	0	0
0	0	0	53.184006	6.32663	47.116967	6.32663	1.027495E+14	0.000592	1689.646671	19.472223	0.69457	0	0
0	0	0	53.073257	6.329408	46.962261	6.329408	9.848985E+13	0.00059	1695.541488	19.431154	0.691283	0	0
0	0	0	52.966224	6.33222	46.812586	6.33222	9.453248E+13	0.00059	1695.656227	19.400311	0.687111	0	0
0	0	0	52.852208	6.334651	46.653661	6.334651	9.048314E+13	0.000586	1707.547291	19.434247	0.683163	0	0
0	0	0	52.745666	6.337391	46.504661	6.337391	8.684874E+13	0.000587	1703.855844	19.4501	0.679268	0	0
0	0	0	52.631854	6.339581	46.346188	6.339581	8.312017E+13	0.000582	1717.520226	19.381774	0.675901	0	0
0	0	0	52.52233	6.341966	46.193381	6.341966	7.967667E+13	0.000581	1720.440403	19.399166	0.671624	0	0
0	0	0	52.409907	6.344444	46.036467	6.344444	7.628406E+13	0.000582	1719.572641	19.432211	0.667861	0	0
0	0	0	52.300588	6.34666	45.884049	6.34666	7.311806E+13	0.000581	1721.837288	19.386112	0.664349	0	0
0	0	0	52.185551	6.348423	45.724207	6.348423	6.992271E+13	0.000575	1740.433469	19.364385	0.660559	0	0
0	0	0	52.07664	6.350574	45.572362	6.350574	6.702143E+13	0.000575	1739.321099	19.402593	0.656427	0	0
0	0	0	51.959643	6.352473	45.409638	6.352473	6.403389E+13	0.000571	1749.831181	19.367879	0.653311	0	0
0	0	0	51.854285	6.354213	45.263047	6.354213	6.145368E+13	0.00057	1755.844554	19.325776	0.649535	0	0
0	0	0	51.736838	6.355917	45.099858	6.355917	5.869569E+13	0.000565	1769.192571	19.390319	0.64531	0	0
0	0	0	51.614696	6.357673	44.930136	6.357673	5.595442E+13	0.000561	1781.108776	19.377492	0.642009	0	0
0	0	0	51.500517	6.359525	44.771235	6.359525	5.350419E+13	0.000562	1780.259072	19.318963	0.638471	0	0
0	0	0	51.382867	6.36102	44.607916	6.36102	5.108833E+13	0.000557	1794.726009	19.334243	0.634668	0	0
0	0	0	51.273262	6.362478	44.455676	6.362478	4.893312E+13	0.000555	1802.763991	19.381017	0.630721	0	0
0	0	0	51.15361	6.36369	44.289872	6.36369	4.668121E+13	0.000547	1827.91593	19.322959	0.62771	0	0
0	0	0	51.03351	6.365317	44.122981	6.365317	4.452234E+13	0.000547	1829.493288	19.313773	0.623789	0	0
0	0	0	50.919045	6.366551	43.964246	6.366551	4.255542E+13	0.000542	1844.966339	19.335428	0.620185	0	0
0	0	0	50.802538	6.367838	43.802628	6.367838	4.064049E+13	0.000539	1856.437185	19.317064	0.617003	0	0
0	0	0	50.689707	6.369009	43.646175	6.369009	3.886624E+13	0.000535	1869.401352	19.269862	0.613596	0	0
0	0	0	50.569116	6.370486	43.478695	6.370486	3.705365E+13	0.000536	1865.893326	19.326919	0.609728	0	0
0	0	0	50.454488	6.371404	43.320022	6.371404	3.540744E+13	0.000529	1890.92744	19.308351	0.60648	0	0
0	0	0	50.334428	6.372305	43.153883	6.372305	3.376001E+13	0.000521	1919.578258	19.232962	0.603351	0	0
0	0	0	50.211592	6.373434	42.983656	6.373434	3.215224E+13	0.000518	1931.986114	19.273319	0.599535	0	0
0	0	0	50.094963	6.37459	42.821917	6.37459	3.069533E+13	0.000517	1933.933086	19.286264	0.596353	0	0
0	0	0	49.969349	6.375173	42.648464	6.375173	2.919864E+13	0.000504	1985.545369	19.24328	0.593145	0	0
0	0	0	49.839938	6.376354	42.469086	6.376354	2.77317E+13	0.000503	1989.094769	19.228928	0.589778	0	0
0	0	0	49.717469	6.377089	42.299759	6.377089	2.64103E+13	0.000494	2022.329725	19.263762	0.586319	0	0
0	0	0	49.588262	6.378022	42.12092	6.378022	2.508335E+13	0.00049	2040.666487	19.207698	0.583612	0	0
0	0	0	49.458565	6.378776	41.941604	6.378776	2.381744E+13	0.000482	2073.738504	19.183136	0.580325	0	0
0	0	0	49.326418	6.379824	41.758556	6.379824	2.25924E+13	0.000482	2075.711428	19.248301	0.576707	0	0
0	0	0	49.194924	6.380672	41.57663	6.380672	2.143514E+13	0.000478	2093.52221	19.207077	0.574027	0	0
0	0	0	49.055426	6.381115	41.384165	6.381115	2.027136E+13	0.000463	2161.67604	19.154304	0.570885	0	0
0	0	0	48.920176	6.381967	41.19704	6.381967	1.920266E+13	0.00046	2176.187452	19.196695	0.567544	0	0
0	0	0	48.776635	6.382637	40.998718	6.382637	1.812933E+13	0.000451	2217.007997	19.200604	0.564481	0	0
0	0	0	48.633299	6.383328	40.800639	6.383328	1.711676E+13	0.000444	2251.963894	19.128096	0.561748	0	0
0	0	0	48.483755	6.383677	40.59443	6.383677	1.611998E+13	0.000427	2339.678144	19.155463	0.558355	0	0
0	0	0	48.332292	6.384678	40.384762	6.384678	1.516899E+13	0.000429	2329.195348	19.16749	0.555332	0	0
0	0	0	48.171192	6.384858	40.162843	6.384858	1.421845E+13	0.000407	2454.787382	19.099944	0.552625	0	0
0	0	0	48.012133	6.385449	39.943211	6.385449	1.333792E+13	0.000398	2511.320741	19.100425	0.549364	0	0
0	0	0	47.839966	6.386367	39.705111	6.386367	1.244569E+13	0.000398	2515.537158	19.161899	0.546063	0	0
0	0	0	47.659673	6.386601	39.456687	6.386601	1.15748E+13	0.000376	2656.721152	19.087544	0.543673	0	0
0	0	0	47.472355	6.387365	39.197905	6.387365	1.073404E+13	0.000371	2695.28856	19.057685	0.540716	0	0
0	0	0	47.280015	6.387776	38.932654	6.387776	9.933837E+12	0.000355	2813.876512	19.119004	0.537349	0	0
0	0	0	47.081672	6.388442	38.658795	6.388442	9.17073E+12	0.000348	2874.934114	19.054697	0.534841	0	0
0	0	0	46.876182	6.388563	38.37581	6.388563	8.441569E+12	0.000324	3089.117649	19.034614	0.53187	0	0
0	0	0	46.657665	6.389204	38.074193	6.389204	7.72937E+12	0.000315	3176.043342	19.066289	0.528807	0	0
0	0	0	46.426898	6.389831	37.755718	6.389831	7.042082E+12	0.000305	3274.132378	19.054278	0.525968	0	0
0	0	0	46.182817	6.390338	37.419064	6.390338	6.381265E+12	0.000292	3423.79588	18.979394	0.523446	0	0
0	0	0	45.921872	6.390407	37.059789	6.390407	5.742972E+12	0.000265	3775.746081	19.026302	0.520027	0	0
0	0	0	45.639323	6.391033	36.669995	6.391033	5.123393E+12	0.000254	3941.194627	19.030411	0.517452	0	0
0	0	0	45.335785	6.391422	36.251624	6.391422	4.531846E+12	0.000235	4251.44966	18.95357	0.515023	0	0
0	0	0	45.008275	6.391997	35.799973	6.391997	3.969755E+12	0.000222	4508.329045	18.981951	0.511814	0	0
0	0	0	44.656632	6.391901	35.316056	6.391901	3.443443E+12	0.00019	5263.411517	18.999648	0.508989	0	0
0	0	0	44.279628	6.392486	34.796226	6.392486	2.956283E+12	0.000177	5659.247042	18.926159	0.506454	0	0
0	0	0	43.881431	6.392977	34.247336	6.392977	2.516253E+12	0.000162	6184.442976	18.929851	0.503576	0	0
0	0	0	43.464775	6.393179	33.673454	6.393179	2.125684E+12	0.000141	7094.271863	18.986339	0.5005	0	0
0	0	0	43.021657	6.393622	33.062759	6.393622	1.776529E+12	0.000127	7894.303804	18.90007	0.498453	0	0
0	0	0	42.561061	6.393891	32.428255	6.393891	1.474197E+12	0.00011	9078.335126	18.887462	0.49535	0	0
0	0	0	42.067061	6.394319	31.747493	6.394319	1.206833E+12	9.760422E-5	10245.458402	18.919165	0.492538	0	0
0	0	0	41.565424	6.394575	31.056474	6.394575	9.848765E+11	8.379172E-5	11934.35365	18.877619	0.490135	0	0
0	0	0	41.051578	6.39484	30.348617	6.39484	7.997534E+11	7.190233E-5	13907.755879	18.843518	0.487376	0	0
0	0	0	40.511391	6.395018	29.60463	6.395018	6.425174E+11	6.004573E-5	16653.974595	18.905636	0.484471	0	0
0	0	0	39.948214	6.395381	28.828655	6.395381	5.11397E+11	5.200017E-5	19230.707458	18.847722	0.4822	0	0
0	0	0	39.36033	6.395677	28.018761	6.395677	4.029721E+11	4.414088E-5	22654.737955	18.791829	0.479546	0	0
0	0	0	38.756643	6.395983	27.187071	6.395983	3.155029E+11	3.755349E-5	26628.687007	18.847424	0.476642	0	0
0	0	0	38.134947	6.396199	26.330729	6.396199	2.4522E+11	3.109806E-5	32156.347515	18.808871	0.474463	0	0
0	0	0	37.500877	6.396264	25.45762	6.396264	1.896381E+11	2.453049E-5	40765.593266	18.76636	0.471717	0	0
0	0	0	36.853617	6.396439	24.566136	6.396439	1.458712E+11	1.994145E-5	50146.804923	18.783753	0.468918	0	0
0	0	0	36.194433	6.396639	23.65817	6.396639	1.116635E+11	1.633009E-5	61236.637874	18.781073	0.466475	0	0
0	0	0	35.507725	6.396711	22.71255	6.396711	8.45288E+10	1.26787E-5	78872.413041	18.701347	0.464257	0	0
0	0	0	34.804396	6.397098	21.743397	6.397098	6.355795E+10	1.106275E-5	90393.419078	18.751864	0.461221	0	0
0	0	0	34.080119	6.396906	20.746573	6.396906	4.738546E+10	7.640401E-6	130883.176037	18.75914	0.45895	0	0
0	0	0	33.339629	6.397171	19.726474	6.397171	3.509656E+10	6.299621E-6	158739.710169	18.674975	0.456652	0	0
0	0	0	32.573902	6.397392	18.671697	6.397392	2.572999E+10	5.101793E-6	196009.525603	18.709678	0.453787	0	0
0	0	0	31.800988	6.397486	17.607287	6.397486	1.880825E+10	3.902632E-6	256237.341533	18.718682	0.451239	0	0
0	0	0	31.020315	6.397573	16.532202	6.397573	1.370536E+10	2.970578E-6	336634.816942	18.63292	0.449179	0	0
0	0	0	30.228902	6.397821	15.441949	6.397821	9.943544E+9	2.471471E-6	404617.390533	18.651091	0.446446	0	0
0	0	0	29.425523	6.397512	14.33651	6.397512	7.179345E+9	1.508626E-6	662854.912013	18.685179	0.443964	0	0
0	0	0	28.607934	6.397837	13.21001	6.397837	5.153781E+9	1.293152E-6	773304.002238	18.599674	0.442089	0	0
0	0	0	27.77891	6.398112	12.067856	6.398112	3.682592E+9	1.105913E-6	904229.98244	18.608339	0.439172	0	0
0	0	0	26.946742	6.397943	10.922456	6.397943	2.628013E+9	7.042837E-7	1419882.421436	18.631638	0.436808	0	0
0	0	0	26.105386	6.398303	9.763074	6.398303	1.868459E+9	6.498252E-7	1538875.286737	18.549866	0.434881	0	0
0	0	0	25.267052	6.398268	8.608843	6.398268	1.330061E+9	4.495459E-7	2224466.745304	18.541188	0.432306	0	0
0	0	0	24.434312	6.398268	7.462227	6.398268	9.489525E+8	3.207753E-7	3117446.844174	18.605216	0.429745	0	0
0	0	0	23.599571	6.398268	6.312855	6.398268	6.764959E+8	2.286969E-7	4372599.370586	18.520373	0.427857	0	0
0	0	0	22.760135	6.398303	5.15692	6.398303	4.813477E+8	1.674839E-7	5970721.597455	18.508971	0.425322	0	0
0	0	0	21.950549	6.398486	4.041671	6.398486	3.466641E+8	1.422056E-7	7032073.260982	18.548221	0.422773	0	0
0	0	0	21.152725	6.398599	2.942799	6.398599	2.508589E+8	1.1564E-7	8647526.389507	18.446918	0.421136	0	0
0	0	0	20.373399	6.398824	1.869063	6.398824	1.828974E+8	1.120346E-7	8925815.167664	18.455765	0.418522	0	0
0	0	0	19.608571	6.39869	0.816323	6.39869	1.341338E+8	6.874588E-8	1.454633E+7	18.49237	0.416119	0	0
0	0	0	18.860322	6.398768	-0.214206	6.398768	9.903487E+7	5.605897E-8	1.783836E+7	18.436021	0.414152	0	0
0	0	0	18.135146	6.399	-1.21344	6.399	7.380752E+7	6.084278E-8	1.64358E+7	18.39877	0.411868	0	0
0	0	0	17.433165	6.398796	-2.179416	6.398796	5.552612E+7	3.267222E-8	3.060705E+7	18.443993	0.409372	0	0
0	0	0	16.744456	6.398733	-3.127539	6.398733	4.199822E+7	2.269637E-8	4.40599E+7	18.365679	0.407643	0	0
0	0	0	16.080208	6.39886	-4.042572	6.39886	3.208274E+7	2.071841E-8	4.826626E+7	18.346875	0.405253	0	0
0	0	0	15.442095	6.39893	-4.921448	6.39893	2.476931E+7	1.793867E-8	5.574549E+7	18.41785	0.402652	0	0
0	0	0	14.822482	6.399268	-5.775719	6.399268	1.926698E+7	3.346909E-8	2.987831E+7	18.319342	0.401253	0	0
0	0	0	14.219203	6.399141	-6.606009	6.399141	1.508654E+7	1.719112E-8	5.816957E+7	18.296267	0.398916	0	0
0	0	0	13.631074	6.399282	-7.416309	6.399282	1.188593E+7	2.192517E-8	4.560968E+7	18.344485	0.396433	0	0
0	0	0	13.07002	6.398831	-8.187372	6.398831	9467687.375	5.860206E-9	1.706425E+8	18.27946	0.394598	0	0
0	0	0	12.536082	6.399324	-8.924233	6.399324	7624812.125	1.727134E-8	5.789938E+7	18.250254	0.392446	0	0
0	0	0	12.019744	6.399099	-9.634459	6.399099	6184626.25	6.322392E-9	1.58168E+8	18.31024	0.390017	0	0
0	0	0	11.527418	6.399374	-10.313314	6.399374	5065539.875	1.563155E-8	6.397317E+7	18.226621	0.388366	0	0
0	0	0	11.05449	6.399289	-10.964239	6.399289	4181705.75	7.960071E-9	1.25627E+8	18.198241	0.386069	0	0
0	0	0	10.600754	6.399254	-11.588902	6.399254	3479050.125	5.710848E-9	1.751053E+8	18.240244	0.383851	0	0
0	0	0	10.164334	6.399254	-12.189844	6.399254	2914853	4.784723E-9	2.089985E+8	18.179404	0.382095	0	0
0	0	0	9.741879	6.399303	-12.771728	6.399303	2456019.125	4.99406E-9	2.002379E+8	18.160964	0.37993	0	0
0	0	0	9.339598	6.399374	-13.325911	6.399374	2086406.375	6.438394E-9	1.553182E+8	18.216853	0.377725	0	0
0	0	0	8.950262	6.399268	-13.861645	6.399268	1781744.5	3.09517E-9	3.23084E+8	18.131795	0.376048	0	0
0	0	0	8.579098	6.3995	-14.373563	6.3995	1532821.875	6.922983E-8	1.444464E+7	18.097763	0.373922	0	0
0	0	0	8.223983	6.399289	-14.861792	6.399289	1327283.75	2.526554E-9	3.957961E+8	18.150837	0.371585	0	0
0	0	0	7.879853	6.399564	-15.336649	6.399564	1154436.625	-8.961839E-9	-1.115842E+8	18.048635	0.370226	0	0
0	0	0	7.549975	6.399423	-15.790376	6.399423	1009917.375	4.887214E-9	2.046156E+8	18.056288	0.368034	0	0
0	0	0	7.230756	6.399402	-16.22986	6.399402	887316	3.453075E-9	2.89597E+8	18.106231	0.365842	0	0
0	0	0	6.92342	6.399465	-16.653292	6.399465	783363.375	7.38979E-9	1.353218E+8	18.022587	0.364297	0	0
0	0	0	6.629355	6.399444	-17.058137	6.399444	695320.375	4.447904E-9	2.24825E+8	18.006407	0.362238	0	0
0	0	0	6.345949	6.3995	-17.448594	6.3995	619845.5	2.79958E-8	3.571965E+7	18.024845	0.36002	0	0
0	0	0	6.072303	6.399564	-17.825639	6.399564	554754	-4.306522E-9	-2.32206E+8	17.931464	0.358567	0	0
0	0	0	5.807723	6.399465	-18.189596	6.399465	498326.25	4.700922E-9	2.127242E+8	17.946538	0.356349	0	0
0	0	0	5.55323	6.399599	-18.540535	6.399599	449472.375	-2.113347E-9	-4.73183E+8	17.992282	0.354448	0	0
0	0	0	5.306087	6.399472	-18.880371	6.399472	406618	4.556814E-9	2.194515E+8	17.878379	0.353062	0	0
0	0	0	5.064211	6.399599	-19.213912	6.399599	368636	-1.733267E-9	-5.76945E+8	17.915398	0.350712	0	0
0	0	0	4.823521	6.399831	-19.546228	6.399831	334362.375	-4.363935E-10	-2.29151E+9	17.917972	0.348929	0	0
0	0	0	4.590262	6.399557	-19.866379	6.399557	304190.5	-2.714916E-9	-3.683355E+8	17.814597	0.347384	0	0
0	0	0	4.372195	6.399486	-20.166387	6.399486	278451	5.000312E-9	1.999875E+8	17.839936	0.345417	0	0
0	0	0	4.162376	6.39943	-20.455088	6.39943	255743.375	1.346929E-9	7.424296E+8	17.860478	0.34345	0	0
0	0	0	3.950516	6.39955	-20.747279	6.39955	234693.25	-2.463425E-9	-4.059388E+8	17.772875	0.342156	0	0
0	0	0	3.751805	6.399585	-21.02104	6.399585	216527	-1.208726E-9	-8.273174E+8	17.831116	0.339727	0	0
0	0	0	3.560486	6.399782	-21.285252	6.399782	200366.375	-3.088341E-10	-3.237984E+9	17.789491	0.338248	0	0
0	0	0	3.374353	6.399782	-21.541559	6.399782	185802.25	-2.863858E-10	-3.491794E+9	17.702181	0.336611	0	0
0	0	0	3.189894	6.399704	-21.795258	6.399704	172413.75	-3.71358E-10	-2.69282E+9	17.744914	0.334525	0	0
0	0	0	3.016093	6.399613	-22.034224	6.399613	160682.75	-6.525746E-10	-1.532392E+9	17.699236	0.333152	0	0
0	0	0	2.837678	6.399775	-22.280537	6.399775	149470.125	-2.364996E-10	-4.228337E+9	17.6609	0.331263	0	0
0	0	0	2.669309	6.399648	-22.511884	6.399648	139607.375	-4.229317E-10	-2.364448E+9	17.699961	0.329468	0	0
0	0	0	2.504533	6.399627	-22.738697	6.399627	130585.5	-4.667516E-10	-2.142467E+9	17.661974	0.328016	0	0
0	0	0	2.346291	6.399472	-22.955984	6.399472	122470.625	1.372483E-9	7.286063E+8	17.587381	0.326233	0	0
0	0	0	2.188295	6.399711	-23.174493	6.399711	114871.5	-2.387922E-10	-4.187742E+9	17.665201	0.324055	0	0
0	0	0	2.034382	6.399697	-23.386376	6.399697	107922.375	-2.411641E-10	-4.146555E+9	17.556544	0.322959	0	0
0	0	0	1.885941	6.399873	-23.591481	6.399873	101618.875	-1.1723E-10	-8.530239E+9	17.558421	0.321018	0	0
0	0	0	1.737704	6.399719	-23.794987	6.399719	95691.375	-1.922188E-10	-5.202405E+9	17.608344	0.31917	0	0
0	0	0	1.594081	6.399761	-23.992925	6.399761	90278.5	-1.508504E-10	-6.629085E+9	17.48561	0.318047	0	0
0	0	0	1.45246	6.399754	-24.18791	6.399754	85240.875	-1.465398E-10	-6.824083E+9	17.514314	0.316014	0	0
0	0	0	1.313248	6.399944	-24.38037	6.399944	80563	-7.787143E-11	-1.284168E+10	17.511141	0.314284	0	0
0	0	0	1.177957	6.399782	-24.566017	6.399782	76263	-1.175478E-10	-8.507181E+9	17.399994	0.31307	0	0
0	0	0	1.042542	6.39988	-24.752881	6.39988	72188.875	-8.1698E-11	-1.22402E+10	17.443812	0.31101	0	0
0	0	0	0.913131	6.39969	-24.930315	6.39969	68499	-1.590289E-10	-6.288164E+9	17.450661	0.309558	0	0
0	0	0	0.781801	6.39981	-25.111641	6.39981	64947.125	-9.072405E-11	-1.102244E+10	17.36749	0.308145	0	0
0	0	0	0.654881	6.399895	-25.286754	6.399895	61689.625	-6.726212E-11	-1.486721E+10	17.433172	0.306099	0	0
0	0	0	0.530738	6.399761	-25.457158	6.399761	58661.5	-9.802012E-11	-1.020199E+10	17.357377	0.305016	0	0
0	0	0	0.409167	6.399761	-25.624562	6.399761	55840.25	-9.330597E-11	-1.071743E+10	17.289292	0.303405	0	0
0	0	0	0.290251	6.400035	-25.78943	6.400035	53211.875	-4.248065E-11	-2.354013E+10	17.352284	0.301478	0	0
0	0	0	0.184525	6.399873	-25.934356	6.399873	50979.125	-5.881076E-11	-1.700369E+10	17.268125	0.300421	0	0
0	0	0	0.091172	6.400056	-26.063652	6.400056	49085.75	-3.767325E-11	-2.654403E+10	17.252273	0.298599	0	0
0	0	0	0.013379	6.399719	-26.169393	6.399719	47561.75	-9.553903E-11	-1.046693E+10	17.310082	0.296962	0	0
0	0	0	-0.046324	6.399845	-26.252123	6.399845	46424.25	-5.804911E-11	-1.722679E+10	17.196362	0.295985	0	0
0	0	0	-0.074216	6.399965	-26.291021	6.399965	45902.25	-4.231076E-11	-2.363465E+10	17.206496	0.29415	0	0
0	0	0	-0.106558	6.399831	-26.335009	6.399831	45304.25	-5.912889E-11	-1.691221E+10	17.214957	0.292539	0	0
0	0	0	-0.124322	6.400148	-26.360769	6.400148	44979.125	-2.957239E-11	-3.381533E+10	17.080309	0.291562	0	0
0	0	0	-0.130652	6.399775	-26.367955	6.399775	44863.875	-7.098601E-11	-1.408728E+10	17.169973	0.289516	0	0
0	0	0	-0.133551	6.399761	-26.37189	6.399761	44811.125	-7.487691E-11	-1.335525E+10	17.142938	0.288354	0	0
0	0	0	-0.13641	6.399747	-26.375768	6.399747	44759.25	-7.923145E-11	-1.262125E+10	17.081306	0.286994	0	0
0	0	0	-0.138247	6.399852	-26.378732	6.399852	44726	-5.477677E-11	-1.825592E+10	17.155206	0.285	0	0
0	0	0	-0.139432	6.39974	-26.379901	6.39974	44704.5	-8.155603E-11	-1.226151E+10	17.02967	0.284116	0	0
0	0	0	-0.140289	6.399726	-26.381024	6.399726	44689	-8.684247E-11	-1.15151E+10	17.006117	0.28236	0	0
0	0	0	-0.142209	6.399937	-26.384533	6.399937	44654.125	-4.387356E-11	-2.279277E+10	17.029568	0.280802	0	0
0	0	0	-0.141106	6.399796	-26.382437	6.399796	44674.125	-6.547297E-11	-1.527348E+10	16.925255	0.279864	0	0
0	0	0	-0.14131	6.400042	-26.383729	6.400042	44670.5	-3.519059E-11	-2.841668E+10	16.972975	0.277976	0	0
0	0	0	-0.141392	6.399782	-26.382773	6.399782	44669	-6.885043E-11	-1.452424E+10	16.984457	0.276695	0	0
0	0	0	-0.141188	6.399986	-26.383329	6.399986	44672.625	-3.935211E-11	-2.54116E+10	16.872788	0.275732	0	0
0	0	0	-0.141596	6.399986	-26.383891	6.399986	44665.25	-3.934561E-11	-2.541579E+10	16.951923	0.273632	0	0
0	0	0	-0.140902	6.399789	-26.382127	6.399789	44677.875	-6.712862E-11	-1.489677E+10	16.868383	0.272774	0	0
0	0	0	-0.142168	6.399803	-26.383928	6.399803	44654.875	-6.387458E-11	-1.565568E+10	16.794208	0.271348	0	0
0	0	0	-0.141923	6.399711	-26.383215	6.399711	44659.375	-9.283685E-11	-1.077158E+10	16.866567	0.269539	0	0
0	0	0	-0.141637	6.399733	-26.382908	6.399733	44664.5	-8.405513E-11	-1.189695E+10	16.734325	0.268866	0	0
0	0	0	-0.142004	6.399669	-26.383154	6.399669	44657.875	-1.173929E-10	-8.518401E+9	16.765594	0.267018	0	0
0	0	0	-0.142209	6.399578	-26.38306	6.399578	44654.125	-2.750256E-10	-3.636025E+9	16.766826	0.265763	0	0
0	0	0	-0.142454	6.399747	-26.384091	6.399747	44649.75	-7.903762E-11	-1.26522E+10	16.697477	0.264562	0	0
0	0	0	-0.143311	6.399754	-26.3853	6.399754	44634.25	-7.673192E-11	-1.303239E+10	16.733763	0.263057	0	0
0	0	0	-0.144128	6.399831	-26.386743	6.399831	44619.375	-5.823503E-11	-1.71718E+10	16.693532	0.261961	0	0
0	0	0	-0.143434	6.399824	-26.385758	6.399824	44632	-5.955525E-11	-1.679113E+10	16.614652	0.260614	0	0
0	0	0	-0.143434	6.399986	-26.386422	6.399986	44632	-3.931632E-11	-2.543473E+10	16.676784	0.258937	0	0
0	0	0	-0.145761	6.399789	-26.388819	6.399789	44589.875	-6.69964E-11	-1.492617E+10	16.564719	0.258264	0	0
0	0	0	-0.144087	6.399888	-26.386917	6.399888	44620.125	-4.955702E-11	-2.017878E+10	16.577893	0.256535	0	0
0	0	0	-0.145231	6.399789	-26.388088	6.399789	44599.5	-6.701087E-11	-1.492295E+10	16.604099	0.25532	0	0
0	0	0	-0.145639	6.399972	-26.389401	6.399972	44592.125	-4.047734E-11	-2.470518E+10	16.465329	0.254369	0	0
0	0	0	-0.146374	6.399909	-26.390153	6.399909	44578.875	-4.689064E-11	-2.132622E+10	16.555987	0.252547	0	0
0	0	0	-0.148375	6.399754	-26.392273	6.399754	44542.625	-7.65744E-11	-1.305919E+10	16.475952	0.251755	0	0
0	0	0	-0.148783	6.399951	-26.393644	6.399951	44535.25	-4.236057E-11	-2.360686E+10	16.426129	0.250303	0	0
0	0	0	-0.150988	6.399979	-26.396796	6.399979	44495.5	-3.97839E-11	-2.513579E+10	16.48008	0.24885	0	0
0	0	0	-0.149804	6.399951	-26.39505	6.399951	44516.875	-4.234309E-11	-2.36166E+10	16.35259	0.248045	0	0
0	0	0	-0.150988	6.399958	-26.396709	6.399958	44495.5	-4.165815E-11	-2.400491E+10	16.383628	0.246461	0	0
0	0	0	-0.151479	6.399986	-26.3975	6.399986	44486.625	-3.918826E-11	-2.551784E+10	16.357585	0.245457	0	0
0	0	0	-0.152949	6.399873	-26.399062	6.399873	44460.125	-5.129028E-11	-1.949687E+10	16.280632	0.24448	0	0
0	0	0	-0.152214	6.399789	-26.397703	6.399789	44473.375	-6.682136E-11	-1.496527E+10	16.357567	0.242777	0	0
0	0	0	-0.152663	6.399859	-26.398611	6.399859	44465.375	-5.336141E-11	-1.874014E+10	16.246448	0.24213	0	0
0	0	0	-0.150417	6.399909	-26.39572	6.399909	44505.75	-4.681372E-11	-2.136126E+10	16.211132	0.240625	0	0
0	0	0	-0.151111	6.400014	-26.397109	6.400014	44493.25	-3.700693E-11	-2.702197E+10	16.245087	0.239384	0	0
0	0	0	-0.154419	6.399824	-26.400884	6.399824	44433.625	-5.929055E-11	-1.686609E+10	16.107017	0.238552	0	0
0	0	0	-0.152785	6.399859	-26.398779	6.399859	44463.125	-5.335871E-11	-1.874108E+10	16.212435	0.236862	0	0
0	0	0	-0.153153	6.399923	-26.399545	6.399923	44456.5	-4.516813E-11	-2.213951E+10	16.114054	0.236149	0	0
0	0	0	-0.154419	6.400049	-26.401808	6.400049	44433.625	-3.454749E-11	-2.894566E+10	16.094016	0.234802	0	0
0	0	0	-0.155154	6.399852	-26.402012	6.399852	44420.375	-5.440246E-11	-1.838152E+10	16.159861	0.233416	0	0
0	0	0	-0.153602	6.399895	-26.400048	6.399895	44448.375	-4.846345E-11	-2.063411E+10	16.010641	0.23273	0	0
0	0	0	-0.152214	6.400049	-26.398772	6.400049	44473.375	-3.45784E-11	-2.891979E+10	16.075967	0.231158	0	0
0	0	0	-0.152009	6.399888	-26.397826	6.399888	44477.125	-4.93982E-11	-2.024365E+10	16.003438	0.230247	0	0
0	0	0	-0.152989	6.399803	-26.39883	6.399803	44459.375	-6.359494E-11	-1.572452E+10	15.937941	0.229165	0	0
0	0	0	-0.150049	6.399902	-26.395185	6.399902	44512.5	-4.766171E-11	-2.09812E+10	15.961884	0.227976	0	0
0	0	0	-0.151683	6.399775	-26.396915	6.399775	44483	-7.038337E-11	-1.42079E+10	15.884371	0.226973	0	0
0	0	0	-0.151274	6.399965	-26.397132	6.399965	44490.375	-4.100936E-11	-2.438468E+10	15.897315	0.2256	0	0
0	0	0	-0.150253	6.399838	-26.395206	6.399838	44508.75	-5.68462E-11	-1.759132E+10	15.877826	0.22457	0	0
0	0	0	-0.149886	6.399888	-26.394902	6.399888	44515.375	-4.944068E-11	-2.022626E+10	15.798977	0.223751	0	0
0	0	0	-0.149478	6.399697	-26.39356	6.399697	44522.75	-9.949083E-11	-1.005118E+10	15.876638	0.222246	0	0
0	0	0	-0.148457	6.399754	-26.392386	6.399754	44541.125	-7.657182E-11	-1.305963E+10	15.748031	0.221599	0	0
0	0	0	-0.146782	6.399852	-26.390484	6.399852	44571.375	-5.458739E-11	-1.831925E+10	15.780047	0.220134	0	0
0	0	0	-0.147477	6.39981	-26.391267	6.39981	44558.875	-6.224389E-11	-1.606583E+10	15.714862	0.219368	0	0
0	0	0	-0.148048	6.399909	-26.392459	6.399909	44548.625	-4.685882E-11	-2.13407E+10	15.636113	0.218285	0	0
0	0	0	-0.148048	6.399838	-26.39217	6.399838	44548.625	-5.689713E-11	-1.757558E+10	15.724355	0.216793	0	0
0	0	0	-0.146905	6.399775	-26.390335	6.399775	44569.25	-7.051984E-11	-1.418041E+10	15.552146	0.216345	0	0
0	0	0	-0.145761	6.399817	-26.388934	6.399817	44589.875	-6.08612E-11	-1.643083E+10	15.614589	0.2148	0	0
0	0	0	-0.146619	6.399585	-26.389162	6.399585	44574.375	-2.48829E-10	-4.018825E+9	15.545813	0.21414	0	0
0	0	0	-0.14568	6.399958	-26.389399	6.399958	44591.375	-4.174791E-11	-2.39533E+10	15.512235	0.213004	0	0
0	0	0	-0.145761	6.39988	-26.389194	6.39988	44589.875	-5.04635E-11	-1.98163E+10	15.568163	0.21171	0	0
0	0	0	-0.14666	6.399958	-26.390749	6.399958	44573.625	-4.173129E-11	-2.396283E+10	15.449293	0.210997	0	0
0	0	0	-0.147232	6.400014	-26.391767	6.400014	44563.375	-3.706525E-11	-2.697945E+10	15.494649	0.209624	0	0
0	0	0	-0.146333	6.399852	-26.389866	6.399852	44579.5	-5.459735E-11	-1.831591E+10	15.444524	0.208766	0	0
0	0	0	-0.147232	6.399733	-26.390612	6.399733	44563.375	-8.386482E-11	-1.192395E+10	15.382642	0.207776	0	0
0	0	0	-0.146823	6.399803	-26.390338	6.399803	44570.75	-6.375425E-11	-1.568523E+10	15.394481	0.20668	0	0
0	0	0	-0.147354	6.399521	-26.389915	6.399521	44561.125	-1.581371E-9	-6.323627E+8	15.267366	0.205993	0	0
0	0	0	-0.148702	6.39988	-26.393243	6.39988	44536.75	-5.040338E-11	-1.983994E+10	15.333122	0.204607	0	0
0	0	0	-0.15058	6.399824	-26.395598	6.399824	44502.875	-5.938296E-11	-1.683985E+10	15.25853	0.203881	0	0
0	0	0	-0.151193	6.399873	-26.396644	6.399873	44491.75	-5.132676E-11	-1.948301E+10	15.236243	0.202574	0	0
0	0	0	-0.151438	6.399888	-26.397039	6.399888	44487.375	-4.940958E-11	-2.023899E+10	15.241678	0.201755	0	0
0	0	0	-0.150253	6.399719	-26.394715	6.399719	44508.75	-8.940636E-11	-1.118489E+10	15.136106	0.200976	0	0
0	0	0	-0.152989	6.399831	-26.398945	6.399831	44459.375	-5.80262E-11	-1.723359E+10	15.217597	0.199616	0	0
0	0	0	-0.152908	6.399958	-26.399352	6.399958	44460.875	-4.162573E-11	-2.40236E+10	15.063912	0.199167	0	0
0	0	0	-0.153561	6.39993	-26.400137	6.39993	44449.125	-4.440392E-11	-2.252053E+10	15.101353	0.197755	0	0
0	0	0	-0.155031	6.400028	-26.402565	6.400028	44422.625	-3.594525E-11	-2.782009E+10	15.055236	0.197081	0	0
0	0	0	-0.154827	6.400021	-26.402255	6.400021	44426.25	-3.644279E-11	-2.744027E+10	14.954809	0.196197	0	0
0	0	0	-0.156542	6.399944	-26.404299	6.399944	44395.375	-4.291215E-11	-2.330342E+10	15.059679	0.194744	0	0
0	0	0	-0.155521	6.400099	-26.403529	6.400099	44413.875	-3.164346E-11	-3.160211E+10	14.893657	0.194362	0	0
0	0	0	-0.155766	6.399888	-26.403	6.399888	44409.375	-4.932295E-11	-2.027454E+10	14.991426	0.192909	0	0
0	0	0	-0.154337	6.399895	-26.401061	6.399895	44435.125	-4.8449E-11	-2.064026E+10	14.854463	0.192447	0	0
0	0	0	-0.154623	6.399782	-26.400992	6.399782	44430	-6.848205E-11	-1.460237E+10	14.86209	0.191114	0	0
0	0	0	-0.155072	6.399859	-26.401928	6.399859	44421.875	-5.33092E-11	-1.875849E+10	14.854396	0.190467	0	0
0	0	0	-0.156583	6.399817	-26.403836	6.399817	44394.625	-6.05947E-11	-1.650309E+10	14.779131	0.189529	0	0
0	0	0	-0.155072	6.399951	-26.402304	6.399951	44421.875	-4.225273E-11	-2.366711E+10	14.844905	0.188328	0	0
0	0	0	-0.155358	6.399719	-26.401745	6.399719	44416.75	-8.922155E-11	-1.120805E+10	14.667124	0.187919	0	0
0	0	0	-0.154868	6.400078	-26.402542	6.400078	44425.625	-3.282877E-11	-3.046109E+10	14.761322	0.1864	0	0
0	0	0	-0.15544	6.399909	-26.402637	6.399909	44415.25	-4.671853E-11	-2.140478E+10	14.628402	0.185938	0	0
0	0	0	-0.155235	6.399888	-26.402269	6.399888	44419	-4.933364E-11	-2.027014E+10	14.6267	0.18475	0	0
0	0	0	-0.156093	6.39974	-26.402843	6.39974	44403.5	-8.100691E-11	-1.234463E+10	14.611543	0.18401	0	0
0	0	0	-0.154705	6.399676	-26.400672	6.399676	44428.5	-1.118579E-10	-8.93991E+9	14.512194	0.183179	0	0
0	0	0	-0.15348	6.399937	-26.400053	6.399937	44450.625	-4.367362E-11	-2.289712E+10	14.582301	0.18199	0	0
0	0	0	-0.153765	6.400064	-26.400966	6.400064	44445.375	-3.367822E-11	-2.969278E+10	14.445715	0.181541	0	0
0	0	0	-0.151846	6.399909	-26.397688	6.399909	44480	-4.678664E-11	-2.137362E+10	14.486078	0.180221	0	0
0	0	0	-0.151356	6.399895	-26.396956	6.399895	44488.875	-4.85076E-11	-2.061532E+10	14.44274	0.179614	0	0
0	0	0	-0.151642	6.399838	-26.397118	6.399838	44483.625	-5.681411E-11	-1.760126E+10	14.415464	0.178584	0	0
0	0	0	-0.150948	6.399845	-26.396191	6.399845	44496.25	-5.563833E-11	-1.797322E+10	14.381345	0.178003	0	0
0	0	0	-0.151111	6.399937	-26.396791	6.399937	44493.25	-4.37155E-11	-2.287518E+10	14.319196	0.17696	0	0
0	0	0	-0.150172	6.399902	-26.395354	6.399902	44510.25	-4.765931E-11	-2.098226E+10	14.350032	0.176062	0	0
0	0	0	-0.149151	6.399937	-26.394092	6.399937	44528.625	-4.375026E-11	-2.285701E+10	14.251464	0.175455	0	0
0	0	0	-0.148661	6.39974	-26.392609	6.39974	44537.5	-8.125137E-11	-1.230748E+10	14.282534	0.174267	0	0
0	0	0	-0.147967	6.399747	-26.391682	6.399747	44550	-7.886105E-11	-1.268053E+10	14.174485	0.173871	0	0
0	0	0	-0.147599	6.400028	-26.392331	6.400028	44556.625	-3.605368E-11	-2.773642E+10	14.188544	0.172643	0	0
0	0	0	-0.147926	6.399606	-26.391048	6.399606	44550.75	-1.941582E-10	-5.150438E+9	14.146285	0.172049	0	0
0	0	0	-0.146333	6.399571	-26.388711	6.399571	44579.5	-3.06198E-10	-3.26586E+9	14.054265	0.171217	0	0
0	0	0	-0.147558	6.399902	-26.391755	6.399902	44557.375	-4.770976E-11	-2.096007E+10	14.055004	0.170359	0	0
0	0	0	-0.147681	6.400042	-26.392501	6.400042	44555.25	-3.50998E-11	-2.849019E+10	13.961473	0.16958	0	0
0	0	0	-0.147477	6.399937	-26.391787	6.399937	44558.875	-4.377998E-11	-2.284149E+10	14.009569	0.168708	0	0
0	0	0	-0.149518	6.39962	-26.393299	6.39962	44522	-1.692838E-10	-5.907238E+9	13.89537	0.168127	0	0
0	0	0	-0.147109	6.399888	-26.391079	6.399888	44565.5	-4.949635E-11	-2.020351E+10	13.930743	0.167031	0	0
0	0	0	-0.147885	6.399761	-26.391627	6.399761	44551.5	-7.444309E-11	-1.343308E+10	13.817857	0.166609	0	0
0	0	0	-0.148252	6.39981	-26.392335	6.39981	44544.875	-6.222433E-11	-1.607088E+10	13.863631	0.165487	0	0
0	0	0	-0.150213	6.400007	-26.395843	6.400007	44509.5	-3.754422E-11	-2.663526E+10	13.802249	0.164959	0	0
0	0	0	-0.150335	6.399599	-26.394337	6.399599	44507.25	-2.092659E-10	-4.77861E+9	13.777456	0.163995	0	0
0	0	0	-0.151193	6.399873	-26.396644	6.399873	44491.75	-5.132676E-11	-1.948301E+10	13.733599	0.163295	0	0
0	0	0	-0.152459	6.399747	-26.397868	6.399747	44469	-7.871766E-11	-1.270363E+10	13.670926	0.162582	0	0
0	0	0	-0.150703	6.399873	-26.395969	6.399873	44500.625	-5.1337E-11	-1.947913E+10	13.743044	0.161486	0	0
0	0	0	-0.15303	6.399852	-26.399088	6.399852	44458.625	-5.444931E-11	-1.836571E+10	13.591158	0.161077	0	0
0	0	0	-0.153398	6.399782	-26.399305	6.399782	44452	-6.851596E-11	-1.459514E+10	13.647023	0.160139	0	0
0	0	0	-0.153929	6.400049	-26.401134	6.400049	44442.5	-3.455439E-11	-2.893988E+10	13.496913	0.159743	0	0
0	0	0	-0.155113	6.39962	-26.401003	6.39962	44421.125	-1.689003E-10	-5.920653E+9	13.586015	0.158489	0	0
0	0	0	-0.156256	6.399796	-26.403299	6.399796	44400.625	-6.507213E-11	-1.536756E+10	13.467862	0.158119	0	0
0	0	0	-0.156011	6.399831	-26.403106	6.399831	44405	-5.795524E-11	-1.72547E+10	13.476834	0.157182	0	0
0	0	0	-0.156461	6.399965	-26.404273	6.399965	44396.875	-4.092317E-11	-2.443603E+10	13.41036	0.156693	0	0
0	0	0	-0.157645	6.399606	-26.404431	6.399606	44375.625	-1.93395E-10	-5.170764E+9	13.384822	0.155664	0	0
0	0	0	-0.155807	6.399768	-26.402565	6.399768	44408.625	-7.218133E-11	-1.3854E+10	13.346654	0.155096	0	0
0	0	0	-0.155889	6.399824	-26.402909	6.399824	44407.25	-5.925536E-11	-1.687611E+10	13.276728	0.154383	0	0
0	0	0	-0.15593	6.399937	-26.403427	6.399937	44406.375	-4.363014E-11	-2.291993E+10	13.264803	0.153644	0	0
0	0	0	-0.157686	6.399831	-26.405412	6.399831	44374.875	-5.791592E-11	-1.726641E+10	13.197157	0.152944	0	0
0	0	0	-0.158462	6.399944	-26.406942	6.399944	44360.875	-4.28788E-11	-2.332155E+10	13.18896	0.152191	0	0
0	0	0	-0.157808	6.399909	-26.405898	6.399909	44372.625	-4.667369E-11	-2.142534E+10	13.125131	0.151465	0	0
0	0	0	-0.158666	6.399902	-26.40705	6.399902	44357.25	-4.749548E-11	-2.105463E+10	13.158281	0.150712	0	0
0	0	0	-0.158217	6.399796	-26.405998	6.399796	44365.25	-6.502029E-11	-1.537981E+10	13.034449	0.150264	0	0
0	0	0	-0.157522	6.399951	-26.405678	6.399951	44377.75	-4.221076E-11	-2.369064E+10	13.059724	0.149273	0	0
0	0	0	-0.156379	6.399761	-26.403324	6.399761	44398.375	-7.418723E-11	-1.347941E+10	12.946011	0.148811	0	0
0	0	0	-0.15642	6.399873	-26.403842	6.399873	44397.625	-5.121818E-11	-1.952432E+10	12.985299	0.1479	0	0
0	0	0	-0.156011	6.40024	-26.404781	6.40024	44405	-2.553429E-11	-3.916302E+10	12.841743	0.147504	0	0
0	0	0	-0.15348	6.399993	-26.400284	6.399993	44450.625	-3.858642E-11	-2.591585E+10	12.923852	0.146435	0	0
0	0	0	-0.154582	6.399859	-26.401254	6.399859	44430.75	-5.331986E-11	-1.875474E+10	12.801231	0.146171	0	0
0	0	0	-0.154174	6.399845	-26.400634	6.399845	44438.125	-5.556565E-11	-1.799673E+10	12.868943	0.144996	0	0
0	0	0	-0.155113	6.39974	-26.401494	6.39974	44421.125	-8.103906E-11	-1.233973E+10	12.713554	0.144784	0	0
0	0	0	-0.151969	6.399697	-26.396991	6.399697	44477.875	-9.939055E-11	-1.006132E+10	12.821018	0.143622	0	0
0	0	0	-0.152867	6.399768	-26.398516	6.399768	44461.625	-7.226748E-11	-1.383748E+10	12.635118	0.143464	0	0
0	0	0	-0.151601	6.399824	-26.397004	6.399824	44484.5	-5.935844E-11	-1.68468E+10	12.714293	0.142342	0	0
0	0	0	-0.15107	6.399873	-26.396475	6.399873	44494	-5.132936E-11	-1.948203E+10	12.563808	0.142197	0	0
0	0	0	-0.150458	6.4	-26.396152	6.4	44505.125	-3.807929E-11	-2.6261E+10	12.635812	0.141035	0	0
0	0	0	-0.149151	6.399852	-26.393746	6.399852	44528.625	-5.453504E-11	-1.833684E+10	12.496362	0.140863	0	0
0	0	0	-0.148702	6.399824	-26.393012	6.399824	44536.75	-5.942816E-11	-1.682704E+10	12.544947	0.139635	0	0
0	0	0	-0.149151	6.399965	-26.394208	6.399965	44528.625	-4.104461E-11	-2.436373E+10	12.43676	0.139556	0	0
0	0	0	-0.148293	6.399909	-26.392796	6.399909	44544.125	-4.685409E-11	-2.134285E+10	12.439674	0.138566	0	0
0	0	0	-0.148824	6.399782	-26.393007	6.399782	44534.5	-6.864312E-11	-1.45681E+10	12.365163	0.138236	0	0
0	0	0	-0.148742	6.399655	-26.392375	6.399655	44536	-1.283948E-10	-7.788475E+9	12.373693	0.137232	0	0
0	0	0	-0.146905	6.400028	-26.391375	6.400028	44569.25	-3.606389E-11	-2.772856E+10	12.299227	0.136929	0	0
0	0	0	-0.148702	6.399831	-26.393041	6.399831	44536.75	-5.812719E-11	-1.720365E+10	12.296075	0.135965	0	0
0	0	0	-0.148987	6.399796	-26.39329	6.399796	44531.625	-6.526412E-11	-1.532235E+10	12.216541	0.135714	0	0
0	0	0	-0.149069	6.399754	-26.393229	6.399754	44530.125	-7.655291E-11	-1.306286E+10	12.227883	0.134697	0	0
0	0	0	-0.15107	6.399979	-26.396909	6.399979	44494	-3.978256E-11	-2.513664E+10	12.156515	0.134248	0	0
0	0	0	-0.150172	6.399704	-26.394545	6.399704	44510.25	-9.586959E-11	-1.043084E+10	12.120825	0.13343	0	0
0	0	0	-0.15009	6.399923	-26.395328	6.399923	44511.75	-4.522426E-11	-2.211203E+10	12.05794	0.133034	0	0
0	0	0	-0.1496	6.400042	-26.395144	6.400042	44520.5	-3.507243E-11	-2.851243E+10	12.049345	0.132189	0	0
0	0	0	-0.151887	6.399726	-26.396994	6.399726	44479.25	-8.643487E-11	-1.15694E+10	11.984099	0.131819	0	0
0	0	0	-0.152459	6.39988	-26.398416	6.39988	44469	-5.032671E-11	-1.987017E+10	12.011484	0.130948	0	0
0	0	0	-0.153316	6.39988	-26.399597	6.39988	44453.5	-5.030916E-11	-1.987709E+10	11.870806	0.130763	0	0
0	0	0	-0.153398	6.399789	-26.399334	6.399789	44452	-6.678925E-11	-1.497247E+10	11.916872	0.12972	0	0
0	0	0	-0.155031	6.400141	-26.403027	6.400141	44422.625	-2.953218E-11	-3.386137E+10	11.7723	0.129561	0	0
0	0	0	-0.155154	6.39974	-26.40155	6.39974	44420.375	-8.103769E-11	-1.233994E+10	11.85018	0.128413	0	0
0	0	0	-0.155113	6.399627	-26.401032	6.399627	44421.125	-1.587744E-10	-6.298246E+9	11.69323	0.128254	0	0
0	0	0	-0.156216	6.399958	-26.403907	6.399958	44401.25	-4.156991E-11	-2.405586E+10	11.791871	0.127211	0	0
0	0	0	-0.157481	6.399775	-26.4049	6.399775	44378.5	-7.021803E-11	-1.424136E+10	11.661679	0.127119	0	0
0	0	0	-0.158707	6.399796	-26.406673	6.399796	44356.5	-6.500746E-11	-1.538285E+10	11.680587	0.126168	0	0
0	0	0	-0.157931	6.39974	-26.405374	6.39974	44370.375	-8.094648E-11	-1.235384E+10	11.56651	0.125864	0	0
0	0	0	-0.157727	6.39993	-26.405872	6.39993	44374.125	-4.4329E-11	-2.25586E+10	11.586015	0.125178	0	0
0	0	0	-0.157767	6.399852	-26.405611	6.399852	44373.375	-5.43449E-11	-1.840099E+10	11.497193	0.124637	0	0
0	0	0	-0.156706	6.399888	-26.404293	6.399888	44392.5	-4.930421E-11	-2.028224E+10	11.521976	0.123937	0	0
0	0	0	-0.157972	6.399669	-26.405141	6.399669	44369.75	-1.166355E-10	-8.573717E+9	11.413978	0.123488	0	0
0	0	0	-0.159482	6.399859	-26.408002	6.399859	44342.5	-5.321395E-11	-1.879207E+10	11.424299	0.122828	0	0
0	0	0	-0.158829	6.399958	-26.407506	6.399958	44354.25	-4.15259E-11	-2.408135E+10	11.3353	0.1223	0	0
0	0	0	-0.160381	6.39993	-26.409527	6.39993	44326.375	-4.428129E-11	-2.25829E+10	11.300911	0.121851	0	0
0	0	0	-0.159932	6.399768	-26.408245	6.399768	44334.5	-7.206085E-11	-1.387716E+10	11.265294	0.121098	0	0
0	0	0	-0.158666	6.399824	-26.406732	6.399824	44357.25	-5.918864E-11	-1.689513E+10	11.212044	0.120847	0	0
0	0	0	-0.158257	6.39981	-26.406112	6.39981	44364.5	-6.197237E-11	-1.613622E+10	11.242982	0.119883	0	0
0	0	0	-0.157359	6.399895	-26.405222	6.399895	44380.75	-4.838971E-11	-2.066555E+10	11.146429	0.119699	0	0
0	0	0	-0.157032	6.400204	-26.406043	6.400204	44386.625	-2.681698E-11	-3.728981E+10	11.13003	0.118906	0	0
0	0	0	-0.154541	6.399775	-26.400851	6.399775	44431.5	-7.030189E-11	-1.422437E+10	11.066835	0.118576	0	0
0	0	0	-0.156706	6.39981	-26.403976	6.39981	44392.5	-6.201148E-11	-1.612605E+10	11.075337	0.117877	0	0
0	0	0	-0.154745	6.399888	-26.401594	6.399888	44427.75	-4.934336E-11	-2.026615E+10	10.934509	0.117665	0	0
0	0	0	-0.155195	6.39974	-26.401606	6.39974	44419.625	-8.103633E-11	-1.234014E+10	10.947906	0.116952	0	0
0	0	0	-0.154215	6.399726	-26.400199	6.399726	44437.375	-8.63535E-11	-1.158031E+10	10.871749	0.116477	0	0
0	0	0	-0.15397	6.399845	-26.400352	6.399845	44441.75	-5.557018E-11	-1.799526E+10	10.838682	0.116002	0	0
0	0	0	-0.152989	6.399782	-26.398743	6.399782	44459.375	-6.852733E-11	-1.459272E+10	10.776656	0.115421	0	0
0	0	0	-0.151111	6.400071	-26.39734	6.400071	44493.25	-3.329137E-11	-3.003781E+10	10.754043	0.115038	0	0
0	0	0	-0.151111	6.399937	-26.396791	6.399937	44493.25	-4.37155E-11	-2.287518E+10	10.711113	0.114272	0	0
0	0	0	-0.152214	6.399895	-26.398137	6.399895	44473.375	-4.84907E-11	-2.062251E+10	10.658826	0.113955	0	0
0	0	0	-0.151438	6.400106	-26.397934	6.400106	44487.375	-3.132152E-11	-3.192693E+10	10.652678	0.113282	0	0
0	0	0	-0.15009	6.399888	-26.395184	6.399888	44511.75	-4.943665E-11	-2.022791E+10	10.534034	0.113084	0	0
0	0	0	-0.150049	6.399923	-26.395272	6.399923	44512.5	-4.522502E-11	-2.211165E+10	10.574428	0.112318	0	0
0	0	0	-0.148293	6.399711	-26.391987	6.399711	44544.125	-9.259727E-11	-1.079945E+10	10.455639	0.111975	0	0
0	0	0	-0.149886	6.399711	-26.394181	6.399711	44515.375	-9.253751E-11	-1.080643E+10	10.457253	0.111407	0	0
0	0	0	-0.149437	6.399944	-26.394515	6.399944	44523.5	-4.303599E-11	-2.323636E+10	10.403074	0.110681	0	0
0	0	0	-0.15058	6.39993	-26.396032	6.39993	44502.875	-4.445761E-11	-2.249333E+10	10.309036	0.110496	0	0
0	0	0	-0.150008	6.399592	-26.393858	6.399592	44513.125	-2.272125E-10	-4.401167E+9	10.363064	0.10977	0	0
0	0	0	-0.150539	6.399937	-26.396004	6.399937	44503.625	-4.372569E-11	-2.286985E+10	10.226394	0.109638	0	0
0	0	0	-0.150825	6.399958	-26.396484	6.399958	44498.5	-4.166095E-11	-2.400329E+10	10.273261	0.108938	0	0
0	0	0	-0.147926	6.399923	-26.392348	6.399923	44550.75	-4.526388E-11	-2.209267E+10	10.178907	0.108582	0	0
0	0	0	-0.150743	6.399775	-26.395621	6.399775	44499.875	-7.041007E-11	-1.420251E+10	10.17135	0.10808	0	0
0	0	0	-0.152459	6.39988	-26.398416	6.39988	44469	-5.032671E-11	-1.987017E+10	10.160179	0.107486	0	0
0	0	0	-0.153153	6.399704	-26.39865	6.399704	44456.5	-9.575381E-11	-1.044345E+10	10.020646	0.107459	0	0
0	0	0	-0.153234	6.399923	-26.399658	6.399923	44455	-4.51666E-11	-2.214025E+10	10.058303	0.106496	0	0
0	0	0	-0.152377	6.399965	-26.39865	6.399965	44470.5	-4.099104E-11	-2.439558E+10	9.872393	0.10639	0	0
0	0	0	-0.154378	6.400042	-26.401723	6.400042	44434.375	-3.500458E-11	-2.856769E+10	9.929452	0.105585	0	0
0	0	0	-0.154296	6.399697	-26.400196	6.399697	44435.875	-9.92967E-11	-1.007083E+10	9.814257	0.105321	0	0
0	0	0	-0.155317	6.400113	-26.403305	6.400113	44417.5	-3.090733E-11	-3.235478E+10	9.777422	0.104872	0	0
0	0	0	-0.155235	6.399817	-26.40198	6.399817	44419	-6.062797E-11	-1.649404E+10	9.778264	0.104238	0	0
0	0	0	-0.157155	6.400014	-26.405432	6.400014	44384.375	-3.691637E-11	-2.708825E+10	9.680734	0.104066	0	0
0	0	0	-0.157931	6.399641	-26.404969	6.399641	44370.375	-1.41613E-10	-7.061498E+9	9.765986	0.103261	0	0
0	0	0	-0.159605	6.399916	-26.408401	6.399916	44340.375	-4.583118E-11	-2.181921E+10	9.663413	0.102997	0	0
0	0	0	-0.158339	6.399965	-26.40686	6.399965	44363.125	-4.089206E-11	-2.445462E+10	9.644677	0.102588	0	0
0	0	0	-0.158176	6.399817	-26.406029	6.399817	44366	-6.055563E-11	-1.651374E+10	9.599933	0.101954	0	0
0	0	0	-0.159809	6.399852	-26.408423	6.399852	44336.625	-5.429989E-11	-1.841624E+10	9.497131	0.101743	0	0
0	0	0	-0.158217	6.399831	-26.406143	6.399831	44365.25	-5.790336E-11	-1.727016E+10	0	0	0	0
0	0	0	-0.159156	6.399895	-26.407696	6.399895	44348.375	-4.835441E-11	-2.068064E+10	0	0	0	0
0	0	0	-0.160585	6.400056	-26.410328	6.400056	44322.75	-3.401766E-11	-2.93965E+10	0	0	0	0
0	0	0	-0.158952	6.399916	-26.407502	6.399916	44352.125	-4.584332E-11	-2.181343E+10	0	0	0	0
0	0	0	-0.159728	6.399838	-26.408252	6.399838	44338.125	-5.662828E-11	-1.765902E+10	0	0	0	0
0	0	0	-0.158584	6.399789	-26.406476	6.399789	44358.625	-6.664895E-11	-1.500399E+10	0	0	0	0
0	0	0	-0.159768	6.400042	-26.409146	6.400042	44337.375	-3.492816E-11	-2.863019E+10	0	0	0	0
0	0	0	-0.158094	6.399937	-26.406407	6.399937	44367.5	-4.359195E-11	-2.294002E+10	0	0	0	0
0	0	0	-0.158053	6.399958	-26.406438	6.399958	44368.25	-4.153901E-11	-2.407376E+10	0	0	0	0
0	0	0	-0.157073	6.399585	-26.403558	6.399585	44385.875	-2.477767E-10	-4.035892E+9	0	0	0	0
0	0	0	-0.157318	6.399873	-26.405079	6.399873	44381.5	-5.119958E-11	-1.953141E+10	0	0	0	0
0	0	0	-0.155848	6.399789	-26.402708	6.399789	44407.875	-6.672295E-11	-1.498735E+10	0	0	0	0
0	0	0	-0.154827	6.400028	-26.402284	6.400028	44426.25	-3.594818E-11	-2.781782E+10	0	0	0	0
0	0	0	-0.154296	6.399669	-26.40008	6.399669	44435.875	-1.168093E-10	-8.560959E+9	0	0	0	0
0	0	0	-0.155807	6.399965	-26.403374	6.399965	44408.625	-4.0934E-11	-2.442957E+10	0	0	0	0
0	0	0	-0.155195	6.400078	-26.402992	6.400078	44419.625	-3.282433E-11	-3.04652E+10	0	0	0	0
0	0	0	-0.153725	6.399733	-26.399553	6.399733	44446.125	-8.364416E-11	-1.195541E+10	0	0	0	0
0	0	0	-0.152336	6.39988	-26.398247	6.39988	44471.125	-5.032911E-11	-1.986922E+10	0	0	0	0
0	0	0	-0.152173	6.399634	-26.397012	6.399634	44474.125	-1.499726E-10	-6.667883E+9	0	0	0	0
0	0	0	-0.15107	6.399951	-26.396793	6.399951	44494	-4.232134E-11	-2.362874E+10	0	0	0	0
0	0	0	-0.151193	6.399895	-26.396731	6.399895	44491.75	-4.851074E-11	-2.061399E+10	0	0	0	0
0	0	0	-0.150907	6.399585	-26.395067	6.399585	44497	-2.48397E-10	-4.025813E+9	0	0	0	0
0	0	0	-0.150539	0	-0.150539	0	44503.625	0	0	0	0	0	0
0	0	0	-0.149437	0	-0.149437	0	44523.5	0	0	0	0	0	0
