Vload_(V)	ILoad_(A)	RsLoad (ohm)	SunsVoc_Voltage_(V)	SunsVoc_Current_(A)	Model_Voltage_(V)	Model_Current_(A)	Carrier_Density_(cm-3)	Lifetime_(s)	Inverse_Lifetime_(s-1)	Efficiency_(%)	Intensity_(suns)	Dark_IV_Voltage_(V)	Dark_IV_Current_(A)
2.666153	6.043596	0	52.059091	-0.083029	52.10206	-0.083029	7.915022E+15	0.000575	1636.052327	19.596541	1.113028	0	0
2.665065	6.043452	2.557504	52.713252	-0.639593	53.01763	-0.639593	9.962693E+15	0.000663	1343.228001	19.775664	1.111721	0	0
3.217891	6.04338	2.566879	52.871617	-0.467095	53.089196	-0.467095	1.052025E+16	0.000719	1207.488961	19.657555	1.113028	0	0
6.648869	6.036755	4.495793	52.855609	-0.134494	52.918395	-0.134494	1.046272E+16	0.000753	1145.681275	19.598097	1.111998	0	0
10.816223	6.020042	4.709411	52.770587	0.240315	52.6571	0.240315	1.01616E+16	0.000779	1112.409796	19.741875	1.111285	0	0
14.387409	6.020252	4.110468	52.659103	0.613322	52.365115	0.613322	9.777862E+15	0.000801	1089.739133	19.49764	1.111483	0	0
17.944798	6.017359	3.590029	52.540105	0.959709	52.072813	0.959709	9.3818E+15	0.000821	1072.042342	19.668458	1.108869	0	0
21.522045	6.00567	3.209067	52.424578	1.282588	51.790644	1.282588	9.010279E+15	0.000842	1053.058201	19.520305	1.109305	0	0
25.12037	6.000399	2.681627	52.299292	1.587941	51.501773	1.587941	8.621397E+15	0.000861	1038.399976	19.470925	1.107086	0	0
28.678189	5.99851	2.112125	52.177313	1.861663	51.227871	1.861663	8.256381E+15	0.000878	1025.462535	19.57761	1.106215	0	0
32.316245	5.995392	1.541215	52.055783	2.115105	50.960729	2.115105	7.905644E+15	0.000895	1013.321483	19.324573	1.106017	0	0
35.898009	5.96974	1.162545	51.936336	2.351925	50.700796	2.351925	7.573117E+15	0.000913	1000.618018	19.501062	1.103522	0	0
36.964759	5.950955	1.094115	51.814357	2.582226	50.437788	2.582226	7.24565E+15	0.000931	986.747735	19.332388	1.104037	0	0
38.028473	5.921245	1.04596	51.681802	2.798122	50.166537	2.798122	6.903231E+15	0.000946	977.753819	19.283452	1.102809	0	0
39.092255	5.879801	0.999878	51.559374	2.991658	49.915996	2.991658	6.599024E+15	0.000962	967.363367	19.388522	1.102413	0	0
40.142409	5.826134	0.950798	51.434781	3.174958	49.665541	3.174958	6.300948E+15	0.000977	957.53334	19.138271	1.103126	0	0
41.22728	5.758524	0.887972	51.317417	3.346341	49.427681	3.346341	6.030465E+15	0.000995	945.087633	19.343259	1.101066	0	0
42.270665	5.66344	0.839801	51.191477	3.511678	49.180229	3.511678	5.750994E+15	0.00101	934.785864	19.185711	1.102294	0	0
43.320561	5.531787	0.795313	51.063332	3.663652	48.935167	3.663652	5.477732E+15	0.001024	926.883233	19.200494	1.10067	0	0
44.358808	5.359418	0.751302	50.94462	3.801173	48.707856	3.801173	5.234271E+15	0.001038	917.579632	19.302685	1.100472	0	0
45.374442	5.129189	0.712075	50.824519	3.928774	48.482644	3.928774	4.997154E+15	0.001051	909.90311	19.096147	1.100591	0	0
46.385262	4.829603	0.67466	50.703929	4.050006	48.25871	4.050006	4.768096E+15	0.001064	902.162837	19.310802	1.098848	0	0
47.368229	4.43211	0.649104	50.583379	4.163405	48.037756	4.163405	4.547886E+15	0.001076	895.026707	19.166824	1.099165	0	0
48.313363	3.937235	0.630544	50.465443	4.265427	47.825429	4.265427	4.340682E+15	0.001086	889.611193	19.199956	1.097303	0	0
49.240388	3.346632	0.614347	50.343546	4.36413	47.608588	4.36413	4.13482E+15	0.001095	884.69444	19.304768	1.096432	0	0
50.096975	2.683043	0.612176	50.224956	4.457088	47.398107	4.457088	3.942399E+15	0.001105	878.834867	19.095989	1.095996	0	0
50.924894	1.951288	0.624418	50.105264	4.546932	47.1868	4.546932	3.755808E+15	0.001116	872.387497	19.313393	1.093342	0	0
51.651586	1.243623	0.618473	49.977977	4.633502	46.966416	4.633502	3.565515E+15	0.001125	867.929369	19.129924	1.093619	0	0
42.865349	5.59531	0.813064	49.859918	4.709165	46.763801	4.709165	3.396287E+15	0.001132	864.102087	19.177683	1.090807	0	0
52.671648	0	0	49.738756	4.783382	46.556962	4.783382	3.229654E+15	0.00114	859.847346	19.248554	1.089698	0	0
0	0	0	49.620534	4.849221	46.358464	4.849221	3.073732E+15	0.001145	857.823466	19.051904	1.088827	0	0
0	0	0	49.505171	4.911966	46.164833	4.911966	2.927734E+15	0.001151	854.660936	19.262328	1.085975	0	0
0	0	0	49.383682	4.972378	45.963819	4.972378	2.780349E+15	0.001155	853.27198	19.054167	1.086252	0	0
0	0	0	49.272933	5.026093	45.780705	5.026093	2.651509E+15	0.001159	850.978724	19.121655	1.083559	0	0
0	0	0	49.150423	5.081833	45.579848	5.081833	2.51492E+15	0.001163	849.1781	19.169057	1.082806	0	0
0	0	0	49.035917	5.131943	45.392739	5.131943	2.392714E+15	0.001168	847.002651	18.988992	1.081539	0	0
0	0	0	48.919778	5.178679	45.205149	5.178679	2.273979E+15	0.00117	846.443518	19.210643	1.079083	0	0
0	0	0	48.801107	5.222837	45.015361	5.222837	2.157903E+15	0.00117	847.288382	19.008069	1.079202	0	0
0	0	0	48.691583	5.262465	44.840436	5.262465	2.05533E+15	0.00117	847.333883	19.087884	1.077261	0	0
0	0	0	48.572912	5.302758	44.652233	5.302758	1.948963E+15	0.00117	848.192795	19.110721	1.076944	0	0
0	0	0	48.459877	5.339331	44.47375	5.339331	1.852111E+15	0.00117	849.098527	18.951594	1.075993	0	0
0	0	0	48.343329	5.374987	44.290719	5.374987	1.756656E+15	0.001169	850.490355	19.169764	1.073934	0	0
0	0	0	48.226128	5.408602	44.107835	5.408602	1.665021E+15	0.001166	852.715984	18.969921	1.074013	0	0
0	0	0	48.113541	5.439269	43.932928	5.439269	1.580962E+15	0.001164	855.146242	19.090918	1.071597	0	0
0	0	0	47.998301	5.468554	43.755075	5.468554	1.498808E+15	0.001159	858.744307	19.104789	1.071082	0	0
0	0	0	47.882692	5.496646	43.577231	5.496646	1.420199E+15	0.001155	862.397262	18.97508	1.069775	0	0
0	0	0	47.767696	5.523786	43.400554	5.523786	1.345653E+15	0.001152	865.361044	19.189747	1.067319	0	0
0	0	0	47.652088	5.549872	43.223493	5.549872	1.274237E+15	0.001148	868.320036	18.979586	1.066963	0	0
0	0	0	47.533254	5.574122	43.043156	5.574122	1.204376E+15	0.001141	873.86929	19.112319	1.064071	0	0
0	0	0	47.420749	5.59638	42.872655	5.59638	1.14142E+15	0.001135	878.609338	19.093805	1.063279	0	0
0	0	0	47.304446	5.617875	42.697305	5.617875	1.079468E+15	0.001128	884.622049	18.980426	1.061496	0	0
0	0	0	47.195698	5.637034	42.533836	5.637034	1.024307E+15	0.001121	890.512177	19.171001	1.05912	0	0
0	0	0	47.079477	5.657017	42.359251	5.657017	9.681911E+14	0.001114	896.015724	18.948499	1.058605	0	0
0	0	0	46.96685	5.674276	42.191554	5.674276	9.164954E+14	0.001104	904.471353	19.094922	1.055516	0	0
0	0	0	46.856755	5.691441	42.027138	5.691441	8.684117E+14	0.001097	910.337102	19.053504	1.054882	0	0
0	0	0	46.740003	5.707934	41.853984	5.707934	8.199572E+14	0.001087	919.127811	18.954836	1.052941	0	0
0	0	0	46.630316	5.723569	41.690962	5.723569	7.767137E+14	0.00108	925.224324	19.139226	1.050842	0	0
0	0	0	46.514258	5.73861	41.519542	5.73861	7.332593E+14	0.00107	934.112275	18.91896	1.050366	0	0
0	0	0	46.401631	5.752685	41.353434	5.752685	6.932529E+14	0.00106	942.522777	19.084284	1.047396	0	0
0	0	0	46.28982	5.765738	41.189145	5.765738	6.55552E+14	0.00105	952.099341	19.011755	1.047118	0	0
0	0	0	46.177397	5.778765	41.023855	5.778765	6.195794E+14	0.001041	960.22876	18.943154	1.045059	0	0
0	0	0	46.063831	5.790475	40.857998	5.790475	5.851224E+14	0.001028	971.891994	19.119307	1.042959	0	0
0	0	0	45.952551	5.801889	40.695372	5.801889	5.531101E+14	0.001018	981.847043	18.896485	1.042682	0	0
0	0	0	45.835677	5.812912	40.525276	5.812912	5.212675E+14	0.001005	994.375737	19.083371	1.039593	0	0
0	0	0	45.72456	5.823107	40.363671	5.823107	4.926047E+14	0.000994	1005.784667	18.992872	1.039553	0	0
0	0	0	45.608666	5.833311	40.195362	5.833311	4.643023E+14	0.000982	1017.759832	18.953595	1.037375	0	0
0	0	0	45.493221	5.842846	40.028144	5.842846	4.376485E+14	0.00097	1030.830241	19.109623	1.035473	0	0
0	0	0	45.382023	5.851693	39.867264	5.851693	4.133564E+14	0.000958	1043.350592	18.90084	1.03476	0	0
0	0	0	45.261106	5.860622	39.692837	5.860622	3.884023E+14	0.000944	1058.758521	19.109976	1.031433	0	0
0	0	0	45.151459	5.8685	39.534758	5.8685	3.67025E+14	0.000932	1072.214981	18.994277	1.031156	0	0
0	0	0	45.030992	5.876686	39.361404	5.876686	3.448385E+14	0.000919	1087.876637	18.977937	1.028621	0	0
0	0	0	44.9162	5.883853	39.196717	5.883853	3.248999E+14	0.000905	1105.081519	19.118637	1.02668	0	0
0	0	0	44.803205	5.890996	39.034419	5.890996	3.063597E+14	0.000893	1119.573326	18.905462	1.025532	0	0
0	0	0	44.683268	5.897847	38.862759	5.897847	2.877978E+14	0.000878	1138.297773	19.114856	1.022244	0	0
0	0	0	44.57256	5.904117	38.704269	5.904117	2.716321E+14	0.000866	1154.177987	18.979032	1.021491	0	0
0	0	0	44.452378	5.910244	38.532797	5.910244	2.550783E+14	0.000851	1175.108411	18.987195	1.018521	0	0
0	0	0	44.339056	5.915945	38.371103	5.915945	2.403683E+14	0.000838	1193.721249	19.092724	1.016778	0	0
0	0	0	44.221529	5.921882	38.203296	5.921882	2.259836E+14	0.000826	1210.660699	18.877585	1.01559	0	0
0	0	0	44.103307	5.926968	38.035317	5.926968	2.123601E+14	0.00081	1234.511101	19.095109	1.012381	0	0
0	0	0	43.992231	5.931716	37.877452	5.931716	2.002914E+14	0.000796	1255.614958	18.923332	1.012104	0	0
0	0	0	43.872621	5.936854	37.707357	5.936854	1.880437E+14	0.000784	1275.986636	18.960672	1.009133	0	0
0	0	0	43.756318	5.941382	37.54238	5.941382	1.768378E+14	0.00077	1299.302264	19.041362	1.007747	0	0
0	0	0	43.637157	5.945587	37.373735	5.945587	1.660347E+14	0.000754	1326.907065	18.850671	1.006361	0	0
0	0	0	43.517588	5.949828	37.204427	5.949828	1.558453E+14	0.000739	1352.505414	19.072593	1.003113	0	0
0	0	0	43.401448	5.953909	37.039954	5.953909	1.465363E+14	0.000727	1375.816927	18.880749	1.003192	0	0
0	0	0	43.279551	5.957637	36.86786	5.957637	1.373532E+14	0.000711	1406.803463	18.958134	1.000063	0	0
0	0	0	43.159982	5.961121	36.699183	5.961121	1.288958E+14	0.000695	1438.346537	19.018232	0.998756	0	0
0	0	0	43.04033	5.964698	36.530239	5.964698	1.209461E+14	0.000682	1466.41058	18.855691	0.997013	0	0
0	0	0	42.914472	5.96833	36.352616	5.96833	1.131051E+14	0.000668	1495.896102	19.074603	0.994003	0	0
0	0	0	42.794086	5.971154	36.183381	5.971154	1.060748E+14	0.000651	1535.197649	18.879911	0.993448	0	0
0	0	0	42.670596	5.973873	36.009936	5.973873	9.931134E+13	0.000634	1578.206033	18.980771	0.990359	0	0
0	0	0	42.54731	5.976839	35.836453	5.976839	9.298426E+13	0.00062	1613.890647	18.998815	0.98921	0	0
0	0	0	42.426965	5.979748	35.667046	5.979748	8.719278E+13	0.000607	1646.087485	18.847907	0.987348	0	0
0	0	0	42.291101	5.982649	35.476179	5.982649	8.10824E+13	0.000592	1689.712	19.070042	0.984417	0	0
0	0	0	42.162834	5.985253	35.296091	5.985253	7.570335E+13	0.000577	1732.462789	18.869598	0.983427	0	0
0	0	0	42.036567	5.987239	35.119437	5.987239	7.075375E+13	0.000558	1790.54102	18.986582	0.980338	0	0
0	0	0	41.919162	5.989729	34.954404	5.989729	6.643986E+13	0.000549	1822.541151	18.990624	0.97907	0	0
0	0	0	41.789628	5.991856	34.773007	5.991856	6.198245E+13	0.000533	1876.484918	18.867242	0.97709	0	0
0	0	0	41.659359	5.993681	34.590915	5.993681	5.779908E+13	0.000515	1941.313141	19.067643	0.974357	0	0
0	0	0	41.537095	5.99577	34.419537	5.99577	5.412818E+13	0.000503	1986.210559	18.8411	0.973881	0	0
0	0	0	41.412216	5.997428	34.245031	5.997428	5.061782E+13	0.000488	2050.347389	19.002717	0.970356	0	0
0	0	0	41.286481	5.999518	34.068793	5.999518	4.731193E+13	0.000477	2094.291033	18.955267	0.969524	0	0
0	0	0	41.159356	6.001057	33.891271	6.001057	4.418774E+13	0.000462	2164.087668	18.855601	0.967544	0	0
0	0	0	41.037949	6.002777	33.721403	6.002777	4.139581E+13	0.000451	2216.613647	19.045381	0.965049	0	0
0	0	0	40.90866	6.004439	33.540689	6.004439	3.861537E+13	0.000439	2279.496192	18.810222	0.964415	0	0
0	0	0	40.778923	6.006059	33.359376	6.006059	3.60121E+13	0.000427	2343.114767	18.992853	0.960969	0	0
0	0	0	40.650451	6.007242	33.180331	6.007242	3.360647E+13	0.000411	2431.705261	18.912206	0.960494	0	0
0	0	0	40.515731	6.008958	32.991963	6.008958	3.125557E+13	0.000401	2491.230172	18.865356	0.957959	0	0
0	0	0	40.386156	6.010349	32.811088	6.010349	2.914916E+13	0.00039	2563.973582	19.043274	0.955859	0	0
0	0	0	40.251191	6.011742	32.622735	6.011742	2.71054E+13	0.000379	2641.753803	18.828613	0.955107	0	0
0	0	0	40.11884	6.012438	32.438862	6.012438	2.523998E+13	0.00036	2775.022557	19.033394	0.951661	0	0
0	0	0	39.980526	6.013952	32.245682	6.013952	2.342716E+13	0.000352	2844.518423	18.913398	0.951463	0	0
0	0	0	39.847685	6.015114	32.060497	6.015114	2.18084E+13	0.000341	2935.820481	18.894753	0.94869	0	0
0	0	0	39.705696	6.0162	31.862742	6.0162	2.020133E+13	0.000328	3048.564688	19.036608	0.94663	0	0
0	0	0	39.569833	6.017293	31.67343	6.017293	1.877431E+13	0.000318	3149.42075	18.832553	0.94564	0	0
0	0	0	39.424046	6.018028	31.470848	6.018028	1.735473E+13	0.000302	3311.774091	19.053088	0.942194	0	0
0	0	0	39.282466	6.019333	31.273311	6.019333	1.607871E+13	0.000295	3392.204778	18.895026	0.941996	0	0
0	0	0	39.134923	6.020216	31.06807	6.020216	1.484849E+13	0.000283	3539.609429	18.91468	0.939025	0	0
0	0	0	38.989259	6.021315	30.865119	6.021315	1.372613E+13	0.000274	3649.034332	19.022292	0.937164	0	0
0	0	0	38.836939	6.022289	30.65311	6.022289	1.264297E+13	0.000264	3788.440892	18.817979	0.935976	0	0
0	0	0	38.686782	6.023012	30.444419	6.023012	1.165877E+13	0.000252	3968.727265	19.041913	0.932807	0	0
0	0	0	38.52948	6.023839	30.225685	6.023839	1.070968E+13	0.000241	4146.881797	18.876297	0.932173	0	0
0	0	0	38.372831	6.024953	30.007442	6.024953	9.841219E+12	0.000235	4258.522143	18.931085	0.929282	0	0
0	0	0	38.211159	6.025316	29.783276	6.025316	9.018611E+12	0.000219	4556.421729	19.006027	0.928014	0	0
0	0	0	38.047772	6.026174	29.556032	6.026174	8.257038E+12	0.000211	4742.996498	18.822328	0.92643	0	0
0	0	0	37.880668	6.026859	29.323876	6.026859	7.544557E+12	0.000201	4986.870816	19.035247	0.923499	0	0
0	0	0	37.713116	6.027552	29.091071	6.027552	6.891826E+12	0.000191	5233.029394	18.8352	0.923023	0	0
0	0	0	37.542582	6.028077	28.85437	6.028077	6.285393E+12	0.00018	5550.182459	18.936589	0.919974	0	0
0	0	0	37.364739	6.028715	28.607379	6.028715	5.709692E+12	0.000171	5858.800022	18.973624	0.918706	0	0
0	0	0	37.188325	6.029488	28.362153	6.029488	5.190692E+12	0.000164	6109.551834	18.824157	0.917082	0	0
0	0	0	37.001497	6.030144	28.102673	6.030144	4.692366E+12	0.000155	6444.234024	19.038778	0.91427	0	0
0	0	0	36.820673	6.03065	27.851709	6.03065	4.255636E+12	0.000146	6838.556084	18.81518	0.914032	0	0
0	0	0	36.631436	6.031203	27.589019	6.031203	3.842029E+12	0.000138	7250.709868	18.951497	0.910665	0	0
0	0	0	36.435094	6.031796	27.316424	6.031796	3.455311E+12	0.00013	7676.587816	18.938538	0.909556	0	0
0	0	0	36.237281	6.03224	27.042008	6.03224	3.105035E+12	0.000122	8221.409009	18.822062	0.907497	0	0
0	0	0	36.033017	6.032683	26.758651	6.032683	2.780543E+12	0.000113	8822.458933	19.028791	0.904843	0	0
0	0	0	35.82328	6.033164	26.467652	6.033164	2.482598E+12	0.000106	9445.623482	18.807644	0.904209	0	0
0	0	0	35.60848	6.033896	26.169239	6.033896	2.210513E+12	0.000101	9864.28849	18.969293	0.90104	0	0
0	0	0	35.391025	6.034079	25.867998	6.034079	1.965418E+12	9.187476E-5	10884.382628	18.918467	0.900248	0	0
0	0	0	35.168629	6.034547	25.559461	6.034547	1.742832E+12	8.567637E-5	11671.829401	18.839489	0.89803	0	0
0	0	0	34.940434	6.034992	25.242921	6.034992	1.540613E+12	7.965799E-5	12553.668302	19.017841	0.895376	0	0
0	0	0	34.70836	6.035495	24.920904	6.035495	1.359001E+12	7.462947E-5	13399.531924	18.79794	0.894822	0	0
0	0	0	34.472324	6.035896	24.593557	6.035896	1.19623E+12	6.911452E-5	14468.738778	18.992749	0.891297	0	0
0	0	0	34.22902	6.036289	24.25615	6.036289	1.048823E+12	6.385806E-5	15659.729315	18.884043	0.89098	0	0
0	0	0	33.982081	6.036607	23.913826	6.036607	9.177742E+11	5.841959E-5	17117.544913	18.849556	0.888682	0	0
0	0	0	33.728036	6.036704	23.562029	6.036704	8.000191E+11	5.163996E-5	19364.849181	19.000085	0.886464	0	0
0	0	0	33.469867	6.037152	23.203922	6.037152	6.958182E+11	4.803826E-5	20816.740739	18.784945	0.885355	0	0
0	0	0	33.20398	6.03746	22.835358	6.03746	6.026687E+11	4.369552E-5	22885.643492	18.993709	0.882385	0	0
0	0	0	32.930988	6.037734	22.457006	6.037734	5.199873E+11	3.946222E-5	25340.693784	18.852935	0.881949	0	0
0	0	0	32.651012	6.038079	22.068854	6.038079	4.469581E+11	3.60448E-5	27743.254055	18.874509	0.879295	0	0
0	0	0	32.370424	6.038356	21.679963	6.038356	3.840577E+11	3.260957E-5	30665.839977	18.981488	0.87775	0	0
0	0	0	32.086324	6.038685	21.286107	6.038685	3.293831E+11	2.983985E-5	33512.22732	18.785342	0.87676	0	0
0	0	0	31.802265	6.038906	20.892491	6.038906	2.824979E+11	2.6799E-5	37314.819705	19.015577	0.873789	0	0
0	0	0	31.512325	6.0393	20.490412	6.0393	2.415173E+11	2.500841E-5	39986.550429	18.837151	0.873275	0	0
0	0	0	31.215851	6.039506	20.079619	6.039506	2.057534E+11	2.237946E-5	44683.833182	18.897522	0.870383	0	0
0	0	0	30.917009	6.039645	19.665664	6.039645	1.75061E+11	1.971094E-5	50733.245912	18.959424	0.869234	0	0
0	0	0	30.614777	6.039943	19.246712	6.039943	1.486742E+11	1.810518E-5	55232.802255	18.789118	0.868007	0	0
0	0	0	30.309279	6.040014	18.823658	6.040014	1.260419E+11	1.565444E-5	63879.625062	19.005627	0.865155	0	0
0	0	0	30.000105	6.040291	18.395118	6.040291	1.066427E+11	1.435446E-5	69664.771931	18.803402	0.865036	0	0
0	0	0	29.694729	6.040434	17.972084	6.040434	9.041465E+10	1.272109E-5	78609.638243	18.921981	0.861867	0	0
0	0	0	29.389966	6.040503	17.550037	6.040503	7.668141E+10	1.103124E-5	90651.637839	18.945319	0.860956	0	0
0	0	0	29.090021	6.040858	17.134093	6.040858	6.520374E+10	1.059617E-5	94373.758586	18.804785	0.859411	0	0
0	0	0	28.794609	6.040953	16.72493	6.040953	5.558007E+10	9.357454E-6	106866.679164	19.025755	0.856599	0	0
0	0	0	28.503852	6.041141	16.322022	6.041141	4.749616E+10	8.608595E-6	116162.980556	18.794325	0.856678	0	0
0	0	0	28.218364	6.041342	15.926373	6.041342	4.070376E+10	8.035206E-6	124452.319183	18.940108	0.853668	0	0
0	0	0	27.938388	6.04141	15.538623	6.04141	3.498685E+10	7.12038E-6	140441.951928	18.909201	0.852876	0	0
0	0	0	27.663599	6.041358	15.158299	6.041358	3.015731E+10	5.994179E-6	166828.51453	18.813599	0.851014	0	0
0	0	0	27.394853	6.041538	14.785858	6.041538	2.60795E+10	5.637803E-6	177374.061693	19.003399	0.848519	0	0
0	0	0	27.132723	6.041984	14.422012	6.041984	2.263388E+10	6.247325E-6	160068.497254	18.772932	0.848242	0	0
0	0	0	26.86994	6.041825	14.058529	6.041825	1.963656E+10	4.933159E-6	202709.858445	18.958316	0.845033	0	0
0	0	0	26.610913	6.042045	13.699443	6.042045	1.70708E+10	4.896593E-6	204223.619319	18.866415	0.844994	0	0
0	0	0	26.349518	6.041859	13.337944	6.041859	1.482129E+10	3.796505E-6	263400.1456	18.832071	0.842538	0	0
0	0	0	26.086408	6.042252	12.972821	6.042252	1.285629E+10	4.255295E-6	235001.308241	19.001677	0.840399	0	0
0	0	0	25.828974	6.042185	12.616548	6.042185	1.118608E+10	3.528656E-6	283393.988946	18.782002	0.839805	0	0
0	0	0	25.564353	6.042192	12.250165	6.042192	9.695109E+9	3.073426E-6	325369.812205	18.987347	0.836795	0	0
0	0	0	25.30063	6.042505	11.884346	6.042505	8.40695E+9	3.429447E-6	291592.207905	18.846051	0.836636	0	0
0	0	0	25.037929	6.042419	11.520823	6.042419	7.293968E+9	2.757369E-6	362664.512953	18.837703	0.834339	0	0
0	0	0	24.778821	6.042379	11.162174	6.042379	6.340638E+9	2.318705E-6	431275.161317	18.954648	0.832755	0	0
0	0	0	24.524123	6.042639	10.808952	6.042639	5.525066E+9	2.568275E-6	389366.402344	18.748443	0.831923	0	0
0	0	0	24.273264	6.042546	10.461843	6.042546	4.824398E+9	2.043981E-6	489241.437791	18.970199	0.828952	0	0
0	0	0	24.020281	6.042579	10.111506	6.042579	4.207754E+9	1.841207E-6	543122.130562	18.80849	0.828556	0	0
0	0	0	23.774567	6.042519	9.771448	6.042519	3.684376E+9	1.522684E-6	656734.993561	18.864834	0.825744	0	0
0	0	0	23.523871	6.042745	9.423827	6.042745	3.217422E+9	1.683418E-6	594029.427349	18.936724	0.824555	0	0
0	0	0	23.262476	6.042925	9.061494	6.042925	2.793445E+9	1.853058E-6	539648.499933	18.750651	0.823407	0	0
0	0	0	23.016558	6.042779	8.721355	6.042779	2.445715E+9	1.331942E-6	750783.203766	18.966078	0.820872	0	0
0	0	0	22.766557	6.042998	8.374696	6.042998	2.136549E+9	1.591105E-6	628494.024887	18.774787	0.820555	0	0
0	0	0	22.522395	6.043025	8.036577	6.043025	1.872367E+9	1.459452E-6	685188.825577	18.881483	0.817505	0	0
0	0	0	22.276436	6.042852	7.696451	6.042852	1.639257E+9	9.807185E-7	1019660.635104	18.902555	0.816594	0	0
0	0	0	22.02913	6.042872	7.353996	6.042872	1.434124E+9	8.81687E-7	1134189.386518	18.758304	0.815168	0	0
0	0	0	21.780925	6.042845	7.010411	6.042845	1.254052E+9	7.43673E-7	1344677.030253	18.968259	0.812673	0	0
0	0	0	21.52831	6.042965	6.66036	6.042965	1.093979E+9	7.719428E-7	1295432.82898	18.735242	0.812356	0	0
0	0	0	21.276961	6.043111	6.311992	6.043111	9.549918E+8	8.775281E-7	1139564.641722	18.896479	0.809108	0	0
0	0	0	21.02357	6.042912	5.961655	6.042912	8.327428E+8	5.419148E-7	1845308.660781	18.836767	0.80887	0	0
0	0	0	20.766993	6.043138	5.605846	6.043138	7.248937E+8	7.048736E-7	1418694.135659	18.758418	0.806811	0	0
0	0	0	20.50666	6.043118	5.245449	6.043118	6.29732E+8	5.867729E-7	1704236.771352	18.950305	0.804632	0	0
0	0	0	20.243509	6.043151	4.881016	6.043151	5.462302E+8	5.470815E-7	1827881.325264	18.716687	0.804196	0	0
0	0	0	19.974845	6.043318	4.508609	6.043318	4.723907E+8	7.561621E-7	1322467.748844	18.898893	0.801543	0	0
0	0	0	19.703037	6.043251	4.132442	6.043251	4.07839E+8	5.268035E-7	1898241.136438	18.793951	0.801028	0	0
0	0	0	19.423674	6.043544	3.744886	6.043544	3.506731E+8	3.011354E-6	332076.548914	18.762538	0.799008	0	0
0	0	0	19.137654	6.043231	3.349684	6.043231	3.004371E+8	3.66843E-7	2725962.008827	18.912408	0.797027	0	0
0	0	0	18.845509	6.043384	2.944788	6.043384	2.565467E+8	5.399132E-7	1852149.486434	18.68841	0.796592	0	0
0	0	0	18.546014	6.043431	2.52999	6.043431	2.181995E+8	5.88911E-7	1698049.396306	18.917364	0.793304	0	0
0	0	0	18.237616	6.043424	2.103006	6.043424	1.846933E+8	4.791642E-7	2086967.28686	18.752662	0.793423	0	0
0	0	0	17.923664	6.043484	1.668155	6.043484	1.558635E+8	6.212E-7	1609787.553306	18.774878	0.790967	0	0
0	0	0	17.595175	6.043364	1.213658	6.043364	1.305043E+8	2.5099E-7	3984222.62868	18.870813	0.789581	0	0
0	0	0	17.251575	6.043564	0.737374	6.043564	1.083822E+8	1.515554E-6	659824.917062	18.668319	0.788551	0	0
0	0	0	16.892499	6.043424	0.240587	6.043424	8.926009E+7	2.31598E-7	4317827.474169	18.898936	0.785739	0	0
0	0	0	16.518395	6.043451	-0.277463	6.043451	7.291699E+7	2.23939E-7	4465502.22932	18.703433	0.785699	0	0
0	0	0	16.126242	6.043491	-0.820544	6.043491	5.898785E+7	2.500359E-7	3999425.410551	18.804982	0.782689	0	0
0	0	0	15.713425	6.043378	-1.391803	6.043378	4.718949E+7	9.630008E-8	1.038421E+7	18.827547	0.782015	0	0
0	0	0	15.275656	6.043551	-1.998421	6.043551	3.724519E+7	3.67395E-7	2721866.451094	18.66863	0.78051	0	0
0	0	0	14.805219	6.043617	-2.649974	6.043617	2.888187E+7	-6.003729E-7	-1665631.560447	18.881539	0.778173	0	0
0	0	0	14.296844	6.04359	-3.353787	6.04359	2.194188E+7	1.878569E-6	532319.974698	18.660042	0.777936	0	0
0	0	0	13.735014	6.043683	-4.131966	6.043683	1.61947E+7	-8.195899E-8	-1.220122E+7	18.811602	0.775203	0	0
0	0	0	13.127284	6.04359	-4.973148	6.04359	1.165992E+7	9.991531E-7	1000847.602046	18.792798	0.774609	0	0
0	0	0	12.448008	6.043597	-5.913686	6.043597	8076472	-2.46084E-6	-406365.279355	18.685456	0.772945	0	0
0	0	0	11.786782	6.043584	-6.829171	6.043584	5649178.5	2.122849E-7	4710649.927178	18.87588	0.770766	0	0
0	0	0	11.229567	6.04369	-7.601017	6.04369	4179916	-1.966505E-8	-5.085163E+7	18.647964	0.770331	0	0
0	0	0	10.742713	6.04365	-8.274987	6.04365	3212688.5	-2.614722E-8	-3.824498E+7	18.824283	0.767519	0	0
0	0	0	10.27836	6.043657	-8.917948	6.043657	2499495	-1.813625E-8	-5.513818E+7	18.727717	0.767281	0	0
0	0	0	9.826504	6.043677	-9.54365	6.043677	1957805.5	-1.071821E-8	-9.329913E+7	18.683984	0.765063	0	0
0	0	0	9.403518	6.04367	-10.129292	6.04367	1557632.5	-9.287435E-9	-1.076724E+8	18.845376	0.76332	0	0
0	0	0	9.00381	6.043544	-10.682314	6.043544	1254946.5	1.079107E-8	9.266926E+7	18.6072	0.763082	0	0
0	0	0	8.618149	6.043544	-11.216295	6.043544	1018787	8.760382E-9	1.141503E+8	18.824874	0.760191	0	0
0	0	0	8.243269	6.043657	-11.735722	6.043657	831903	-6.036212E-9	-1.656668E+8	18.681345	0.760032	0	0
0	0	0	7.874841	6.043504	-12.245335	6.043504	681674	3.309391E-9	3.021704E+8	18.697911	0.757735	0	0
0	0	0	7.511763	6.04385	-12.749207	6.04385	560192	-9.805455E-10	-1.01984E+9	18.804313	0.756468	0	0
0	0	0	7.155709	6.04379	-13.241999	6.04379	462110.5	-1.058004E-9	-9.451763E+8	18.615682	0.75524	0	0
0	0	0	6.808516	6.04381	-13.722791	6.04381	383032	-7.953001E-10	-1.257387E+9	18.838127	0.752784	0	0
0	0	0	6.463406	6.04369	-14.200222	6.04369	317843.5	-1.495324E-9	-6.687513E+8	18.635056	0.753101	0	0
0	0	0	6.124013	6.043777	-14.670441	6.043777	264566	-6.502306E-10	-1.537916E+9	18.726417	0.750209	0	0
0	0	0	5.786009	6.04381	-15.138558	6.04381	220384	-4.575894E-10	-2.185365E+9	18.752402	0.749417	0	0
0	0	0	5.446126	6.043664	-15.608651	6.043664	183394.5	-1.200486E-9	-8.329961E+8	18.592581	0.748031	0	0
0	0	0	5.10559	6.043797	-16.080622	6.043797	152559	-3.377262E-10	-2.960978E+9	18.81217	0.745615	0	0
0	0	0	4.752476	6.043737	-16.569333	6.043737	126048	-3.973855E-10	-2.516448E+9	18.593014	0.745615	0	0
0	0	0	4.407897	6.043664	-17.046177	6.043664	104626	-6.848733E-10	-1.460124E+9	18.745167	0.742803	0	0
0	0	0	4.059438	6.043883	-17.529435	6.043883	86662.5	-1.341429E-10	-7.454735E+9	18.702072	0.742525	0	0
0	0	0	3.713593	6.043644	-18.007434	6.043644	71885	-6.660741E-10	-1.501334E+9	18.609859	0.740782	0	0
0	0	0	3.3693	6.043604	-18.483996	6.043604	59677.5	-3.272449E-9	-3.055816E+8	18.802953	0.738802	0	0
0	0	0	3.024108	6.043763	-18.962525	6.043763	49518.5	-1.313541E-10	-7.613007E+9	18.564884	0.738446	0	0
0	0	0	2.678671	6.043956	-19.441523	6.043956	41083.5	-5.069081E-11	-1.972744E+10	18.752257	0.735713	0	0
0	0	0	2.338094	6.043996	-19.913237	6.043996	34175.5	-3.796605E-11	-2.633932E+10	18.640553	0.735316	0	0
0	0	0	1.999641	6.04379	-20.381102	6.04379	28461	-6.516153E-11	-1.534648E+10	18.61448	0.733415	0	0
0	0	0	1.679931	6.043943	-20.824342	6.043943	23944	-3.067476E-11	-3.260009E+10	18.73906	0.732029	0	0
0	0	0	1.404243	6.04383	-21.205639	6.04383	20628.5	-3.918318E-11	-2.552116E+10	18.514085	0.731435	0	0
0	0	0	1.165676	6.04373	-21.535586	6.04373	18132.5	-5.999262E-11	-1.666872E+10	18.751104	0.728345	0	0
0	0	0	0.964923	6.04383	-21.813924	6.04383	16268	-3.090054E-11	-3.236189E+10	18.581564	0.728464	0	0
0	0	0	0.795615	6.043856	-22.04845	6.043856	14845	-2.532176E-11	-3.949172E+10	18.632265	0.726008	0	0
0	0	0	0.651421	6.043684	-22.247446	6.043684	13732	-6.949022E-11	-1.439051E+10	18.702012	0.725058	0	0
0	0	0	0.530748	6.044043	-22.415892	6.044043	12864.5	-1.280312E-11	-7.810598E+10	18.512738	0.724345	0	0
0	0	0	0.427432	6.043803	-22.558035	6.043803	12166	-2.606971E-11	-3.835869E+10	18.744604	0.721731	0	0
0	0	0	0.343431	6.043903	-22.674723	6.043903	11625.5	-1.682686E-11	-5.94288E+10	18.520621	0.721929	0	0
0	0	0	0.274009	6.04377	-22.770339	6.04377	11197.5	-2.856996E-11	-3.500179E+10	18.652059	0.718918	0	0
0	0	0	0.219369	6.043843	-22.846271	6.043843	10871.5	-1.954044E-11	-5.117591E+10	18.649358	0.718324	0	0
0	0	0	0.170692	6.04389	-22.913848	6.04389	10589.5	-1.602057E-11	-6.241974E+10	18.503936	0.716977	0	0
0	0	0	0.143168	6.043836	-22.951754	6.043836	10433	-1.927002E-11	-5.189409E+10	18.706311	0.714957	0	0
0	0	0	0.106783	6.04385	-23.002185	6.04385	10229.5	-1.790544E-11	-5.584894E+10	18.466175	0.714918	0	0
0	0	0	0.07979	6.043564	-23.038466	6.043564	10081.5	1.410973E-10	7.08731E+9	18.661263	0.711908	0	0
0	0	0	0.066886	6.043803	-23.057249	6.043803	10011.5	-2.145298E-11	-4.661358E+10	18.579743	0.711828	0	0
0	0	0	0.04414	6.043816	-23.088794	6.043816	9889	-1.991471E-11	-5.021413E+10	18.517315	0.710046	0	0
0	0	0	0.020659	6.044016	-23.122069	6.044016	9764.5	-1.033277E-11	-9.677945E+10	18.685237	0.708422	0	0
0	0	0	0.009061	6.043664	-23.136778	6.043664	9703.5	-6.35183E-11	-1.57435E+10	18.450364	0.707907	0	0
0	0	0	0.002936	6.04389	-23.146125	6.04389	9671	-1.4631E-11	-6.834803E+10	18.660799	0.705174	0	0
0	0	0	-0.00221	6.043797	-23.152893	6.043797	9644.5	-2.135043E-11	-4.683747E+10	18.498345	0.705214	0	0
0	0	0	-0.009438	6.043697	-23.162519	6.043697	9607	-4.222741E-11	-2.36813E+10	18.514402	0.703233	0	0
0	0	0	-0.019565	6.04359	-23.176134	6.04359	9554.5	8.194731E-10	1.220296E+9	18.632253	0.701847	0	0
0	0	0	-0.030265	6.043969	-23.1924	6.043969	9499	-1.130338E-11	-8.84691E+10	18.429925	0.700936	0	0
0	0	0	-0.037411	6.043511	-23.200537	6.043511	9462.5	4.95332E-11	2.018848E+10	18.647639	0.698678	0	0
0	0	0	-0.046354	6.04381	-23.214066	6.04381	9417	-1.955277E-11	-5.114364E+10	18.444644	0.698757	0	0
0	0	0	-0.051908	6.044102	-23.222878	6.044102	9389	-8.240844E-12	-1.213468E+11	18.531401	0.696222	0	0
0	0	0	-0.055461	6.04383	-23.226752	6.04383	9370.5	-1.779896E-11	-5.618304E+10	18.577673	0.695272	0	0
0	0	0	-0.059994	6.044009	-23.233716	6.044009	9347.5	-1.005048E-11	-9.949774E+10	18.416145	0.69448	0	0
0	0	0	-0.062076	6.043843	-23.235963	6.043843	9337.5	-1.678323E-11	-5.958328E+10	18.642687	0.692143	0	0
0	0	0	-0.064853	6.04373	-23.239374	6.04373	9323.5	-3.084744E-11	-3.24176E+10	18.408434	0.692143	0	0
0	0	0	-0.066364	6.04371	-23.24139	6.04371	9315.5	-3.619048E-11	-2.763158E+10	18.553837	0.689608	0	0
0	0	0	-0.066282	6.043836	-23.241761	6.043836	9316	-1.720689E-11	-5.811626E+10	18.48935	0.689489	0	0
0	0	0	-0.06812	6.043916	-23.244611	6.043916	9307	-1.291231E-11	-7.74455E+10	18.41018	0.687667	0	0
0	0	0	-0.068488	6.043737	-23.244432	6.043737	9305	-2.933542E-11	-3.408848E+10	18.590094	0.686043	0	0
0	0	0	-0.069345	6.043936	-23.246384	6.043936	9300.5	-1.214753E-11	-8.232125E+10	18.358759	0.685686	0	0
0	0	0	-0.070121	6.04389	-23.24728	6.04389	9297	-1.406518E-11	-7.109754E+10	18.575445	0.682914	0	0
0	0	0	-0.070203	6.044029	-23.247929	6.044029	9296.5	-9.535863E-12	-1.048673E+11	18.44506	0.682914	0	0
0	0	0	-0.070938	6.043856	-23.248283	6.043856	9292.5	-1.585062E-11	-6.308901E+10	18.44086	0.680973	0	0
0	0	0	-0.07204	6.04391	-23.250014	6.04391	9287	-1.315742E-11	-7.600273E+10	18.540189	0.680022	0	0
0	0	0	-0.072122	6.043637	-23.249082	6.043637	9287	-9.988641E-11	-1.001137E+10	18.330711	0.67927	0	0
0	0	0	-0.072694	6.04391	-23.250919	6.04391	9284	-1.315317E-11	-7.602729E+10	18.566149	0.676695	0	0
0	0	0	-0.073592	6.043996	-23.252494	6.043996	9279.5	-1.030873E-11	-9.700516E+10	18.365443	0.676893	0	0
0	0	0	-0.074164	6.04383	-23.252648	6.04383	9276.5	-1.762041E-11	-5.675235E+10	18.456102	0.674477	0	0
0	0	0	-0.074286	6.044036	-23.253608	6.044036	9276	-9.37115E-12	-1.067105E+11	18.478086	0.673962	0	0
0	0	0	-0.075267	6.043757	-23.253894	6.043757	9271	-2.560789E-11	-3.905047E+10	18.305689	0.672972	0	0
0	0	0	-0.077227	6.043617	-23.256073	6.043617	9261.5	-1.924185E-10	-5.197006E+9	18.533911	0.670714	0	0
0	0	0	-0.076614	6.043896	-23.256296	6.043896	9264	-1.370532E-11	-7.296434E+10	18.290189	0.670793	0	0
0	0	0	-0.078738	6.043923	-23.259338	6.043923	9253.5	-1.257725E-11	-7.950863E+10	18.458478	0.668219	0	0
0	0	0	-0.07837	6.04385	-23.258549	6.04385	9255.5	-1.620058E-11	-6.172619E+10	18.413396	0.667704	0	0
0	0	0	-0.079187	6.044215	-23.261082	6.044215	9251.5	-6.639332E-12	-1.506176E+11	18.325904	0.666436	0	0
0	0	0	-0.078819	6.043916	-23.259426	6.043916	9253.5	-1.283808E-11	-7.789326E+10	18.507893	0.664694	0	0
0	0	0	-0.079391	6.044003	-23.260549	6.044003	9250.5	-1.010865E-11	-9.892517E+10	18.259656	0.664852	0	0
0	0	0	-0.080249	6.044016	-23.261787	6.044016	9246	-9.784096E-12	-1.022067E+11	18.469789	0.662079	0	0
0	0	0	-0.081106	6.043923	-23.262618	6.043923	9242	-1.256162E-11	-7.960756E+10	18.328981	0.662198	0	0
0	0	0	-0.081188	6.043976	-23.262935	6.043976	9241.5	-1.080478E-11	-9.255163E+10	18.345875	0.66002	0	0
0	0	0	-0.081065	6.043883	-23.262408	6.043883	9242	-1.430548E-11	-6.990327E+10	18.460005	0.658911	0	0
0	0	0	-0.081351	6.04387	-23.262753	6.04387	9240.5	-1.499715E-11	-6.667932E+10	18.245143	0.658317	0	0
0	0	0	-0.080698	6.043816	-23.261644	6.043816	9244	-1.86158E-11	-5.371782E+10	18.463381	0.656059	0	0
0	0	0	-0.08229	6.044043	-23.264716	6.044043	9236	-9.191931E-12	-1.087911E+11	18.255972	0.656534	0	0
0	0	0	-0.08278	6.043644	-23.263865	6.043644	9233.5	-8.5556E-11	-1.168825E+10	18.353498	0.65388	0	0
0	0	0	-0.082944	6.04387	-23.264958	6.04387	9232.5	-1.498417E-11	-6.67371E+10	18.382168	0.653286	0	0
0	0	0	-0.082985	6.043856	-23.264963	6.043856	9232.5	-1.574828E-11	-6.349901E+10	18.225008	0.652336	0	0
0	0	0	-0.082576	6.043836	-23.264322	6.043836	9234.5	-1.705636E-11	-5.862917E+10	18.455557	0.650157	0	0
0	0	0	-0.081719	6.044142	-23.264307	6.044142	9238.5	-7.517013E-12	-1.330316E+11	18.20887	0.650316	0	0
0	0	0	-0.081024	6.043896	-23.262402	6.043896	9242	-1.367278E-11	-7.313803E+10	18.371601	0.647899	0	0
0	0	0	-0.080085	6.043876	-23.261025	6.043876	9247	-1.465224E-11	-6.824896E+10	18.294508	0.647741	0	0
0	0	0	-0.080044	6.043743	-23.260459	6.043743	9247	-2.784057E-11	-3.59188E+10	18.222249	0.645998	0	0
0	0	0	-0.080657	6.043949	-23.262098	6.043949	9244	-1.162001E-11	-8.605847E+10	18.390843	0.644374	0	0
0	0	0	-0.080984	6.043976	-23.262652	6.043976	9242.5	-1.080595E-11	-9.254161E+10	18.157102	0.644057	0	0
0	0	0	-0.079105	6.04389	-23.259719	6.04389	9252	-1.39971E-11	-7.144335E+10	18.382318	0.641403	0	0
0	0	0	-0.07886	6.043783	-23.258972	6.043783	9253	-2.193547E-11	-4.558827E+10	18.21655	0.641839	0	0
0	0	0	-0.078533	6.043956	-23.259183	6.043956	9254.5	-1.141865E-11	-8.757603E+10	18.235491	0.639581	0	0
0	0	0	-0.077349	6.043743	-23.256727	6.043743	9260.5	-2.788122E-11	-3.586644E+10	18.344265	0.638552	0	0
0	0	0	-0.077921	6.043943	-23.258284	6.043943	9257.5	-1.185982E-11	-8.43183E+10	18.146939	0.637799	0	0
0	0	0	-0.07739	6.04393	-23.257498	6.04393	9260.5	-1.233613E-11	-8.106268E+10	18.373282	0.635541	0	0
0	0	0	-0.077227	6.043823	-23.256863	6.043823	9261.5	-1.810601E-11	-5.523029E+10	18.143698	0.635937	0	0
0	0	0	-0.076206	6.043697	-23.254965	6.043697	9266.5	-4.073075E-11	-2.455148E+10	18.266564	0.633284	0	0
0	0	0	-0.076818	6.04377	-23.256094	6.04377	9263.5	-2.363544E-11	-4.230934E+10	18.259144	0.632888	0	0
0	0	0	-0.077022	6.044116	-23.257703	6.044116	9262	-7.921516E-12	-1.262385E+11	18.115995	0.632056	0	0
0	0	0	-0.076737	6.04375	-23.255904	6.04375	9263.5	-2.668912E-11	-3.746846E+10	18.327238	0.629996	0	0
0	0	0	-0.076492	6.043883	-23.256075	6.043883	9265	-1.434108E-11	-6.972974E+10	18.089567	0.629996	0	0
0	0	0	-0.076859	6.043763	-23.256125	6.043763	9263	-2.457129E-11	-4.069791E+10	18.269504	0.627422	0	0
0	0	0	-0.076859	6.043816	-23.256329	6.043816	9263	-1.865406E-11	-5.360763E+10	18.165775	0.62754	0	0
0	0	0	-0.07739	6.043823	-23.25709	6.043823	9260.5	-1.810405E-11	-5.523626E+10	18.132322	0.625798	0	0
0	0	0	-0.077962	6.04393	-23.258289	6.04393	9257.5	-1.233214E-11	-8.108895E+10	18.277608	0.624609	0	0
0	0	0	-0.078125	6.04369	-23.257597	6.04369	9256.5	-4.354803E-11	-2.296315E+10	18.050651	0.624253	0	0
0	0	0	-0.078248	6.043903	-23.258583	6.043903	9256	-1.339722E-11	-7.464234E+10	18.27686	0.621757	0	0
0	0	0	-0.080085	6.043823	-23.260821	6.043823	9247	-1.807766E-11	-5.53169E+10	18.094454	0.621995	0	0
0	0	0	-0.081188	6.043843	-23.262425	6.043843	9241.5	-1.661068E-11	-6.020223E+10	18.158189	0.619698	0	0
0	0	0	-0.080902	6.04365	-23.261289	6.04365	9242.5	-7.522098E-11	-1.329416E+10	18.200381	0.619222	0	0
0	0	0	-0.081678	6.04381	-23.262976	6.04381	9239	-1.918319E-11	-5.212898E+10	18.015331	0.618509	0	0
0	0	0	-0.082535	6.044069	-23.265158	6.044069	9234.5	-8.674266E-12	-1.152835E+11	18.237582	0.616291	0	0
0	0	0	-0.083761	6.04367	-23.265324	6.04367	9228.5	-5.502494E-11	-1.817358E+10	17.999351	0.616687	0	0
0	0	0	-0.085516	6.043949	-23.268826	6.043949	9220	-1.158984E-11	-8.628248E+10	18.170582	0.613954	0	0
0	0	0	-0.085394	6.043863	-23.268325	6.043863	9220.5	-1.533676E-11	-6.52028E+10	18.121328	0.614034	0	0
0	0	0	-0.086619	6.043697	-23.269384	6.043697	9214	-4.049999E-11	-2.469137E+10	18.025666	0.612568	0	0
0	0	0	-0.085884	6.043989	-23.269488	6.043989	9218	-1.041333E-11	-9.603076E+10	18.202856	0.610865	0	0
0	0	0	-0.087354	6.043856	-23.271014	6.043856	9210.5	-1.571075E-11	-6.365068E+10	17.953084	0.610984	0	0
0	0	0	-0.087477	6.044009	-23.27177	6.044009	9210	-9.902639E-12	-1.009832E+11	18.175642	0.60837	0	0
0	0	0	-0.086211	6.043843	-23.269379	6.043843	9216.5	-1.656575E-11	-6.036553E+10	18.022042	0.608805	0	0
0	0	0	-0.087109	6.043856	-23.270674	6.043856	9212	-1.571331E-11	-6.364032E+10	18.04577	0.606627	0	0
0	0	0	-0.087763	6.043949	-23.271936	6.043949	9208.5	-1.157538E-11	-8.639023E+10	18.137965	0.605637	0	0
0	0	0	-0.088416	6.04381	-23.272305	6.04381	9205.5	-1.911363E-11	-5.231869E+10	17.930788	0.605122	0	0
0	0	0	-0.090049	6.043996	-23.275281	6.043996	9197	-1.021708E-11	-9.787533E+10	18.148528	0.603022	0	0
0	0	0	-0.088865	6.043664	-23.272366	6.043664	9203	-6.024206E-11	-1.65997E+10	17.931407	0.603458	0	0
0	0	0	-0.090131	6.043943	-23.27519	6.043943	9197	-1.178232E-11	-8.487296E+10	18.055022	0.600883	0	0
0	0	0	-0.08862	6.04391	-23.27297	6.04391	9204	-1.303983E-11	-7.668811E+10	18.063353	0.600487	0	0
0	0	0	-0.088906	6.043916	-23.273392	6.043916	9202.5	-1.276733E-11	-7.832494E+10	17.931041	0.599458	0	0
0	0	0	-0.087191	6.043783	-23.270507	6.043783	9211.5	-2.183709E-11	-4.579366E+10	18.139916	0.597596	0	0
0	0	0	-0.087068	6.044036	-23.271306	6.044036	9212	-9.306493E-12	-1.074519E+11	17.879402	0.597794	0	0
0	0	0	-0.087763	6.044029	-23.272242	6.044029	9208.5	-9.445597E-12	-1.058694E+11	18.058566	0.595259	0	0
0	0	0	-0.086129	6.043976	-23.269776	6.043976	9216.5	-1.077555E-11	-9.280268E+10	17.944782	0.595457	0	0
0	0	0	-0.085067	6.044063	-23.268638	6.044063	9222	-8.785887E-12	-1.138189E+11	17.911315	0.593754	0	0
0	0	0	-0.084863	6.04379	-23.267309	6.04379	9223	-2.111608E-11	-4.735727E+10	18.058285	0.592447	0	0
0	0	0	-0.083801	6.043797	-23.265865	6.043797	9228.5	-2.042951E-11	-4.89488E+10	17.828879	0.592288	0	0
0	0	0	-0.082495	6.043763	-23.263928	6.043763	9235	-2.449701E-11	-4.08213E+10	18.054104	0.589714	0	0
0	0	0	-0.082331	6.043903	-23.264237	6.043903	9235.5	-1.336755E-11	-7.480803E+10	17.849018	0.590347	0	0
0	0	0	-0.082086	6.043856	-23.26372	6.043856	9237	-1.575595E-11	-6.346807E+10	17.931525	0.588011	0	0
0	0	0	-0.081515	6.043797	-23.262698	6.043797	9240	-2.045497E-11	-4.888788E+10	17.9632	0.587575	0	0
0	0	0	-0.081065	6.043697	-23.261694	6.043697	9242	-4.062306E-11	-2.461656E+10	17.808855	0.586585	0	0
0	0	0	-0.081964	6.043816	-23.263397	6.043816	9237.5	-1.860271E-11	-5.375562E+10	18.033908	0.584565	0	0
0	0	0	-0.079881	6.043557	-23.259519	6.043557	9248	1.070388E-10	9.342405E+9	17.799109	0.584723	0	0
0	0	0	-0.079473	6.043757	-23.259718	6.043757	9250	-2.554988E-11	-3.913912E+10	17.953443	0.582267	0	0
0	0	0	-0.079228	6.04365	-23.258971	6.04365	9251.5	-7.529422E-11	-1.328123E+10	17.860144	0.582584	0	0
0	0	0	-0.080453	6.043863	-23.261483	6.043863	9245	-1.537752E-11	-6.503001E+10	17.789347	0.580802	0	0
0	0	0	-0.080861	6.04389	-23.262151	6.04389	9243	-1.398349E-11	-7.151291E+10	17.948234	0.579613	0	0
0	0	0	-0.079595	6.043743	-23.259837	6.043743	9249	-2.784659E-11	-3.591104E+10	17.713129	0.579257	0	0
0	0	0	-0.079759	6.04369	-23.259859	6.04369	9248.5	-4.35104E-11	-2.298301E+10	17.94828	0.57692	0	0
0	0	0	-0.080289	6.04385	-23.261206	6.04385	9246	-1.618395E-11	-6.178961E+10	17.764093	0.577395	0	0
0	0	0	-0.081106	6.043816	-23.26221	6.043816	9242	-1.861177E-11	-5.372944E+10	17.804149	0.575177	0	0
0	0	0	-0.0818	6.043777	-23.263018	6.043777	9238.5	-2.270569E-11	-4.404183E+10	17.875487	0.574544	0	0
0	0	0	-0.081474	6.04363	-23.262004	6.04363	9240	-1.184194E-10	-8.444564E+9	17.696765	0.573751	0	0
0	0	0	-0.082658	6.043743	-23.264078	6.043743	9234	-2.780143E-11	-3.596937E+10	17.930719	0.571612	0	0
0	0	0	-0.083842	6.043883	-23.266253	6.043883	9228	-1.428381E-11	-7.000932E+10	17.679578	0.572127	0	0
0	0	0	-0.085149	6.043816	-23.267807	6.043816	9221.5	-1.857049E-11	-5.384889E+10	17.840571	0.569355	0	0
0	0	0	-0.083597	6.043983	-23.266296	6.043983	9229	-1.060483E-11	-9.429664E+10	17.774697	0.569513	0	0
0	0	0	-0.086497	6.043943	-23.270158	6.043943	9215	-1.180538E-11	-8.470718E+10	17.67088	0.568285	0	0
0	0	0	-0.085639	6.043777	-23.268333	6.043777	9219	-2.265776E-11	-4.413498E+10	17.852093	0.566661	0	0
0	0	0	-0.086497	6.044076	-23.270668	6.044076	9215	-8.536094E-12	-1.171496E+11	17.589249	0.566661	0	0
0	0	0	-0.088538	6.043896	-23.272806	6.043896	9205	-1.361804E-11	-7.343201E+10	17.817876	0.564206	0	0
0	0	0	-0.08911	6.043876	-23.273521	6.043876	9202	-1.458093E-11	-6.858272E+10	17.662066	0.564562	0	0
0	0	0	-0.089192	6.043856	-23.273558	6.043856	9201.5	-1.56954E-11	-6.371294E+10	17.700864	0.562542	0	0
0	0	0	-0.090744	6.044016	-23.276319	6.044016	9193.5	-9.728541E-12	-1.027903E+11	17.779132	0.561829	0	0
0	0	0	-0.08862	6.043703	-23.27218	6.043703	9204	-3.796183E-11	-2.634225E+10	17.57274	0.561274	0	0
0	0	0	-0.09205	6.043989	-23.278026	6.043989	9187	-1.037831E-11	-9.63548E+10	17.793939	0.559175	0	0
0	0	0	-0.091356	6.04391	-23.276759	6.04391	9190.5	-1.30207E-11	-7.680076E+10	17.56924	0.559452	0	0
0	0	0	-0.092459	6.043936	-23.278387	6.043936	9185	-1.199668E-11	-8.335643E+10	17.706243	0.556918	0	0
0	0	0	-0.094174	6.043996	-23.280992	6.043996	9176.5	-1.019431E-11	-9.809398E+10	17.666952	0.556838	0	0
0	0	0	-0.094501	6.043797	-23.280679	6.043797	9175	-2.031108E-11	-4.923422E+10	17.557664	0.55565	0	0
0	0	0	-0.093316	6.043823	-23.279141	6.043823	9181	-1.794863E-11	-5.571456E+10	17.734819	0.554224	0	0
0	0	0	-0.094133	6.043949	-23.280757	6.043949	9177	-1.153579E-11	-8.668677E+10	17.473865	0.554303	0	0
0	0	0	-0.092908	6.044069	-23.27952	6.044069	9183	-8.62589E-12	-1.159301E+11	17.696645	0.551729	0	0
0	0	0	-0.092377	6.043989	-23.278478	6.043989	9185.5	-1.037662E-11	-9.637054E+10	17.536463	0.552125	0	0
0	0	0	-0.091274	6.043903	-23.27662	6.043903	9191	-1.330314E-11	-7.517023E+10	17.56708	0.550026	0	0
0	0	0	-0.091111	6.044142	-23.277312	6.044142	9192	-7.479178E-12	-1.337045E+11	17.649195	0.549313	0	0
0	0	0	-0.091846	6.044049	-23.277973	6.044049	9188.5	-9.010611E-12	-1.109803E+11	17.439746	0.548877	0	0
0	0	0	-0.090744	6.043956	-23.276089	6.043956	9193.5	-1.134339E-11	-8.81571E+10	17.674352	0.546698	0	0
0	0	0	-0.088824	6.04387	-23.2731	6.04387	9203.5	-1.49371E-11	-6.694739E+10	17.437196	0.547213	0	0
0	0	0	-0.087436	6.04387	-23.271178	6.04387	9210	-1.494765E-11	-6.690014E+10	17.58124	0.544639	0	0
0	0	0	-0.087803	6.043883	-23.271738	6.043883	9208.5	-1.425363E-11	-7.015757E+10	17.543539	0.54456	0	0
0	0	0	-0.086782	6.04387	-23.270273	6.04387	9213.5	-1.495333E-11	-6.687473E+10	17.432114	0.543411	0	0
0	0	0	-0.088661	6.044029	-23.273486	6.044029	9204	-9.440981E-12	-1.059212E+11	17.613687	0.541826	0	0
0	0	0	-0.08568	6.043949	-23.269052	6.043949	9219	-1.158858E-11	-8.629184E+10	17.363912	0.541787	0	0
0	0	0	-0.084822	6.043996	-23.268044	6.043996	9223.5	-1.024652E-11	-9.759413E+10	17.581494	0.53949	0	0
0	0	0	-0.085884	6.04381	-23.268799	6.04381	9218	-1.913958E-11	-5.224774E+10	17.420702	0.539965	0	0
0	0	0	-0.084373	6.043637	-23.266044	6.043637	9225.5	-9.922494E-11	-1.007811E+10	17.451134	0.538024	0	0
0	0	0	-0.083352	6.043936	-23.265778	6.043936	9230.5	-1.20561E-11	-8.294554E+10	17.540601	0.537192	0	0
0	0	0	-0.082086	6.043903	-23.263898	6.043903	9237	-1.336972E-11	-7.479588E+10	17.336094	0.536915	0	0
0	0	0	-0.083475	6.043863	-23.265668	6.043863	9230	-1.535257E-11	-6.513569E+10	17.558126	0.534736	0	0
0	0	0	-0.081882	6.04389	-23.263564	6.04389	9238	-1.397592E-11	-7.155162E+10	17.322788	0.535093	0	0
0	0	0	-0.082372	6.043657	-23.26335	6.043657	9235.5	-6.701173E-11	-1.492276E+10	17.464026	0.532716	0	0
0	0	0	-0.0818	6.04381	-23.263145	6.04381	9238.5	-1.918215E-11	-5.21318E+10	17.409809	0.532875	0	0
0	0	0	-0.081555	6.043684	-23.262321	6.043684	9239.5	-4.675611E-11	-2.138758E+10	17.316921	0.531568	0	0
0	0	0	-0.081841	6.043777	-23.263074	6.043777	9238	-2.270446E-11	-4.404421E+10	17.500882	0.530023	0	0
0	0	0	-0.08229	6.043743	-23.263569	6.043743	9236	-2.780745E-11	-3.596158E+10	17.241497	0.530142	0	0
0	0	0	-0.082617	6.043823	-23.264327	6.043823	9234	-1.805224E-11	-5.539478E+10	17.456113	0.527845	0	0
0	0	0	-0.08274	6.043777	-23.264318	6.043777	9233.5	-2.26934E-11	-4.406568E+10	17.289928	0.528201	0	0
0	0	0	-0.083393	6.04375	-23.265121	6.04375	9230.5	-2.659404E-11	-3.760241E+10	17.314022	0.526419	0	0
0	0	0	-0.084781	6.043763	-23.267094	6.043763	9223.5	-2.446651E-11	-4.08722E+10	17.402419	0.525587	0	0
0	0	0	-0.084659	6.043703	-23.266695	6.043703	9224	-3.804431E-11	-2.628514E+10	17.23018	0.524795	0	0
0	0	0	-0.086088	6.04387	-23.269312	6.04387	9217	-1.495901E-11	-6.684933E+10	17.445099	0.523091	0	0
0	0	0	-0.087885	6.043664	-23.271009	6.043664	9208	-6.027479E-11	-1.659068E+10	0	0	0	0
0	0	0	-0.088334	6.04389	-23.272498	6.04389	9205.5	-1.392676E-11	-7.180423E+10	0	0	0	0
0	0	0	-0.090049	6.043743	-23.274312	6.043743	9197	-2.769003E-11	-3.611408E+10	0	0	0	0
0	0	0	-0.090744	6.043949	-23.276064	6.043949	9193.5	-1.155653E-11	-8.653119E+10	0	0	0	0
0	0	0	-0.0896	6.043856	-23.274123	6.043856	9199.5	-1.569199E-11	-6.372679E+10	0	0	0	0
0	0	0	-0.091397	6.043896	-23.276764	6.043896	9190.5	-1.359659E-11	-7.354787E+10	0	0	0	0
0	0	0	-0.091315	6.04369	-23.27586	6.04369	9191	-4.323988E-11	-2.31268E+10	0	0	0	0
0	0	0	-0.092826	6.043989	-23.2791	6.043989	9183.5	-1.037436E-11	-9.639152E+10	0	0	0	0
0	0	0	-0.094541	6.04373	-23.28048	6.04373	9175	-3.035612E-11	-3.294229E+10	0	0	0	0
0	0	0	-0.093847	6.043943	-23.280335	6.043943	9178.5	-1.175861E-11	-8.504403E+10	0	0	0	0
0	0	0	-0.093643	6.043816	-23.279568	6.043816	9179	-1.84849E-11	-5.409821E+10	0	0	0	0
0	0	0	-0.095072	6.044116	-23.282695	6.044116	9172	-7.844541E-12	-1.274772E+11	0	0	0	0
0	0	0	-0.094256	6.043963	-23.280977	6.043963	9176.5	-1.111737E-11	-8.994935E+10	0	0	0	0
0	0	0	-0.0974	6.044003	-23.285484	6.044003	9160.5	-1.00103E-11	-9.989709E+10	0	0	0	0
0	0	0	-0.096828	6.04389	-23.284259	6.04389	9163.5	-1.386322E-11	-7.213334E+10	0	0	0	0
0	0	0	-0.096502	6.043856	-23.283679	6.043856	9165	-1.563314E-11	-6.396668E+10	0	0	0	0
0	0	0	-0.095399	6.043763	-23.281795	6.043763	9170.5	-2.432592E-11	-4.110842E+10	0	0	0	0
0	0	0	-0.095971	6.043896	-23.283097	6.043896	9167.5	-1.356256E-11	-7.373239E+10	0	0	0	0
0	0	0	-0.095195	6.04385	-23.281844	6.04385	9171.5	-1.605355E-11	-6.229153E+10	0	0	0	0
0	0	0	-0.094705	6.04383	-23.281089	6.04383	9174	-1.742572E-11	-5.738644E+10	0	0	0	0
0	0	0	-0.093316	6.04389	-23.279396	6.04389	9181	-1.388969E-11	-7.199584E+10	0	0	0	0
0	0	0	-0.094501	6.04383	-23.280806	6.04383	9175	-1.742762E-11	-5.738019E+10	0	0	0	0
0	0	0	-0.092908	6.04365	-23.277913	6.04365	9183	-7.473673E-11	-1.33803E+10	0	0	0	0
0	0	0	-0.090539	6.044182	-23.276674	6.044182	9195	-6.972781E-12	-1.434148E+11	0	0	0	0
0	0	0	-0.09156	6.04379	-23.276582	6.04379	9190	-2.104053E-11	-4.752733E+10	0	0	0	0
0	0	0	-0.090825	6.044082	-23.276687	6.044082	9193.5	-8.399868E-12	-1.190495E+11	0	0	0	0
0	0	0	-0.088865	6.043843	-23.273055	6.043843	9203	-1.654148E-11	-6.045408E+10	0	0	0	0
0	0	0	-0.088375	6.04391	-23.272631	6.04391	9205.5	-1.304196E-11	-7.667562E+10	0	0	0	0
0	0	0	-0.087191	6.043823	-23.27066	6.043823	9211.5	-1.800826E-11	-5.553008E+10	0	0	0	0
0	0	0	-0.086619	6.043703	-23.269409	6.043703	9214	-3.800307E-11	-2.631366E+10	0	0	0	0
0	0	0	-0.085598	6.043843	-23.268531	6.043843	9219	-1.657024E-11	-6.034916E+10	0	0	0	0
0	0	0	-0.084986	6.04363	-23.266867	6.04363	9222.5	-1.181951E-10	-8.460587E+9	0	0	0	0
0	0	0	-0.085476	6.043989	-23.268923	6.043989	9220	-1.041559E-11	-9.600993E+10	0	0	0	0
0	0	0	-0.084455	6.04361	-23.266055	6.04361	9225	-2.779936E-10	-3.597206E+9	0	0	0	0
0	0	0	-0.083475	6.04359	-23.264622	6.04359	9230	7.916413E-10	1.263198E+9	0	0	0	0
0	0	0	-0.083556	6.043883	-23.265857	6.043883	9229.5	-1.428613E-11	-6.999794E+10	0	0	0	0
0	0	0	-0.0818	6.043783	-23.263043	6.043783	9238.5	-2.190109E-11	-4.565982E+10	0	0	0	0
0	0	0	-0.083516	6.044016	-23.266311	6.044016	9230	-9.767165E-12	-1.023839E+11	0	0	0	0
0	0	0	-0.084863	6.043996	-23.2681	6.043996	9223	-1.024596E-11	-9.759942E+10	0	0	0	0
0	0	0	-0.083842	6.043757	-23.265768	6.043757	9228	-2.548912E-11	-3.923243E+10	0	0	0	0
0	0	0	-0.083883	6.043717	-23.265672	6.043717	9228	-3.38829E-11	-2.951341E+10	0	0	0	0
0	0	0	-0.085435	6.04381	-23.268177	6.04381	9220	-1.914374E-11	-5.223641E+10	0	0	0	0
0	0	0	-0.084373	6.043989	-23.267396	6.043989	9225.5	-1.04218E-11	-9.595269E+10	0	0	0	0
0	0	0	-0.086252	6.043657	-23.268722	6.043657	9216	-6.687024E-11	-1.495434E+10	0	0	0	0
0	0	0	-0.08666	6.043497	-23.268675	6.043497	9214	4.170567E-11	2.397756E+10	0	0	0	0
0	0	0	-0.087558	6.043757	-23.270914	6.043757	9209.5	-2.543802E-11	-3.931124E+10	0	0	0	0
0	0	0	-0.087681	6.04391	-23.27167	6.04391	9209	-1.304691E-11	-7.664647E+10	0	0	0	0
0	0	0	-0.089028	6.04393	-23.273612	6.04393	9202	-1.22582E-11	-8.157802E+10	0	0	0	0
0	0	0	-0.089968	6.043943	-23.274964	6.043943	9197.5	-1.178296E-11	-8.486835E+10	0	0	0	0
0	0	0	-0.091397	6.04385	-23.276586	6.04385	9190.5	-1.60868E-11	-6.216275E+10	0	0	0	0
0	0	0	-0.092377	6.044056	-23.278734	6.044056	9185.5	-8.877538E-12	-1.126438E+11	0	0	0	0
0	0	0	-0.0925	6.043876	-23.278214	6.043876	9185	-1.4554E-11	-6.870965E+10	0	0	0	0
0	0	0	-0.093153	6.04389	-23.27917	6.04389	9182	-1.38912E-11	-7.1988E+10	0	0	0	0
0	0	0	-0.094378	6.043777	-23.280433	6.043777	9175.5	-2.255085E-11	-4.434422E+10	0	0	0	0
0	0	0	-0.095195	6.043956	-23.282252	6.043956	9171.5	-1.131624E-11	-8.836857E+10	0	0	0	0
0	0	0	-0.096052	6.043989	-23.283567	6.043989	9167.5	-1.035628E-11	-9.655976E+10	0	0	0	0
0	0	0	-0.097318	6.043876	-23.284886	6.043876	9161	-1.451597E-11	-6.888966E+10	0	0	0	0
0	0	0	-0.097645	6.043943	-23.285594	6.043943	9159.5	-1.173427E-11	-8.522044E+10	0	0	0	0
0	0	0	-0.098258	6.04387	-23.286161	6.04387	9156.5	-1.486082E-11	-6.729103E+10	0	0	0	0
0	0	0	-0.098135	6.043903	-23.286119	6.043903	9157	-1.325393E-11	-7.544933E+10	0	0	0	0
0	0	0	-0.098584	6.04371	-23.286002	6.04371	9155	-3.556694E-11	-2.8116E+10	0	0	0	0
0	0	0	-0.097318	6.04381	-23.284631	6.04381	9161	-1.902123E-11	-5.257283E+10	0	0	0	0
0	0	0	-0.099156	6.043943	-23.287686	6.043943	9152	-1.172467E-11	-8.529028E+10	0	0	0	0
0	0	0	-0.098176	6.044049	-23.286737	6.044049	9157	-8.979721E-12	-1.11362E+11	0	0	0	0
0	0	0	-0.097808	6.043783	-23.285208	6.043783	9158.5	-2.171144E-11	-4.605866E+10	0	0	0	0
0	0	0	-0.09593	6.043843	-23.282836	6.043843	9168	-1.647857E-11	-6.068487E+10	0	0	0	0
0	0	0	-0.094909	6.043856	-23.281474	6.043856	9173	-1.564679E-11	-6.391089E+10	0	0	0	0
0	0	0	-0.095399	6.04385	-23.282127	6.04385	9170.5	-1.60518E-11	-6.229832E+10	0	0	0	0
0	0	0	-0.095031	6.044249	-23.283149	6.044249	9172.5	-6.247541E-12	-1.60063E+11	0	0	0	0
0	0	0	-0.093602	6.043949	-23.280022	6.043949	9179.5	-1.153893E-11	-8.666316E+10	0	0	0	0
0	0	0	-0.092173	6.043664	-23.276946	6.043664	9186.5	-6.013406E-11	-1.662951E+10	0	0	0	0
0	0	0	-0.092704	0	-0.092704	0	9184	0	0	0	0	0	0
0	0	0	-0.091397	0	-0.091397	0	9190.5	0	0	0	0	0	0
