Vload_(V)	ILoad_(A)	RsLoad (ohm)	SunsVoc_Voltage_(V)	SunsVoc_Current_(A)	Model_Voltage_(V)	Model_Current_(A)	Carrier_Density_(cm-3)	Lifetime_(s)	Inverse_Lifetime_(s-1)	Efficiency_(%)	Intensity_(suns)	Dark_IV_Voltage_(V)	Dark_IV_Current_(A)
2.97021	6.396736	0	65.084435	-0.794188	65.307011	-0.794188	3.901539E+15	0.000228	4365.332068	19.647551	1.110127	0	0
2.967908	6.398948	-0.485833	65.070224	-0.654805	65.254257	-0.654805	3.888443E+15	0.000231	4294.897905	19.62181	1.109414	0	0
7.087997	6.389716	5.831722	64.9119	-0.169879	64.961149	-0.169879	3.745137E+15	0.000239	4153.566924	19.748794	1.109018	0	0
12.291731	6.357726	6.154961	64.732505	0.286021	64.646718	0.286021	3.588382E+15	0.000247	4035.283387	19.569906	1.109374	0	0
16.912463	6.349371	5.524146	64.556826	0.694024	64.341848	0.694024	3.440471E+15	0.000253	3928.910096	19.758065	1.107354	0	0
21.653888	6.348786	4.783024	64.387191	1.067902	64.046273	1.067902	3.302726E+15	0.00026	3825.461703	19.56699	1.108265	0	0
26.911779	6.263885	4.453201	64.214657	1.416356	63.748834	1.416356	3.167575E+15	0.000267	3728.852167	19.69137	1.105374	0	0
31.754741	6.25502	3.713062	64.044164	1.737807	63.456054	1.737807	3.038762E+15	0.000274	3636.955283	19.636024	1.105374	0	0
36.629936	6.250156	2.95019	63.874651	2.045826	63.16291	2.045826	2.915207E+15	0.000281	3541.271114	19.591707	1.103512	0	0
41.122355	6.321527	1.922386	63.69983	2.335943	62.864324	2.335943	2.792344E+15	0.000289	3451.369435	19.689203	1.102799	0	0
45.957544	6.302908	1.25631	63.529909	2.605885	62.573093	2.605885	2.677218E+15	0.000296	3361.192384	19.504359	1.102601	0	0
47.367672	6.281417	1.124346	63.3606	2.852492	62.286234	2.852492	2.56658E+15	0.000304	3278.672005	19.680169	1.100502	0	0
48.781889	6.256099	0.987377	63.192843	3.076139	62.005388	3.076139	2.460834E+15	0.000311	3204.414269	19.496235	1.101254	0	0
50.194629	6.208852	0.890848	63.031212	3.283008	61.734231	3.283008	2.362486E+15	0.000319	3130.422883	19.620494	1.099155	0	0
51.62835	6.143033	0.796513	62.867457	3.47349	61.463421	3.47349	2.266275E+15	0.000325	3064.22871	19.584654	1.099749	0	0
53.040127	6.044693	0.718138	62.714116	3.647281	61.20856	3.647281	2.179216E+15	0.000333	2997.649662	19.550452	1.09864	0	0
54.453548	5.889795	0.65894	62.55518	3.814253	60.946804	3.814253	2.091985E+15	0.00034	2933.458287	19.682701	1.098046	0	0
55.838984	5.669348	0.60532	62.398286	3.972252	60.688439	3.972252	2.008784E+15	0.000348	2868.455759	19.512133	1.098482	0	0
57.185305	5.356709	0.561192	62.234858	4.122076	60.422852	4.122076	1.925101E+15	0.000355	2808.586405	19.708614	1.096541	0	0
58.537717	4.913325	0.524123	62.074983	4.260998	60.163819	4.260998	1.846092E+15	0.000363	2750.282597	19.53242	1.097531	0	0
59.842793	4.324835	0.490973	61.916047	4.390203	59.907917	4.390203	1.770262E+15	0.00037	2694.92329	19.654163	1.095194	0	0
61.104155	3.565063	0.466672	61.758458	4.509499	59.656026	4.509499	1.697668E+15	0.000378	2643.403982	19.614662	1.095749	0	0
62.272164	2.672225	0.444223	61.602667	4.619581	59.408671	4.619581	1.628364E+15	0.000385	2595.451667	19.57286	1.094085	0	0
63.342391	1.682742	0.44837	61.448754	4.722309	59.16533	4.722309	1.562231E+15	0.000392	2549.214935	19.69461	1.093016	0	0
64.216131	0.761225	0.455234	61.298475	4.817362	58.928611	4.817362	1.499834E+15	0.000399	2504.783285	19.510822	1.092818	0	0
53.769175	5.974901	0.684321	61.14595	4.906454	58.690415	4.906454	1.438639E+15	0.000405	2464.261504	19.698982	1.090243	0	0
64.862197	0	0	60.993385	4.990088	58.453425	4.990088	1.379519E+15	0.000412	2425.870571	19.514523	1.0906	0	0
0	0	0	60.84331	5.068809	58.220749	5.068809	1.323347E+15	0.000418	2387.521838	19.641353	1.08747	0	0
0	0	0	60.697319	5.143237	57.994266	5.143237	1.270538E+15	0.000425	2347.558141	19.605147	1.086916	0	0
0	0	0	60.543121	5.213759	57.758051	5.213759	1.216669E+15	0.000432	2313.758111	19.551789	1.084817	0	0
0	0	0	60.393659	5.279117	57.52956	5.279117	1.166276E+15	0.000438	2280.541914	19.678182	1.083312	0	0
0	0	0	60.248035	5.339936	57.307461	5.339936	1.118852E+15	0.000444	2247.988086	19.495585	1.08248	0	0
0	0	0	60.107231	5.396999	57.092743	5.396999	1.074528E+15	0.000451	2214.457285	19.686444	1.079668	0	0
0	0	0	59.962302	5.450868	56.873554	5.450868	1.030436E+15	0.000457	2184.914678	19.508139	1.079707	0	0
0	0	0	59.822314	5.501202	56.661985	5.501202	9.892801E+14	0.000464	2154.818475	19.619047	1.076934	0	0
0	0	0	59.68302	5.549142	56.451932	5.549142	9.496905E+14	0.00047	2124.589393	19.579382	1.076816	0	0
0	0	0	59.545319	5.593312	56.245448	5.593312	9.118542E+14	0.000476	2097.534286	19.523639	1.075112	0	0
0	0	0	59.409497	5.634933	56.042276	5.634933	8.757683E+14	0.000483	2070.911827	19.653632	1.073607	0	0
0	0	0	59.267794	5.673781	55.832406	5.673781	8.393925E+14	0.000487	2050.566768	19.471426	1.073568	0	0
0	0	0	59.135483	5.709972	55.63594	5.709972	8.065707E+14	0.000493	2027.258538	19.668344	1.070993	0	0
0	0	0	59.00207	5.744363	55.438598	5.744363	7.745643E+14	0.000498	2005.385159	19.498931	1.071429	0	0
0	0	0	58.869964	5.776874	55.243653	5.776874	7.439217E+14	0.000504	1984.000569	19.625825	1.068221	0	0
0	0	0	58.734264	5.807614	55.044591	5.807614	7.135059E+14	0.000508	1966.056157	19.602832	1.068221	0	0
0	0	0	58.605506	5.836803	54.855268	5.836803	6.856145E+14	0.000514	1944.721447	19.553691	1.06628	0	0
0	0	0	58.470745	5.864641	54.658431	5.864641	6.574067E+14	0.000519	1927.38673	19.694388	1.064418	0	0
0	0	0	58.34407	5.890772	54.473046	5.890772	6.317858E+14	0.000524	1907.103426	19.506577	1.063903	0	0
0	0	0	58.210535	5.91562	54.279013	5.91562	6.056916E+14	0.000528	1891.617363	19.697916	1.060893	0	0
0	0	0	58.081654	5.93854	54.092106	5.93854	5.813743E+14	0.000533	1876.897482	19.532124	1.060576	0	0
0	0	0	57.955428	5.960621	53.908978	5.960621	5.583622E+14	0.000537	1860.113993	19.63498	1.05717	0	0
0	0	0	57.825731	5.981687	53.721602	5.981687	5.355252E+14	0.000542	1845.790321	19.598148	1.056575	0	0
0	0	0	57.698444	6.001424	53.538059	6.001424	5.138881E+14	0.000546	1832.072655	19.53222	1.054516	0	0
0	0	0	57.570952	6.019843	53.354887	6.019843	4.929662E+14	0.000549	1820.876243	19.662134	1.052377	0	0
0	0	0	57.451954	6.037242	53.183534	6.037242	4.740982E+14	0.000554	1805.963193	19.476502	1.051307	0	0
0	0	0	57.322992	6.05373	52.999263	6.05373	4.54351E+14	0.000556	1798.056256	19.671095	1.048376	0	0
0	0	0	57.201095	6.069256	52.82491	6.069256	4.363383E+14	0.000559	1787.555381	19.49943	1.048258	0	0
0	0	0	57.080178	6.084272	52.652031	6.084272	4.190806E+14	0.000563	1775.852747	19.614619	1.044812	0	0
0	0	0	56.955667	6.098406	52.474777	6.098406	4.019283E+14	0.000566	1767.898685	19.577184	1.044415	0	0
0	0	0	56.833525	6.111681	52.301141	6.111681	3.856956E+14	0.000568	1760.344346	19.525391	1.042237	0	0
0	0	0	56.714527	6.124318	52.132023	6.124318	3.704309E+14	0.000571	1751.649433	19.650808	1.040613	0	0
0	0	0	56.594345	6.136681	51.961353	6.136681	3.555505E+14	0.000574	1742.153212	19.478287	1.039662	0	0
0	0	0	56.476981	6.147812	51.795242	6.147812	3.41525E+14	0.000576	1736.08737	19.679704	1.036811	0	0
0	0	0	56.357289	6.158692	51.626048	6.158692	3.277226E+14	0.000578	1730.142783	19.510904	1.036731	0	0
0	0	0	56.240863	6.169139	51.461438	6.169139	3.147691E+14	0.000581	1722.296487	19.616843	1.0338	0	0
0	0	0	56.124888	6.178911	51.297823	6.178911	3.02316E+14	0.000583	1716.260961	19.587027	1.033167	0	0
0	0	0	56.007115	6.188581	51.131744	6.188581	2.901172E+14	0.000585	1709.047059	19.535991	1.030909	0	0
0	0	0	55.893671	6.197066	50.972307	6.197066	2.787811E+14	0.000586	1706.049815	19.656264	1.029324	0	0
0	0	0	55.775857	6.205899	50.806598	6.205899	2.674267E+14	0.000588	1699.816794	19.481874	1.028255	0	0
0	0	0	55.663883	6.213821	50.649376	6.213821	2.570189E+14	0.00059	1695.237139	19.68559	1.024888	0	0
0	0	0	55.549173	6.221618	50.48847	6.221618	2.467337E+14	0.000591	1690.640212	19.502784	1.024967	0	0
0	0	0	55.434055	6.22898	50.327269	6.22898	2.367843E+14	0.000593	1687.623222	19.620395	1.021601	0	0
0	0	0	55.322081	6.235843	50.170627	6.235843	2.274542E+14	0.000593	1684.985221	19.586229	1.020967	0	0
0	0	0	55.204962	6.242913	50.006785	6.242913	2.180513E+14	0.000595	1680.415572	19.53803	1.01859	0	0
0	0	0	55.095928	6.249077	49.854522	6.249077	2.09615E+14	0.000596	1678.010257	19.668522	1.016372	0	0
0	0	0	54.97791	6.255553	49.689793	6.255553	2.00818E+14	0.000597	1674.698379	19.497149	1.015065	0	0
0	0	0	54.867937	6.261122	49.536613	6.261122	1.929242E+14	0.000597	1674.470014	19.692545	1.011738	0	0
0	0	0	54.754738	6.266945	49.37879	6.266945	1.850954E+14	0.000599	1670.365005	19.504874	1.01158	0	0
0	0	0	54.641335	6.27214	49.22116	6.27214	1.775447E+14	0.000598	1671.696564	19.623609	1.008213	0	0
0	0	0	54.529484	6.277449	49.065462	6.277449	1.70375E+14	0.0006	1667.82807	19.567551	1.007658	0	0
0	0	0	54.414733	6.282186	48.90628	6.282186	1.632969E+14	0.000598	1671.019477	19.520252	1.005044	0	0
0	0	0	54.303208	6.286984	48.751344	6.286984	1.566784E+14	0.000599	1668.658011	19.648904	1.002945	0	0
0	0	0	54.192745	6.291262	48.598246	6.291262	1.503681E+14	0.000598	1670.914525	19.469803	1.001994	0	0
0	0	0	54.08024	6.295727	48.442168	6.295727	1.441838E+14	0.000599	1668.827885	19.670533	0.998944	0	0
0	0	0	53.969655	6.299837	48.288948	6.299837	1.383359E+14	0.000599	1668.601446	19.492144	0.998746	0	0
0	0	0	53.860254	6.303683	48.137519	6.303683	1.327686E+14	0.000599	1669.557621	19.626352	0.99538	0	0
0	0	0	53.744972	6.307568	47.978053	6.307568	1.271287E+14	0.000598	1670.833132	19.573482	0.994785	0	0
0	0	0	53.638593	6.31104	47.830961	6.31104	1.221238E+14	0.000598	1671.595544	19.54162	0.99225	0	0
0	0	0	53.525108	6.314409	47.674309	6.314409	1.169887E+14	0.000597	1676.361251	19.663514	0.990428	0	0
0	0	0	53.415829	6.317846	47.523242	6.317846	1.122361E+14	0.000597	1674.403197	19.489119	0.989517	0	0
0	0	0	53.308633	6.320468	47.375718	6.320468	1.077512E+14	0.000593	1686.133556	19.695794	0.986071	0	0
0	0	0	53.196577	6.323925	47.220795	6.323925	1.03244E+14	0.000595	1679.98003	19.508699	0.985992	0	0
0	0	0	53.08346	6.32683	47.064916	6.32683	9.88752E+13	0.000594	1684.212409	19.632961	0.982665	0	0
0	0	0	52.976672	6.329494	46.917802	6.329494	9.491205E+13	0.000593	1687.694577	19.567102	0.982031	0	0
0	0	0	52.861064	6.332043	46.758822	6.332043	9.079166E+13	0.000589	1697.387681	19.538487	0.979259	0	0
0	0	0	52.755011	6.334561	46.612782	6.334561	8.71619E+13	0.000588	1699.279836	19.658355	0.97712	0	0
0	0	0	52.640628	6.337251	46.455259	6.337251	8.34021E+13	0.000589	1699.027946	19.484263	0.97613	0	0
0	0	0	52.52992	6.339608	46.303008	6.339608	7.991084E+13	0.000587	1702.997701	19.690949	0.972763	0	0
0	0	0	52.417987	6.341957	46.149076	6.341957	7.652321E+13	0.000586	1705.265107	19.4963	0.972327	0	0
0	0	0	52.306381	6.343925	45.995936	6.343925	7.328262E+13	0.000583	1716.698779	19.636124	0.968723	0	0
0	0	0	52.191221	6.345947	45.837905	6.345947	7.007703E+13	0.000579	1726.516278	19.559874	0.968049	0	0
0	0	0	52.082065	6.347869	45.688081	6.347869	6.716318E+13	0.000577	1733.243852	19.53219	0.965435	0	0
0	0	0	51.966294	6.349735	45.529326	6.349735	6.420022E+13	0.000573	1743.980535	19.644592	0.963534	0	0
0	0	0	51.860445	6.351476	45.384123	6.351476	6.160175E+13	0.000571	1750.238539	19.487661	0.962266	0	0
0	0	0	51.744837	6.353151	45.225739	6.353151	5.887965E+13	0.000567	1763.368334	19.685252	0.959098	0	0
0	0	0	51.622899	6.355037	45.058537	6.355037	5.613456E+13	0.000565	1769.568126	19.501749	0.958662	0	0
0	0	0	51.508189	6.356611	44.901431	6.356611	5.36655E+13	0.000561	1781.11569	19.648524	0.955137	0	0
0	0	0	51.392621	6.358217	44.743109	6.358217	5.128453E+13	0.000559	1789.241561	19.565501	0.954463	0	0
0	0	0	51.284445	6.359491	44.595135	6.359491	4.914891E+13	0.000554	1805.205427	19.562616	0.951493	0	0
0	0	0	51.169041	6.361135	44.436955	6.361135	4.696586E+13	0.000554	1805.743191	19.650122	0.949948	0	0
0	0	0	51.050043	6.362359	44.274329	6.362359	4.481365E+13	0.000547	1827.389901	19.493744	0.948522	0	0
0	0	0	50.936844	6.363885	44.119226	6.363885	4.285562E+13	0.000548	1826.080398	19.695118	0.945314	0	0
0	0	0	50.825442	6.365038	43.966942	6.365038	4.101018E+13	0.000543	1841.282882	19.485664	0.945314	0	0
0	0	0	50.712161	6.366303	43.811974	6.366303	3.92132E+13	0.000541	1848.807689	19.642713	0.941511	0	0
0	0	0	50.598962	6.367145	43.657562	6.367145	3.749441E+13	0.000532	1880.020912	19.549807	0.941076	0	0
0	0	0	50.482578	6.368168	43.498622	6.368168	3.58041E+13	0.000526	1900.758264	19.563028	0.938026	0	0
0	0	0	50.369828	6.369472	43.344287	6.369472	3.423779E+13	0.000527	1896.937791	19.64628	0.936283	0	0
0	0	0	50.251729	6.370528	43.182956	6.370528	3.266914E+13	0.000523	1911.065237	19.500332	0.934857	0	0
0	0	0	50.131383	6.371419	43.018749	6.371419	3.114319E+13	0.000516	1936.55258	19.69521	0.931966	0	0
0	0	0	50.015816	6.37248	42.86082	6.37248	2.974374E+13	0.000515	1942.683941	19.492096	0.93153	0	0
0	0	0	49.887507	6.373056	42.686142	6.373056	2.82623E+13	0.000501	1995.934193	19.650546	0.928084	0	0
0	0	0	49.765977	6.374195	42.520013	6.374195	2.692611E+13	0.000501	1994.25588	19.550825	0.92749	0	0
0	0	0	49.640364	6.37505	42.348652	6.37505	2.561034E+13	0.000496	2017.128196	19.562909	0.924836	0	0
0	0	0	49.517364	6.375696	42.181065	6.375696	2.438335E+13	0.000486	2055.524658	19.634848	0.923014	0	0
0	0	0	49.386973	6.376789	42.002925	6.376789	2.314585E+13	0.000487	2052.94838	19.489043	0.921786	0	0
0	0	0	49.256377	6.377386	41.825071	6.377386	2.196851E+13	0.000477	2098.285	19.675716	0.919053	0	0
0	0	0	49.124761	6.378165	41.645609	6.378165	2.084178E+13	0.000471	2122.615878	19.472072	0.918895	0	0
0	0	0	48.988285	6.379004	41.459472	6.379004	1.973369E+13	0.000467	2140.514502	19.658563	0.915409	0	0
0	0	0	48.849808	6.379428	41.271101	6.379428	1.866886E+13	0.000453	2208.57977	19.536745	0.915171	0	0
0	0	0	48.706962	6.380312	41.076244	6.380312	1.762995E+13	0.000451	2219.284488	19.573889	0.912359	0	0
0	0	0	48.562768	6.380925	40.879871	6.380925	1.663926E+13	0.000442	2263.55875	19.618017	0.911369	0	0
0	0	0	48.41396	6.3816	40.677152	6.3816	1.567464E+13	0.000435	2300.313558	19.502325	0.909785	0	0
0	0	0	48.258821	6.381927	40.466259	6.381927	1.472792E+13	0.000417	2395.355705	19.680909	0.907487	0	0
0	0	0	48.098129	6.382692	40.247285	6.382692	1.380705E+13	0.000413	2423.010167	19.478999	0.90725	0	0
0	0	0	47.934048	6.383232	40.023977	6.383232	1.292565E+13	0.000402	2488.783902	19.667957	0.903645	0	0
0	0	0	47.76037	6.38377	39.787641	6.38377	1.205347E+13	0.00039	2562.637143	19.542356	0.903487	0	0
0	0	0	47.577136	6.384315	39.538317	6.384315	1.119657E+13	0.000378	2642.761967	19.595218	0.900674	0	0
0	0	0	47.385	6.384797	39.276981	6.384797	1.036297E+13	0.000364	2744.404321	19.620329	0.899684	0	0
0	0	0	47.19119	6.385189	39.013479	6.385189	9.584584E+12	0.000348	2869.888001	19.509414	0.898021	0	0
0	0	0	46.989457	6.385756	38.738992	6.385756	8.836074E+12	0.000338	2960.331117	19.672362	0.896001	0	0
0	0	0	46.781109	6.386363	38.455461	6.386363	8.124013E+12	0.000329	3041.597388	19.474176	0.895525	0	0
0	0	0	46.557161	6.38678	38.150996	6.38678	7.422196E+12	0.000313	3195.35856	19.680546	0.892	0	0
0	0	0	46.319859	6.387144	37.828469	6.387144	6.744292E+12	0.000295	3388.047753	19.523961	0.892119	0	0
0	0	0	46.070348	6.387605	37.48923	6.387605	6.097921E+12	0.00028	3567.016524	19.612444	0.88899	0	0
0	0	0	45.796212	6.387891	37.116796	6.387891	5.458702E+12	0.000259	3859.836559	19.615998	0.888396	0	0
0	0	0	45.497819	6.388493	36.710999	6.388493	4.838611E+12	0.000246	4058.183572	19.520001	0.886415	0	0
0	0	0	45.171494	6.388862	36.267595	6.388862	4.240605E+12	0.000226	4423.294494	19.676266	0.884593	0	0
0	0	0	44.815358	6.389268	35.783665	6.389268	3.671789E+12	0.000206	4845.203616	19.49023	0.883959	0	0
0	0	0	44.437333	6.38983	35.269786	6.38983	3.151087E+12	0.000192	5220.658859	19.675954	0.881226	0	0
0	0	0	44.032765	6.389979	34.720457	6.389979	2.675204E+12	0.000166	6016.82693	19.527332	0.88083	0	0
0	0	0	43.603328	6.390363	34.13702	6.390363	2.248334E+12	0.000148	6753.085827	19.615773	0.878137	0	0
0	0	0	43.146325	6.390938	33.515859	6.390938	1.868522E+12	0.000135	7391.718523	19.60248	0.877503	0	0
0	0	0	42.661595	6.391054	32.857739	6.391054	1.535467E+12	0.000113	8816.240315	19.514118	0.875721	0	0
0	0	0	42.145625	6.391438	32.156788	6.391438	1.245862E+12	9.87047E-5	10131.230094	19.663891	0.873978	0	0
0	0	0	41.61234	6.391862	31.432247	6.391862	1.003777E+12	8.645262E-5	11567.029412	19.473423	0.873344	0	0
0	0	0	41.06517	6.392139	30.689075	6.392139	8.041707E+11	7.342892E-5	13618.611634	19.684357	0.870334	0	0
0	0	0	40.486434	6.39251	29.902879	6.39251	6.360515E+11	6.318605E-5	15826.277543	19.51032	0.870453	0	0
0	0	0	39.875111	6.39261	29.072882	6.39261	4.964671E+11	5.05109E-5	19797.705928	19.633011	0.867403	0	0
0	0	0	39.234589	6.392789	28.203108	6.392789	3.829484E+11	4.072738E-5	24553.508341	19.59633	0.866809	0	0
0	0	0	38.565073	6.393251	27.293462	6.393251	2.919299E+11	3.516765E-5	28435.220323	19.537052	0.864947	0	0
0	0	0	37.869503	6.393273	26.349209	6.393273	2.202034E+11	2.669132E-5	37465.369749	19.654458	0.863363	0	0
0	0	0	37.140162	6.393706	25.358351	6.393706	1.638396E+11	2.269656E-5	44059.5375	19.475365	0.862452	0	0
0	0	0	36.376109	6.394065	24.320476	6.394065	1.201982E+11	1.889173E-5	52933.203718	19.678114	0.859838	0	0
0	0	0	35.57318	6.393909	23.23079	6.393909	8.680192E+10	1.288709E-5	77597.062226	19.496701	0.8596	0	0
0	0	0	34.727046	6.394081	22.081817	6.394081	6.159575E+10	9.738004E-6	102690.452167	19.637682	0.856471	0	0
0	0	0	33.829907	6.394554	20.862978	6.394554	4.281438E+10	8.235434E-6	121426.516052	19.573095	0.856114	0	0
0	0	0	32.893361	6.394701	19.591271	6.394701	2.92879E+10	6.040429E-6	165551.1689	19.539454	0.853896	0	0
0	0	0	31.958325	6.394677	18.321964	6.394677	2.004711E+10	4.086465E-6	244710.253677	19.646968	0.852272	0	0
0	0	0	31.054571	6.394862	17.094667	6.394862	1.389704E+10	3.113528E-6	321179.018123	19.475726	0.85144	0	0
0	0	0	30.188508	6.394899	15.918854	6.394899	9.782028E+9	2.235625E-6	447302.125483	19.683733	0.848509	0	0
0	0	0	29.360424	6.395041	14.794355	6.395041	6.992337E+9	1.731821E-6	577426.903206	19.485296	0.848391	0	0
0	0	0	28.560639	6.39495	13.708802	6.39495	5.0559E+9	1.188574E-6	841344.4563	19.643494	0.845182	0	0
0	0	0	27.78503	6.395071	12.655578	6.395071	3.691741E+9	9.304895E-7	1074703.168212	19.548026	0.845261	0	0
0	0	0	27.029308	6.395163	11.629411	6.395163	2.717475E+9	7.249063E-7	1379488.70177	19.540796	0.842845	0	0
0	0	0	26.282284	6.395325	10.614872	6.395325	2.007388E+9	5.969909E-7	1675067.544702	19.637584	0.841023	0	0
0	0	0	25.546491	6.39517	9.616354	6.39517	1.489616E+9	3.992614E-7	2504624.735948	19.479265	0.839993	0	0
0	0	0	24.823602	6.395508	8.634121	6.395508	1.111194E+9	3.797839E-7	2633076.375696	19.676803	0.837419	0	0
0	0	0	24.107164	6.395592	7.661271	6.395592	8.310766E+8	3.050455E-7	3278199.957066	19.469199	0.837221	0	0
0	0	0	23.388522	6.395529	6.685808	6.395529	6.210178E+8	2.159947E-7	4629743.022633	19.639095	0.834092	0	0
0	0	0	22.671513	6.395353	5.712865	6.395353	4.643599E+8	1.409642E-7	7094001.236284	19.519839	0.834013	0	0
0	0	0	21.97672	6.395712	4.768656	6.395712	3.503619E+8	1.436486E-7	6961433.536274	19.545159	0.831517	0	0
0	0	0	21.288746	6.395762	3.834523	6.395762	2.650818E+8	1.14181E-7	8758024.818504	19.61409	0.830012	0	0
0	0	0	20.612247	6.395586	2.916588	6.395586	2.014946E+8	7.351969E-8	1.36018E+7	19.476176	0.828705	0	0
0	0	0	19.949101	6.396015	2.015098	6.396015	1.53992E+8	8.963776E-8	1.115601E+7	19.662732	0.826408	0	0
0	0	0	19.292857	6.395881	1.124545	6.395881	1.180179E+8	5.795251E-8	1.725551E+7	19.449857	0.826328	0	0
0	0	0	18.647843	6.395797	0.249107	6.395797	9.086055E+7	4.060573E-8	2.462707E+7	19.651322	0.822882	0	0
0	0	0	18.018021	6.396008	-0.606563	6.396008	7.038457E+7	4.057592E-8	2.464516E+7	19.502978	0.822962	0	0
0	0	0	17.403757	6.396092	-1.440751	6.396092	5.486801E+7	3.578104E-8	2.794776E+7	19.571614	0.819951	0	0
0	0	0	16.797783	6.396064	-2.263355	6.396064	4.291613E+7	2.681432E-8	3.729351E+7	19.599238	0.81904	0	0
0	0	0	16.207122	6.396078	-3.065294	6.396078	3.377678E+7	2.155568E-8	4.639148E+7	19.480783	0.817694	0	0
0	0	0	15.634512	6.396275	-3.843286	6.396275	2.677899E+7	2.439983E-8	4.098389E+7	19.655442	0.815396	0	0
0	0	0	15.074234	6.396374	-4.604244	6.396374	2.13374E+7	2.473093E-8	4.043519E+7	19.447938	0.815119	0	0
0	0	0	14.525757	6.396254	-5.348508	6.396254	1.708311E+7	1.488338E-8	6.718904E+7	19.650999	0.81195	0	0
0	0	0	13.987654	6.396247	-6.079036	6.396247	1.373469E+7	1.179387E-8	8.478981E+7	19.491418	0.811871	0	0
0	0	0	13.458371	6.396374	-6.798011	6.396374	1.108214E+7	1.284476E-8	7.785273E+7	19.569588	0.809178	0	0
0	0	0	12.951384	6.396402	-7.486408	6.396402	9023078.125	1.133965E-8	8.818617E+7	19.577723	0.808306	0	0
0	0	0	12.459263	6.39662	-8.155238	6.39662	7390995.75	2.678196E-8	3.733857E+7	19.490548	0.806563	0	0
0	0	0	11.980535	6.396648	-8.805278	6.396648	6087088.875	2.913805E-8	3.431939E+7	19.642973	0.804464	0	0
0	0	0	11.515937	6.396198	-9.434568	6.396198	5042016	3.933184E-9	2.542469E+8	19.441041	0.804147	0	0
0	0	0	11.066245	6.39643	-10.045853	6.39643	4201683.125	5.766437E-9	1.734173E+8	19.644837	0.801295	0	0
0	0	0	10.628232	6.396381	-10.640356	6.396381	3518024.25	4.158397E-9	2.404773E+8	19.469829	0.801256	0	0
0	0	0	10.200591	6.39655	-11.221506	6.39655	2958017.5	6.667834E-9	1.499738E+8	19.590887	0.798166	0	0
0	0	0	9.781771	6.396613	-11.790333	6.396613	2496064.375	8.52678E-9	1.172776E+8	19.544158	0.797889	0	0
0	0	0	9.376754	6.396613	-12.340207	6.396613	2118074.25	7.235537E-9	1.382068E+8	19.495121	0.795671	0	0
0	0	0	8.980802	6.396599	-12.877726	6.396599	1803943.125	5.529096E-9	1.808614E+8	19.617553	0.794047	0	0
0	0	0	8.594325	6.396473	-13.401994	6.396473	1542313.625	2.455724E-9	4.072118E+8	19.437511	0.793334	0	0
0	0	0	8.216423	6.396515	-13.915198	6.396515	1323221.5	2.508699E-9	3.98613E+8	19.654645	0.790443	0	0
0	0	0	7.843666	6.39636	-14.420733	6.39636	1137623	1.269242E-9	7.87872E+8	19.445323	0.79068	0	0
0	0	0	7.473483	6.396789	-14.924814	6.396789	979077.75	-7.745017E-9	-1.291153E+8	19.603323	0.787353	0	0
0	0	0	7.109751	6.396655	-15.418169	6.396655	844835.375	4.397055E-9	2.27425E+8	19.51919	0.787195	0	0
0	0	0	6.750308	6.396663	-15.906196	6.396663	730267.625	4.164135E-9	2.401459E+8	19.502247	0.784937	0	0
0	0	0	6.392252	6.396831	-16.392915	6.396831	631591.75	-2.782233E-9	-3.594236E+8	19.593288	0.78359	0	0
0	0	0	6.033544	6.39667	-16.879343	6.39667	546104.5	3.443175E-9	2.904296E+8	19.428173	0.782758	0	0
0	0	0	5.669608	6.396578	-17.373115	6.396578	471188.5	1.251295E-9	7.991718E+8	19.631998	0.779946	0	0
0	0	0	5.296117	6.396508	-17.879932	6.396508	404977.75	7.441451E-10	1.343824E+9	19.417445	0.779946	0	0
0	0	0	4.897592	6.396641	-18.421477	6.396641	344556	1.526826E-9	6.549535E+8	19.610039	0.776461	0	0
0	0	0	4.468563	6.396599	-19.003798	6.396599	289545.75	8.87461E-10	1.12681E+9	19.491642	0.776619	0	0
0	0	0	4.013725	6.396761	-19.621909	6.396761	240785.5	-4.056983E-9	-2.464886E+8	19.508153	0.774322	0	0
0	0	0	3.507678	6.396909	-20.309502	6.396909	196122.125	-4.766804E-10	-2.097842E+9	19.564823	0.773252	0	0
0	0	0	2.966144	6.396761	-21.044174	6.396761	157461.5	-2.653058E-9	-3.769236E+8	19.431424	0.771945	0	0
0	0	0	2.495298	6.396775	-21.683479	6.396775	130097.5	-1.400666E-9	-7.139462E+8	19.624744	0.769846	0	0
0	0	0	2.133731	6.397	-22.175222	6.397	112358.25	-1.785196E-10	-5.601626E+9	19.417214	0.769569	0	0
0	0	0	1.852163	6.396867	-22.556992	6.396867	100236.75	-3.224723E-10	-3.101041E+9	19.616708	0.766281	0	0
0	0	0	1.615801	6.396803	-22.877651	6.396803	91077	-5.694237E-10	-1.756161E+9	19.465903	0.76644	0	0
0	0	0	1.404716	6.397085	-23.165315	6.397085	83606.75	-1.006608E-10	-9.934351E+9	19.528006	0.763707	0	0
0	0	0	1.207435	6.396796	-23.43205	6.396796	77179.875	-5.390405E-10	-1.855148E+9	19.529387	0.76335	0	0
0	0	0	1.023466	6.39681	-23.681872	6.39681	71632.75	-4.05365E-10	-2.466913E+9	19.425958	0.761766	0	0
0	0	0	0.848277	6.396944	-23.920239	6.396944	66721.375	-1.347193E-10	-7.422844E+9	19.594382	0.759706	0	0
0	0	0	0.68881	6.396627	-24.135514	6.396627	62544.125	2.412971E-10	4.144268E+9	19.40273	0.759191	0	0
0	0	0	0.534734	6.397021	-24.34623	6.397021	58756.625	-8.644667E-11	-1.156783E+10	19.61214	0.75622	0	0
0	0	0	0.395236	6.396726	-24.534472	6.396726	55525.75	2.268384E-9	4.408424E+8	19.435623	0.7563	0	0
0	0	0	0.272522	6.396916	-24.701818	6.396916	52830.75	-1.233789E-10	-8.105111E+9	19.546499	0.753289	0	0
0	0	0	0.168593	6.396944	-24.84303	6.396944	50650.875	-1.022708E-10	-9.777963E+9	19.511778	0.753012	0	0
0	0	0	0.09035	6.396937	-24.949231	6.396937	49069.375	-1.025491E-10	-9.751429E+9	19.449052	0.751071	0	0
0	0	0	0.028115	6.39686	-25.033422	6.39686	47846.75	-1.627039E-10	-6.146133E+9	19.580866	0.749645	0	0
0	0	0	-0.012436	6.396916	-25.088698	6.396916	47066.5	-1.099173E-10	-9.097746E+9	19.402548	0.749012	0	0
0	0	0	-0.047433	6.396944	-25.136322	6.396944	46403.375	-9.369453E-11	-1.067298E+10	19.620386	0.745962	0	0
0	0	0	-0.059194	6.396853	-25.151931	6.396853	46182.625	-1.665399E-10	-6.004568E+9	19.414729	0.746358	0	0
0	0	0	-0.07757	6.397148	-25.17804	6.397148	45839.875	-4.670527E-11	-2.141086E+10	19.545257	0.743506	0	0
0	0	0	-0.099091	6.397043	-25.206844	6.397043	45441.625	-6.225018E-11	-1.606421E+10	19.47359	0.743268	0	0
0	0	0	-0.109913	6.396951	-25.221178	6.396951	45242.75	-8.835988E-11	-1.131735E+10	19.445287	0.74105	0	0
0	0	0	-0.116814	6.39719	-25.231487	6.39719	45116.25	-4.169454E-11	-2.398396E+10	19.556936	0.739704	0	0
0	0	0	-0.120244	6.397092	-25.235757	6.397092	45053.625	-5.317037E-11	-1.880747E+10	19.394476	0.738594	0	0
0	0	0	-0.122409	6.39724	-25.239276	6.39724	45014.125	-3.752969E-11	-2.664557E+10	19.589398	0.736258	0	0
0	0	0	-0.124246	6.397197	-25.241605	6.397197	44980.5	-4.093483E-11	-2.442907E+10	19.376424	0.736178	0	0
0	0	0	-0.125022	6.396979	-25.241802	6.396979	44966.375	-7.764986E-11	-1.287832E+10	19.553186	0.733208	0	0
0	0	0	-0.126002	6.397078	-25.24352	6.397078	44948.5	-5.523198E-11	-1.810545E+10	19.431716	0.733564	0	0
0	0	0	-0.126492	6.396944	-25.24366	6.396944	44939.625	-9.073903E-11	-1.102062E+10	19.469094	0.730871	0	0
0	0	0	-0.128616	6.397155	-25.247372	6.397155	44901	-4.49803E-11	-2.223196E+10	19.51847	0.730158	0	0
0	0	0	-0.129024	6.396972	-25.247208	6.396972	44893.5	-7.983541E-11	-1.252577E+10	19.398196	0.728613	0	0
0	0	0	-0.128657	6.397071	-25.247096	6.397071	44900.125	-5.633308E-11	-1.775156E+10	19.594765	0.726434	0	0
0	0	0	-0.130045	6.397078	-25.249008	6.397078	44874.875	-5.514151E-11	-1.813516E+10	19.377597	0.726355	0	0
0	0	0	-0.130943	6.397141	-25.250477	6.397141	44858.625	-4.649982E-11	-2.150546E+10	19.563172	0.723622	0	0
0	0	0	-0.132005	6.397057	-25.251587	6.397057	44839.25	-5.872736E-11	-1.702784E+10	19.401094	0.723701	0	0
0	0	0	-0.132373	6.397014	-25.25192	6.397014	44832.625	-6.762895E-11	-1.478657E+10	19.490508	0.72081	0	0
0	0	0	-0.133802	6.397113	-25.254247	6.397113	44806.625	-4.991591E-11	-2.003369E+10	19.493388	0.720533	0	0
0	0	0	-0.132944	6.39712	-25.253111	6.39712	44822.25	-4.901778E-11	-2.040076E+10	19.401147	0.71883	0	0
0	0	0	-0.133067	6.397099	-25.253194	6.397099	44820	-5.186837E-11	-1.927957E+10	19.565874	0.717008	0	0
0	0	0	-0.134905	6.397106	-25.255717	6.397106	44786.625	-5.084326E-11	-1.966829E+10	19.355217	0.716611	0	0
0	0	0	-0.133802	6.397148	-25.254386	6.397148	44806.625	-4.565251E-11	-2.19046E+10	19.560492	0.713918	0	0
0	0	0	-0.134496	6.397021	-25.254831	6.397021	44794	-6.590392E-11	-1.51736E+10	19.363085	0.714156	0	0
0	0	0	-0.134864	6.397014	-25.255302	6.397014	44787.375	-6.756069E-11	-1.480151E+10	19.49469	0.711027	0	0
0	0	0	-0.134292	6.39686	-25.253918	6.39686	44797.75	-1.523357E-10	-6.564448E+9	19.453689	0.710829	0	0
0	0	0	-0.1347	6.397099	-25.255412	6.397099	44790.25	-5.183394E-11	-1.929238E+10	19.423223	0.708848	0	0
0	0	0	-0.134088	6.396916	-25.253862	6.396916	44801.375	-1.046274E-10	-9.557722E+9	19.5424	0.707501	0	0
0	0	0	-0.134006	6.396824	-25.253391	6.396824	44802.875	-2.131E-10	-4.692632E+9	19.355477	0.706947	0	0
0	0	0	-0.134864	6.397014	-25.255302	6.397014	44787.375	-6.756069E-11	-1.480151E+10	19.559774	0.704372	0	0
0	0	0	-0.134455	6.396951	-25.254499	6.396951	44794.75	-8.748493E-11	-1.143054E+10	19.34881	0.70465	0	0
0	0	0	-0.135926	6.396951	-25.256495	6.396951	44768	-8.743269E-11	-1.143737E+10	19.516271	0.701639	0	0
0	0	0	-0.134986	6.397057	-25.255634	6.397057	44785.125	-5.865647E-11	-1.704842E+10	19.430331	0.701362	0	0
0	0	0	-0.13564	6.396902	-25.255913	6.396902	44773.25	-1.134455E-10	-8.814804E+9	19.438288	0.699263	0	0
0	0	0	-0.135558	6.397057	-25.25641	6.397057	44774.75	-5.864288E-11	-1.705237E+10	19.495174	0.698352	0	0
0	0	0	-0.135313	6.396979	-25.255774	6.396979	44779.125	-7.732651E-11	-1.293218E+10	19.345589	0.697282	0	0
0	0	0	-0.13613	6.396782	-25.256109	6.396782	44764.375	-4.082535E-10	-2.449458E+9	19.536631	0.695183	0	0
0	0	0	-0.137028	6.396916	-25.257854	6.396916	44748	-1.045028E-10	-9.569122E+9	19.316788	0.695064	0	0
0	0	0	-0.1376	6.396803	-25.258188	6.396803	44737.75	-2.797054E-10	-3.57519E+9	19.513244	0.692252	0	0
0	0	0	-0.138131	6.397078	-25.259986	6.397078	44728.125	-5.496118E-11	-1.819466E+10	19.361256	0.692688	0	0
0	0	0	-0.138335	6.397007	-25.259987	6.397007	44724.375	-6.92162E-11	-1.444749E+10	19.440057	0.690153	0	0
0	0	0	-0.138784	6.39693	-25.260293	6.39693	44716.25	-9.684486E-11	-1.032579E+10	19.466967	0.68944	0	0
0	0	0	-0.139764	6.39705	-25.262093	6.39705	44698.5	-5.985741E-11	-1.670637E+10	19.350258	0.688251	0	0
0	0	0	-0.138131	6.397014	-25.259737	6.397014	44728.125	-6.747132E-11	-1.482111E+10	19.521584	0.686231	0	0
0	0	0	-0.139968	6.396909	-25.261818	6.396909	44694.75	-1.086318E-10	-9.205405E+9	19.322603	0.685994	0	0
0	0	0	-0.14201	6.39681	-25.264203	6.39681	44657.75	-2.527152E-10	-3.957023E+9	19.528124	0.68338	0	0
0	0	0	-0.141234	6.39724	-25.264836	6.39724	44671.75	-3.724425E-11	-2.684979E+10	19.353877	0.683538	0	0
0	0	0	-0.143644	6.397	-25.267167	6.397	44628.25	-7.090727E-11	-1.410293E+10	19.466351	0.681003	0	0
0	0	0	-0.144256	6.397211	-25.268828	6.397211	44617.125	-3.940177E-11	-2.537957E+10	19.414645	0.680805	0	0
0	0	0	-0.143603	6.397078	-25.267416	6.397078	44628.875	-5.483923E-11	-1.823512E+10	19.355314	0.679102	0	0
0	0	0	-0.145073	6.39724	-25.270047	6.39724	44602.375	-3.718641E-11	-2.689155E+10	19.477825	0.677715	0	0
0	0	0	-0.145155	6.396895	-25.268804	6.396895	44600.875	-1.180224E-10	-8.472964E+9	19.288702	0.677002	0	0
0	0	0	-0.147768	6.396712	-25.271633	6.396712	44553.625	7.680369E-10	1.302021E+9	19.50917	0.674467	0	0
0	0	0	-0.146706	6.39712	-25.271795	6.39712	44572.875	-4.874507E-11	-2.05149E+10	19.290451	0.674824	0	0
0	0	0	-0.147605	6.397	-25.272545	6.397	44556.625	-7.079347E-11	-1.41256E+10	19.462763	0.672012	0	0
0	0	0	-0.147809	6.39693	-25.272546	6.39693	44552.875	-9.649103E-11	-1.036366E+10	19.36718	0.67221	0	0
0	0	0	-0.146951	6.396782	-25.270801	6.396782	44568.375	-4.06466E-10	-2.46023E+9	19.384312	0.670111	0	0
0	0	0	-0.148381	6.397183	-25.274317	6.397183	44542.625	-4.181227E-11	-2.391642E+10	19.459205	0.669199	0	0
0	0	0	-0.148789	6.397057	-25.274374	6.397057	44535.25	-5.83292E-11	-1.714407E+10	19.321792	0.667972	0	0
0	0	0	-0.148748	6.396895	-25.273683	6.396895	44535.875	-1.178504E-10	-8.485331E+9	19.507114	0.66607	0	0
0	0	0	-0.148952	6.396951	-25.274181	6.396951	44532.25	-8.697226E-11	-1.149792E+10	19.286178	0.666229	0	0
0	0	0	-0.148789	6.396972	-25.274042	6.396972	44535.25	-7.919832E-11	-1.262653E+10	19.481605	0.663417	0	0
0	0	0	-0.148544	6.39712	-25.27429	6.39712	44539.625	-4.87087E-11	-2.053021E+10	19.328476	0.663852	0	0
0	0	0	-0.147686	6.396986	-25.272601	6.396986	44555.125	-7.477482E-11	-1.337349E+10	19.40667	0.661278	0	0
0	0	0	-0.145155	6.397275	-25.270296	6.397275	44600.875	-3.475602E-11	-2.877199E+10	19.406958	0.660802	0	0
0	0	0	-0.146135	6.396937	-25.2703	6.396937	44583.125	-9.317335E-11	-1.073268E+10	19.315582	0.659218	0	0
0	0	0	-0.146339	6.397127	-25.271324	6.397127	44579.5	-4.787452E-11	-2.088794E+10	19.462289	0.657634	0	0
0	0	0	-0.145971	6.397064	-25.270576	6.397064	44586.125	-5.714109E-11	-1.750054E+10	19.22928	0.657594	0	0
0	0	0	-0.145277	6.396874	-25.268887	6.396874	44598.625	-1.361357E-10	-7.345611E+9	19.458682	0.654901	0	0
0	0	0	-0.145685	6.397	-25.269939	6.397	44591.25	-7.084848E-11	-1.411463E+10	19.263645	0.655416	0	0
0	0	0	-0.144665	6.397113	-25.268995	6.397113	44609.75	-4.969659E-11	-2.012211E+10	19.409688	0.652445	0	0
0	0	0	-0.144338	6.397043	-25.268275	6.397043	44615.625	-6.111864E-11	-1.636162E+10	19.352413	0.652286	0	0
0	0	0	-0.142827	6.396923	-25.265754	6.396923	44643	-1.003293E-10	-9.967182E+9	19.316263	0.650504	0	0
0	0	0	-0.14152	6.397064	-25.264533	6.397064	44666.625	-5.724426E-11	-1.7469E+10	19.425566	0.649474	0	0
0	0	0	-0.141193	6.396874	-25.263343	6.396874	44672.5	-1.363612E-10	-7.333464E+9	19.239082	0.648722	0	0
0	0	0	-0.141071	6.396937	-25.263425	6.396937	44674.75	-9.336483E-11	-1.071067E+10	19.447112	0.646543	0	0
0	0	0	-0.141643	6.397169	-25.265114	6.397169	44664.375	-4.328914E-11	-2.310048E+10	19.233256	0.646781	0	0
0	0	0	-0.141724	6.396916	-25.264229	6.396916	44662.875	-1.04304E-10	-9.587361E+9	19.439624	0.64381	0	0
0	0	0	-0.141275	6.39693	-25.263675	6.39693	44671.125	-9.674713E-11	-1.033622E+10	19.315799	0.643969	0	0
0	0	0	-0.140948	6.396782	-25.262651	6.396782	44677	-4.074567E-10	-2.454249E+9	19.34588	0.641909	0	0
0	0	0	-0.139397	6.397029	-25.261511	6.397029	44705.125	-6.418979E-11	-1.55788E+10	19.383147	0.641434	0	0
0	0	0	-0.141357	6.39719	-25.264808	6.39719	44669.625	-4.128179E-11	-2.422376E+10	19.245734	0.640166	0	0
0	0	0	-0.142092	6.396888	-25.264618	6.396888	44656.25	-1.23655E-10	-8.087016E+9	19.432148	0.638186	0	0
0	0	0	-0.140458	6.397071	-25.263119	6.397071	44685.875	-5.606428E-11	-1.783667E+10	19.227708	0.638027	0	0
0	0	0	-0.141438	6.396733	-25.263123	6.396733	44668.125	5.79182E-9	1.726573E+8	19.439779	0.635413	0	0
0	0	0	-0.142582	6.397176	-25.266416	6.397176	44647.375	-4.258074E-11	-2.34848E+10	19.272129	0.635651	0	0
0	0	0	-0.142704	6.397099	-25.266279	6.397099	44645.125	-5.166599E-11	-1.935509E+10	19.368523	0.633195	0	0
0	0	0	-0.142827	6.396902	-25.265671	6.396902	44643	-1.131155E-10	-8.840522E+9	19.344261	0.633076	0	0
0	0	0	-0.144052	6.396902	-25.267334	6.396902	44620.875	-1.130594E-10	-8.844906E+9	19.279937	0.631373	0	0
0	0	0	-0.144052	6.396923	-25.267417	6.396923	44620.875	-1.002795E-10	-9.972124E+9	19.419382	0.629907	0	0
0	0	0	-0.144215	6.39724	-25.268883	6.39724	44617.875	-3.719933E-11	-2.688221E+10	19.21341	0.629749	0	0
0	0	0	-0.146339	6.396867	-25.270301	6.396867	44579.5	-1.43417E-10	-6.972674E+9	19.451851	0.627056	0	0
0	0	0	-0.145931	6.397127	-25.270769	6.397127	44586.875	-4.788244E-11	-2.088448E+10	19.240681	0.62757	0	0
0	0	0	-0.148299	6.396916	-25.273156	6.396916	44544	-1.040264E-10	-9.612946E+9	19.400649	0.624758	0	0
0	0	0	-0.147401	6.397155	-25.272876	6.397155	44560.25	-4.463895E-11	-2.240196E+10	19.278211	0.625115	0	0
0	0	0	-0.14834	6.396972	-25.273432	6.396972	44543.25	-7.921255E-11	-1.262426E+10	19.280042	0.622976	0	0
0	0	0	-0.149932	6.396824	-25.275014	6.396824	44514.5	-2.117284E-10	-4.723032E+9	19.362287	0.622223	0	0
0	0	0	-0.150504	6.397043	-25.276647	6.397043	44504.25	-6.096607E-11	-1.640257E+10	19.21053	0.621273	0	0
0	0	0	-0.150586	6.397043	-25.276758	6.397043	44502.75	-6.096402E-11	-1.640312E+10	19.403599	0.619253	0	0
0	0	0	-0.150218	6.397071	-25.27637	6.397071	44509.375	-5.584284E-11	-1.79074E+10	19.18742	0.619371	0	0
0	0	0	-0.150953	6.396937	-25.276842	6.396937	44496.125	-9.299153E-11	-1.075367E+10	19.383672	0.616638	0	0
0	0	0	-0.150218	6.397289	-25.277227	6.397289	44509.375	-3.380148E-11	-2.95845E+10	19.221886	0.617153	0	0
0	0	0	-0.152015	6.397141	-25.279086	6.397141	44477	-4.610423E-11	-2.168998E+10	19.296328	0.614698	0	0
0	0	0	-0.152383	6.397021	-25.279115	6.397021	44470.375	-6.542778E-11	-1.528403E+10	19.312427	0.613985	0	0
0	0	0	-0.152954	6.396867	-25.279283	6.396867	44460	-1.430326E-10	-6.991416E+9	19.238479	0.612757	0	0
0	0	0	-0.150749	6.397127	-25.277312	6.397127	44499.75	-4.778888E-11	-2.092537E+10	19.394818	0.611331	0	0
0	0	0	-0.152546	6.397183	-25.279972	6.397183	44467.375	-4.174163E-11	-2.39569E+10	19.191109	0.610895	0	0
0	0	0	-0.152056	6.397148	-25.279169	6.397148	44476.25	-4.53159E-11	-2.206731E+10	19.386467	0.608994	0	0
0	0	0	-0.151648	6.39693	-25.277757	6.39693	44483.625	-9.634105E-11	-1.037979E+10	19.180802	0.609113	0	0
0	0	0	-0.1503	6.397176	-25.276895	6.397176	44507.875	-4.24477E-11	-2.35584E+10	19.336306	0.6063	0	0
0	0	0	-0.149483	6.397043	-25.275261	6.397043	44522.625	-6.099124E-11	-1.63958E+10	19.244494	0.606617	0	0
0	0	0	-0.14981	6.397106	-25.275954	6.397106	44516.75	-5.053689E-11	-1.978752E+10	19.234061	0.604835	0	0
0	0	0	-0.149892	6.396979	-25.275567	6.396979	44515.25	-7.687084E-11	-1.300883E+10	19.339459	0.603567	0	0
0	0	0	-0.149034	6.397085	-25.274817	6.397085	44530.75	-5.361412E-11	-1.86518E+10	19.160968	0.602934	0	0
0	0	0	-0.147523	6.397127	-25.272932	6.397127	44558.125	-4.785157E-11	-2.089796E+10	19.353697	0.600914	0	0
0	0	0	-0.147686	6.397021	-25.272739	6.397021	44555.125	-6.555247E-11	-1.525495E+10	19.1237	0.60127	0	0
0	0	0	-0.147441	6.396972	-25.272213	6.396972	44559.5	-7.924145E-11	-1.261966E+10	19.333339	0.598418	0	0
0	0	0	-0.1454	6.397134	-25.270076	6.397134	44596.375	-4.704559E-11	-2.125598E+10	19.189527	0.598735	0	0
0	0	0	-0.144052	6.397014	-25.267777	6.397014	44620.875	-6.730953E-11	-1.485674E+10	19.268773	0.596319	0	0
0	0	0	-0.145522	6.397113	-25.27016	6.397113	44594.25	-4.967932E-11	-2.01291E+10	19.277833	0.596121	0	0
0	0	0	-0.144991	6.39681	-25.26825	6.39681	44603.75	-2.524096E-10	-3.961814E+9	19.177756	0.594853	0	0
0	0	0	-0.144011	6.396881	-25.267196	6.396881	44621.5	-1.295743E-10	-7.71758E+9	19.353357	0.593348	0	0
0	0	0	-0.142051	6.397021	-25.265088	6.397021	44657	-6.570236E-11	-1.522015E+10	19.122464	0.593309	0	0
0	0	0	-0.142092	6.396803	-25.264286	6.396803	44656.25	-2.791959E-10	-3.581715E+9	19.345076	0.590853	0	0
0	0	0	-0.138784	6.397071	-25.260846	6.397071	44716.25	-5.610239E-11	-1.782455E+10	19.143179	0.591011	0	0
0	0	0	-0.142459	6.396923	-25.265255	6.396923	44649.625	-1.003441E-10	-9.965703E+9	19.28037	0.588714	0	0
0	0	0	-0.141602	6.396754	-25.263427	6.396754	44665.125	-1.048842E-9	-9.534326E+8	19.219911	0.588635	0	0
0	0	0	-0.142786	6.397071	-25.266279	6.397071	44643.75	-5.601143E-11	-1.78535E+10	19.193416	0.586892	0	0
0	0	0	-0.143072	6.396853	-25.26581	6.396853	44638.5	-1.609716E-10	-6.212276E+9	19.286085	0.585941	0	0
0	0	0	-0.141929	6.397029	-25.264949	6.397029	44659.25	-6.412392E-11	-1.55948E+10	19.11506	0.585149	0	0
0	0	0	-0.143358	6.397099	-25.267166	6.397099	44633.375	-5.16524E-11	-1.936019E+10	19.320226	0.583169	0	0
0	0	0	-0.14299	6.396944	-25.266059	6.396944	44640	-9.013404E-11	-1.109459E+10	19.075004	0.583525	0	0
0	0	0	-0.142704	6.39693	-25.265615	6.39693	44645.125	-9.669082E-11	-1.034224E+10	19.28322	0.580713	0	0
0	0	0	-0.14491	6.396958	-25.26872	6.396958	44605.25	-8.435279E-11	-1.185497E+10	19.135804	0.581307	0	0
0	0	0	-0.145318	6.39693	-25.269164	6.39693	44597.875	-9.658849E-11	-1.03532E+10	19.198492	0.579247	0	0
0	0	0	-0.145073	6.397261	-25.27013	6.397261	44602.375	-3.568977E-11	-2.801923E+10	19.218161	0.578772	0	0
0	0	0	-0.146543	6.396916	-25.270772	6.396916	44575.75	-1.041005E-10	-9.606099E+9	19.122338	0.577425	0	0
0	0	0	-0.146543	6.396958	-25.270938	6.396958	44575.75	-8.4297E-11	-1.186282E+10	19.305273	0.57592	0	0
0	0	0	-0.146666	6.396972	-25.271159	6.396972	44573.5	-7.926635E-11	-1.261569E+10	19.076368	0.575762	0	0
0	0	0	-0.148667	6.39738	-25.275479	6.39738	44537.375	-2.901943E-11	-3.445967E+10	19.293489	0.573583	0	0
0	0	0	-0.148626	6.397036	-25.274069	6.397036	44538.125	-6.244672E-11	-1.601365E+10	19.068253	0.574217	0	0
0	0	0	-0.151239	6.397197	-25.278253	6.397197	44491	-4.048936E-11	-2.469785E+10	19.219816	0.571643	0	0
0	0	0	-0.150627	6.396958	-25.276482	6.396958	44502	-8.415753E-11	-1.188248E+10	19.161891	0.571603	0	0
0	0	0	-0.152628	6.397036	-25.279503	6.397036	44466	-6.234559E-11	-1.603963E+10	19.154379	0.569583	0	0
0	0	0	-0.152464	6.397197	-25.279917	6.397197	44468.875	-4.046922E-11	-2.471014E+10	19.24873	0.56883	0	0
0	0	0	-0.152342	6.396993	-25.278949	6.396993	44471.125	-7.259133E-11	-1.377575E+10	19.072441	0.568236	0	0
0	0	0	-0.151852	6.39724	-25.279251	6.39724	44479.875	-3.708427E-11	-2.696561E+10	19.277626	0.566137	0	0
0	0	0	-0.152709	6.397226	-25.28036	6.397226	44464.5	-3.813765E-11	-2.622081E+10	19.04589	0.566533	0	0
0	0	0	-0.151484	6.397183	-25.278531	6.397183	44486.625	-4.17597E-11	-2.394653E+10	19.255126	0.563958	0	0
0	0	0	-0.152383	6.397092	-25.279391	6.397092	44470.375	-5.248204E-11	-1.905414E+10	19.086177	0.564513	0	0
0	0	0	-0.153485	6.397162	-25.281165	6.397162	44450.5	-4.379347E-11	-2.283445E+10	19.172665	0.562018	0	0
0	0	0	-0.153404	6.397303	-25.281607	6.397303	44452	-3.291962E-11	-3.037702E+10	19.175359	0.561978	0	0
0	0	0	-0.153444	6.397282	-25.281579	6.397282	44451.25	-3.41927E-11	-2.924601E+10	19.068197	0.560592	0	0
0	0	0	-0.152914	6.397106	-25.280167	6.397106	44460.75	-5.047332E-11	-1.981245E+10	19.237443	0.559086	0	0
0	0	0	-0.152138	6.39712	-25.279169	6.39712	44474.75	-4.863776E-11	-2.056016E+10	19.021526	0.559007	0	0
0	0	0	-0.153567	6.397085	-25.280971	6.397085	44449	-5.351569E-11	-1.868611E+10	19.25008	0.556829	0	0
0	0	0	-0.150218	6.396789	-25.275264	6.396789	44509.375	-3.520913E-10	-2.840172E+9	19.042426	0.557185	0	0
0	0	0	-0.152015	6.396993	-25.278505	6.396993	44477	-7.260092E-11	-1.377393E+10	19.199887	0.55473	0	0
0	0	0	-0.151729	6.397029	-25.278255	6.397029	44482.125	-6.38696E-11	-1.56569E+10	19.08688	0.555165	0	0
0	0	0	-0.148789	6.396888	-25.27371	6.396888	44535.25	-1.2332E-10	-8.108988E+9	19.078409	0.553224	0	0
0	0	0	-0.150096	6.396958	-25.275761	6.396958	44511.625	-8.417573E-11	-1.187991E+10	19.156617	0.552511	0	0
0	0	0	-0.147278	6.397064	-25.27235	6.397064	44562.5	-5.711081E-11	-1.750982E+10	18.992777	0.551838	0	0
0	0	0	-0.146666	6.397085	-25.271601	6.397085	44573.5	-5.366559E-11	-1.863391E+10	19.212646	0.549739	0	0
0	0	0	-0.148503	6.397	-25.273765	6.397	44540.375	-7.076765E-11	-1.413075E+10	18.979237	0.549976	0	0
0	0	0	-0.147932	6.396986	-25.272933	6.396986	44550.625	-7.476727E-11	-1.337484E+10	19.200043	0.547481	0	0
0	0	0	-0.14687	6.396972	-25.271436	6.396972	44569.875	-7.92599E-11	-1.261672E+10	19.014069	0.547956	0	0
0	0	0	-0.14495	6.396972	-25.268831	6.396972	44604.625	-7.93217E-11	-1.260689E+10	19.106792	0.545699	0	0
0	0	0	-0.143889	6.39712	-25.26797	6.39712	44623.75	-4.88007E-11	-2.049151E+10	19.073153	0.545936	0	0
0	0	0	-0.143562	6.396923	-25.266752	6.396923	44629.625	-1.002992E-10	-9.970169E+9	19.017299	0.544273	0	0
0	0	0	-0.141969	6.397071	-25.26517	6.397071	44658.5	-5.602993E-11	-1.78476E+10	19.166197	0.543243	0	0
0	0	0	-0.142949	6.396902	-25.265837	6.396902	44640.75	-1.131098E-10	-8.840968E+9	18.978612	0.542847	0	0
0	0	0	-0.141888	6.39693	-25.264507	6.39693	44660	-9.672304E-11	-1.03388E+10	19.221267	0.540272	0	0
0	0	0	-0.142623	6.397113	-25.266223	6.397113	44646.625	-4.973767E-11	-2.010549E+10	18.949158	0.541223	0	0
0	0	0	-0.143031	6.397014	-25.266391	6.397014	44639.25	-6.733725E-11	-1.485062E+10	19.146337	0.538609	0	0
0	0	0	-0.143766	6.396944	-25.267112	6.396944	44626	-9.010578E-11	-1.109807E+10	19.023138	0.538926	0	0
0	0	0	-0.142214	6.397057	-25.265448	6.397057	44654	-5.848473E-11	-1.709848E+10	19.065463	0.536905	0	0
0	0	0	-0.143235	6.397211	-25.267442	6.397211	44635.625	-3.94181E-11	-2.536905E+10	19.10891	0.53647	0	0
0	0	0	-0.143848	6.396965	-25.267306	6.396965	44624.5	-8.179579E-11	-1.222557E+10	18.986336	0.53544	0	0
0	0	0	-0.143235	6.396979	-25.26653	6.396979	44635.625	-7.707871E-11	-1.297375E+10	19.162253	0.533974	0	0
0	0	0	-0.143603	6.396895	-25.266697	6.396895	44628.875	-1.180965E-10	-8.467648E+9	18.917802	0.534133	0	0
0	0	0	-0.145971	6.396909	-25.269968	6.396909	44586.125	-1.083678E-10	-9.227832E+9	19.135109	0.531796	0	0
0	0	0	-0.14544	6.396881	-25.269137	6.396881	44595.75	-1.294995E-10	-7.722036E+9	18.938798	0.532311	0	0
0	0	0	-0.147605	6.39693	-25.272269	6.39693	44556.625	-9.649915E-11	-1.036279E+10	19.071083	0.529895	0	0
0	0	0	-0.146421	6.39705	-25.271131	6.39705	44578	-5.969604E-11	-1.675153E+10	19.036697	0.529697	0	0
0	0	0	-0.147646	6.397134	-25.273126	6.397134	44555.875	-4.700286E-11	-2.12753E+10	18.991619	0.52831	0	0
0	0	0	-0.14883	6.397254	-25.275203	6.397254	44534.5	-3.612003E-11	-2.768547E+10	19.110385	0.52736	0	0
0	0	0	-0.150627	6.396993	-25.27662	6.396993	44502	-7.264172E-11	-1.376619E+10	18.905421	0.527082	0	0
0	0	0	-0.149565	6.397331	-25.276505	6.397331	44521.25	-3.141089E-11	-3.183609E+10	19.126149	0.525062	0	0
0	0	0	-0.152179	6.39712	-25.279225	6.39712	44474	-4.863694E-11	-2.056051E+10	18.893501	0.525419	0	0
0	0	0	-0.151893	6.397057	-25.278588	6.397057	44479.125	-5.825569E-11	-1.71657E+10	19.10612	0.522765	0	0
0	0	0	-0.152179	6.397014	-25.27881	6.397014	44474	-6.708798E-11	-1.49058E+10	18.940584	0.523557	0	0
0	0	0	-0.151117	6.397057	-25.277534	6.397057	44493.125	-5.827403E-11	-1.71603E+10	19.014967	0.52126	0	0
0	0	0	-0.152015	6.397204	-25.279334	6.397204	44477	-3.986831E-11	-2.508258E+10	0	0	0	0
0	0	0	-0.153975	6.397064	-25.281443	6.397064	44441.625	-5.69559E-11	-1.755744E+10	0	0	0	0
0	0	0	-0.151893	6.39705	-25.27856	6.39705	44479.125	-5.956363E-11	-1.678877E+10	0	0	0	0
0	0	0	-0.151525	6.397007	-25.277895	6.397007	44485.75	-6.88469E-11	-1.452498E+10	0	0	0	0
0	0	0	-0.152832	6.397071	-25.279918	6.397071	44462.25	-5.578371E-11	-1.792638E+10	0	0	0	0
0	0	0	-0.152954	6.397141	-25.280361	6.397141	44460	-4.608661E-11	-2.169828E+10	0	0	0	0
0	0	0	-0.152995	6.39686	-25.279311	6.39686	44459.25	-1.511847E-10	-6.614428E+9	0	0	0	0
0	0	0	-0.152954	6.397169	-25.280471	6.397169	44460	-4.309105E-11	-2.320667E+10	0	0	0	0
0	0	0	-0.153567	6.397021	-25.280723	6.397021	44449	-6.539633E-11	-1.529138E+10	0	0	0	0
0	0	0	-0.153077	6.397085	-25.280306	6.397085	44457.875	-5.352638E-11	-1.868238E+10	0	0	0	0
0	0	0	-0.151076	6.397085	-25.277589	6.397085	44493.875	-5.356972E-11	-1.866726E+10	0	0	0	0
0	0	0	-0.150463	6.397141	-25.276979	6.397141	44505	-4.613326E-11	-2.167634E+10	0	0	0	0
0	0	0	-0.149728	6.397141	-25.275981	6.397141	44518.25	-4.614699E-11	-2.166989E+10	0	0	0	0
0	0	0	-0.150504	6.397064	-25.27673	6.397064	44504.25	-5.703616E-11	-1.753274E+10	0	0	0	0
0	0	0	-0.150137	6.396796	-25.275181	6.396796	44510.875	-3.108733E-10	-3.216745E+9	0	0	0	0
0	0	0	-0.14834	6.397078	-25.273847	6.397078	44543.25	-5.473401E-11	-1.827018E+10	0	0	0	0
0	0	0	-0.148136	6.397148	-25.273846	6.397148	44547	-4.538798E-11	-2.203226E+10	0	0	0	0
0	0	0	-0.148136	6.396951	-25.273072	6.396951	44547	-8.700107E-11	-1.149411E+10	0	0	0	0
0	0	0	-0.147115	6.397226	-25.272764	6.397226	44565.5	-3.822427E-11	-2.616139E+10	0	0	0	0
0	0	0	-0.146747	6.396895	-25.270966	6.396895	44572.125	-1.179464E-10	-8.47843E+9	0	0	0	0
0	0	0	-0.145604	6.396972	-25.269718	6.396972	44592.75	-7.930058E-11	-1.261025E+10	0	0	0	0
0	0	0	-0.145032	6.396853	-25.268472	6.396853	44603.125	-1.60844E-10	-6.217203E+9	0	0	0	0
0	0	0	-0.145155	6.396944	-25.268997	6.396944	44600.875	-9.005504E-11	-1.110432E+10	0	0	0	0
0	0	0	-0.143521	6.396965	-25.266862	6.396965	44630.375	-8.180656E-11	-1.222396E+10	0	0	0	0
0	0	0	-0.142174	6.397113	-25.265613	6.397113	44654.875	-4.974686E-11	-2.010177E+10	0	0	0	0
0	0	0	-0.143031	6.397134	-25.26686	6.397134	44639.25	-4.709082E-11	-2.123556E+10	0	0	0	0
0	0	0	-0.143154	6.397254	-25.267497	6.397254	44637.125	-3.620327E-11	-2.762182E+10	0	0	0	0
0	0	0	-0.142745	6.39693	-25.265671	6.39693	44644.5	-9.668947E-11	-1.034239E+10	0	0	0	0
0	0	0	-0.1425	6.396838	-25.264979	6.396838	44648.875	-1.831561E-10	-5.459825E+9	0	0	0	0
0	0	0	-0.143889	6.397078	-25.267804	6.397078	44623.75	-5.483293E-11	-1.823722E+10	0	0	0	0
0	0	0	-0.14397	6.397085	-25.267942	6.397085	44622.25	-5.372428E-11	-1.861356E+10	0	0	0	0
0	0	0	-0.144583	6.39712	-25.268912	6.39712	44611.25	-4.878703E-11	-2.049725E+10	0	0	0	0
0	0	0	-0.144297	6.396824	-25.267363	6.396824	44616.375	-2.12213E-10	-4.712248E+9	0	0	0	0
0	0	0	-0.144338	6.39686	-25.267557	6.39686	44615.625	-1.517164E-10	-6.591245E+9	0	0	0	0
0	0	0	-0.144215	6.396796	-25.267142	6.396796	44617.875	-3.116206E-10	-3.20903E+9	0	0	0	0
0	0	0	-0.145522	6.396895	-25.269303	6.396895	44594.25	-1.180049E-10	-8.474223E+9	0	0	0	0
0	0	0	-0.146053	6.396993	-25.27041	6.396993	44584.625	-7.277659E-11	-1.374068E+10	0	0	0	0
0	0	0	-0.146543	6.397071	-25.27138	6.397071	44575.75	-5.592611E-11	-1.788073E+10	0	0	0	0
0	0	0	-0.148667	6.397036	-25.274125	6.397036	44537.375	-6.244566E-11	-1.601392E+10	0	0	0	0
0	0	0	-0.147401	6.397007	-25.272295	6.397007	44560.25	-6.896219E-11	-1.45007E+10	0	0	0	0
0	0	0	-0.150218	6.39693	-25.275817	6.39693	44509.375	-9.639682E-11	-1.037379E+10	0	0	0	0
0	0	0	-0.149728	6.396993	-25.2754	6.396993	44518.25	-7.266825E-11	-1.376117E+10	0	0	0	0
0	0	0	-0.150055	6.397078	-25.276176	6.397078	44512.375	-5.469607E-11	-1.828285E+10	0	0	0	0
0	0	0	-0.153199	6.396923	-25.279837	6.396923	44455.625	-9.990816E-11	-1.000919E+10	0	0	0	0
0	0	0	-0.152669	6.396965	-25.279282	6.396965	44465.125	-8.150366E-11	-1.226939E+10	0	0	0	0
0	0	0	-0.153771	6.397345	-25.282271	6.397345	44445.375	-3.063267E-11	-3.264489E+10	0	0	0	0
0	0	0	-0.152628	6.396993	-25.279337	6.396993	44466	-7.258296E-11	-1.377734E+10	0	0	0	0
0	0	0	-0.153199	6.396944	-25.279919	6.396944	44455.625	-8.976177E-11	-1.11406E+10	0	0	0	0
0	0	0	-0.154179	6.397254	-25.282466	6.397254	44438	-3.604176E-11	-2.774559E+10	0	0	0	0
0	0	0	-0.153199	6.397204	-25.280942	6.397204	44455.625	-3.984915E-11	-2.509464E+10	0	0	0	0
0	0	0	-0.154384	6.396972	-25.281638	6.396972	44434.25	-7.901871E-11	-1.265523E+10	0	0	0	0
0	0	0	-0.155323	6.397226	-25.283908	6.397226	44417.375	-3.809723E-11	-2.624863E+10	0	0	0	0
0	0	0	-0.154792	6.396719	-25.281197	6.396719	44426.875	1.077174E-9	9.283552E+8	0	0	0	0
0	0	0	-0.154751	6.397197	-25.283022	6.397197	44427.625	-4.043168E-11	-2.473308E+10	0	0	0	0
0	0	0	-0.153934	6.397268	-25.282189	6.397268	44442.375	-3.509098E-11	-2.849736E+10	0	0	0	0
0	0	0	-0.154261	6.397134	-25.282107	6.397134	44436.5	-4.687693E-11	-2.133245E+10	0	0	0	0
0	0	0	-0.152179	6.397359	-25.280164	6.397359	44474	-2.996E-11	-3.337784E+10	0	0	0	0
0	0	0	-0.152219	6.397134	-25.279335	6.397134	44473.25	-4.69157E-11	-2.131483E+10	0	0	0	0
0	0	0	-0.151443	6.397113	-25.278199	6.397113	44487.25	-4.956012E-11	-2.017751E+10	0	0	0	0
0	0	0	-0.150055	6.397204	-25.276673	6.397204	44512.375	-3.990002E-11	-2.506264E+10	0	0	0	0
0	0	0	-0.14981	6.396993	-25.275511	6.396993	44516.75	-7.26658E-11	-1.376163E+10	0	0	0	0
0	0	0	-0.14932	6.396965	-25.274735	6.396965	44525.625	-8.161456E-11	-1.225272E+10	0	0	0	0
0	0	0	-0.14932	6.396796	-25.274072	6.396796	44525.625	-3.109763E-10	-3.215679E+9	0	0	0	0
0	0	0	-0.148462	6.397021	-25.273792	6.397021	44541.125	-6.553188E-11	-1.525975E+10	0	0	0	0
0	0	0	-0.147646	6.396888	-25.272158	6.396888	44555.875	-1.233771E-10	-8.105234E+9	0	0	0	0
0	0	0	-0.146992	6.397176	-25.272404	6.397176	44567.625	-4.250468E-11	-2.352682E+10	0	0	0	0
0	0	0	-0.146747	6.396965	-25.271242	6.396965	44572.125	-8.169979E-11	-1.223993E+10	0	0	0	0
0	0	0	-0.146788	6.397197	-25.27221	6.397197	44571.375	-4.05625E-11	-2.465331E+10	0	0	0	0
0	0	0	-0.144134	6.396944	-25.267611	6.396944	44619.375	-9.00924E-11	-1.109972E+10	0	0	0	0
0	0	0	-0.143725	0	-0.143725	0	44626.75	0	0	0	0	0	0
0	0	0	-0.14393	0	-0.14393	0	44623	0	0	0	0	0	0
