Vload_(V)	ILoad_(A)	RsLoad (ohm)	SunsVoc_Voltage_(V)	SunsVoc_Current_(A)	Model_Voltage_(V)	Model_Current_(A)	Carrier_Density_(cm-3)	Lifetime_(s)	Inverse_Lifetime_(s-1)	Efficiency_(%)	Intensity_(suns)	Dark_IV_Voltage_(V)	Dark_IV_Current_(A)
2.689273	5.997312	0	51.6338	-0.452965	51.851628	-0.452965	6.782598E+15	0.000468	2061.469152	19.007692	1.112116	0	0
2.683656	5.996353	3.684817	51.985933	-0.564363	52.248776	-0.564363	7.709745E+15	0.000523	1814.556848	18.960864	1.110492	0	0
3.535982	5.99896	-0.600472	52.022768	-0.358438	52.189136	-0.358438	7.81254E+15	0.000547	1727.481849	18.92139	1.107481	0	0
7.003309	5.993485	4.063514	51.955061	-0.008038	51.958815	-0.008038	7.624461E+15	0.000565	1674.103053	18.871722	1.104405	0	0
10.845956	5.995069	3.00486	51.836227	0.376717	51.658349	0.376717	7.303477E+15	0.000578	1641.448311	18.773707	1.102755	0	0
14.211855	5.992119	3.096217	51.69677	0.748779	51.338716	0.748779	6.941209E+15	0.000588	1619.80852	18.707208	1.101593	0	0
17.911765	5.990478	2.68164	51.557925	1.096122	51.027224	1.096122	6.595493E+15	0.000599	1598.288223	18.72849	1.099969	0	0
21.597616	5.989699	2.142989	51.418836	1.414795	50.725372	1.414795	6.26362E+15	0.000608	1579.512365	18.765435	1.098187	0	0
25.29292	5.987133	1.724034	51.282932	1.708817	50.435353	1.708817	5.952844E+15	0.000617	1560.643707	18.761492	1.095718	0	0
28.811145	5.98555	1.232605	51.141474	1.981595	50.146526	1.981595	5.643053E+15	0.000625	1546.847639	18.716533	1.092285	0	0
32.391037	5.979489	0.895069	51.006795	2.230747	49.873814	2.230747	5.360639E+15	0.000633	1531.802108	18.702683	1.087981	0	0
35.978458	5.948898	0.827333	50.871748	2.464439	49.605746	2.464439	5.089314E+15	0.000641	1517.493285	18.709306	1.083769	0	0
37.026168	5.922857	0.852414	50.739805	2.687452	49.343971	2.687452	4.835313E+15	0.00065	1499.970301	18.692342	1.080191	0	0
38.093225	5.893982	0.820016	50.601287	2.894669	49.080562	2.894669	4.580055E+15	0.000657	1488.014252	18.646988	1.076903	0	0
39.135925	5.847268	0.805766	50.46914	3.084339	48.831221	3.084339	4.347056E+15	0.000664	1475.006515	18.64135	1.072956	0	0
40.181196	5.785259	0.775464	50.331439	3.266344	48.577501	3.266344	4.114825E+15	0.00067	1463.85359	18.67272	1.068242	0	0
41.241839	5.696647	0.744326	50.200313	3.436035	48.335854	3.436035	3.903364E+15	0.000678	1449.766999	18.684921	1.062987	0	0
42.283759	5.574047	0.712478	50.062857	3.596729	48.089915	3.596729	3.691491E+15	0.000684	1439.243092	18.639985	1.05801	0	0
43.329983	5.405054	0.680219	49.925074	3.742009	47.850241	3.742009	3.488832E+15	0.000688	1432.966158	18.605222	1.052715	0	0
44.358176	5.178455	0.649377	49.797827	3.87431	47.628409	3.87431	3.310017E+15	0.000694	1423.636145	18.618644	1.047249	0	0
45.345995	4.879968	0.625025	49.668498	3.997504	47.407836	3.997504	3.136211E+15	0.000698	1417.097441	18.628739	1.042259	0	0
46.313186	4.494821	0.605929	49.540802	4.113151	47.192124	4.113151	2.97219E+15	0.000702	1410.396914	18.618255	1.037374	0	0
47.265235	4.012283	0.590103	49.410166	4.222096	46.975529	4.222096	2.811931E+15	0.000705	1406.057297	18.584048	1.032488	0	0
48.184802	3.431807	0.580926	49.287819	4.322705	46.772395	4.322705	2.668527E+15	0.000709	1398.874351	18.609113	1.02623	0	0
49.051893	2.78959	0.573628	49.158939	4.418682	46.563144	4.418682	2.524217E+15	0.000711	1395.294428	18.634635	1.020157	0	0
49.873614	2.084208	0.593114	49.033366	4.507124	46.361245	4.507124	2.390051E+15	0.000713	1392.123542	18.620023	1.014414	0	0
50.604836	1.391723	0.607071	48.907222	4.591976	46.159853	4.591976	2.26145E+15	0.000716	1388.474481	18.565271	1.008895	0	0
51.236055	0.748569	0.598458	48.782589	4.671136	45.962791	4.671136	2.140257E+15	0.000718	1385.319604	18.557983	1.003481	0	0
41.995887	5.609477	0.724391	48.657506	4.746473	45.766666	4.746473	2.024285E+15	0.00072	1382.259678	18.59889	0.998068	0	0
51.858838	0	0	48.530995	4.817065	45.57092	4.817065	1.912547E+15	0.000721	1381.171554	18.610705	0.992629	0	0
0	0	0	48.410527	4.881193	45.385726	4.881193	1.811156E+15	0.000722	1379.863425	18.584435	0.987281	0	0
0	0	0	48.284342	4.943212	45.19425	4.943212	1.71E+15	0.000722	1380.872347	18.563115	0.981657	0	0
0	0	0	48.163996	5.000076	45.012449	5.000076	1.618161E+15	0.000722	1381.031427	18.602393	0.975676	0	0
0	0	0	48.044427	5.053024	44.83349	5.053024	1.531228E+15	0.000721	1382.405747	18.618034	0.970117	0	0
0	0	0	47.922121	5.103473	44.65225	5.103473	1.446589E+15	0.00072	1385.537753	18.581031	0.964915	0	0
0	0	0	47.806023	5.150996	44.479954	5.150996	1.370102E+15	0.00072	1385.465721	18.555235	0.959344	0	0
0	0	0	47.686657	5.19591	44.304881	5.19591	1.295229E+15	0.000719	1388.114059	18.57946	0.953733	0	0
0	0	0	47.564964	5.237984	44.128357	5.237984	1.222675E+15	0.000716	1393.598725	18.619186	0.948042	0	0
0	0	0	47.450663	5.276882	43.962564	5.276882	1.157864E+15	0.000715	1396.478436	18.582605	0.942774	0	0
0	0	0	47.330481	5.314657	43.78991	5.314657	1.093067E+15	0.000712	1401.950123	18.557105	0.937018	0	0
0	0	0	47.218752	5.348495	43.629907	5.348495	1.035782E+15	0.00071	1406.359216	18.564223	0.931433	0	0
0	0	0	47.102163	5.381833	43.463932	5.381833	9.7892E+14	0.000708	1411.786734	18.596328	0.92561	0	0
0	0	0	46.987576	5.41221	43.302105	5.41221	9.258152E+14	0.000704	1419.26668	18.56712	0.920448	0	0
0	0	0	46.87695	5.441522	43.145598	5.441522	8.770549E+14	0.000702	1423.266861	18.529512	0.914889	0	0
0	0	0	46.75738	5.469902	42.978406	5.469902	8.270081E+14	0.000698	1432.471619	18.533451	0.909331	0	0
0	0	0	46.650184	5.495607	42.828085	5.495607	7.843872E+14	0.000695	1436.816132	18.571759	0.903667	0	0
0	0	0	46.532125	5.52103	42.66428	5.52103	7.397992E+14	0.000691	1446.337033	18.553252	0.898452	0	0
0	0	0	46.421703	5.544118	42.511323	5.544118	7.002311E+14	0.000687	1454.092525	18.508885	0.893236	0	0
0	0	0	46.311404	5.565557	42.359469	5.565557	6.626774E+14	0.000683	1463.898563	18.513242	0.887823	0	0
0	0	0	46.201553	5.586586	42.208262	5.586586	6.271495E+14	0.000679	1471.56684	18.548589	0.882516	0	0
0	0	0	46.09011	5.606054	42.056002	5.606054	5.929323E+14	0.000674	1482.788246	18.544973	0.877657	0	0
0	0	0	45.980954	5.624775	41.906937	5.624775	5.611207E+14	0.00067	1491.94416	18.504902	0.873023	0	0
0	0	0	45.865754	5.642654	41.750798	5.642654	5.292927E+14	0.000664	1505.815928	18.520581	0.867834	0	0
0	0	0	45.762152	5.65882	41.610163	5.65882	5.021304E+14	0.00066	1514.970417	18.543989	0.862685	0	0
0	0	0	45.64785	5.674916	41.456121	5.674916	4.736943E+14	0.000654	1529.598535	18.542537	0.857932	0	0
0	0	0	45.543921	5.689501	41.315958	5.689501	4.491698E+14	0.000649	1540.179993	18.492828	0.853271	0	0
0	0	0	45.433131	5.703541	41.167526	5.703541	4.243574E+14	0.000643	1555.911679	18.481587	0.848373	0	0
0	0	0	45.325608	5.717278	41.02326	5.717278	4.015292E+14	0.000638	1567.511054	18.522273	0.843355	0	0
0	0	0	45.216044	5.729996	40.877093	5.729996	3.794763E+14	0.000631	1583.314462	18.515892	0.838682	0	0
0	0	0	45.109297	5.741834	40.73499	5.741834	3.591086E+14	0.000625	1599.046472	18.480177	0.833915	0	0
0	0	0	44.999038	5.753938	40.588193	5.753938	3.391733E+14	0.00062	1612.846256	18.443347	0.829162	0	0
0	0	0	44.896824	5.764295	40.45267	5.764295	3.216457E+14	0.000614	1628.378535	18.464055	0.824158	0	0
0	0	0	44.78534	5.774867	40.305314	5.774867	3.035234E+14	0.000607	1647.3335	18.475684	0.819537	0	0
0	0	0	44.678103	5.784884	40.163595	5.784884	2.870234E+14	0.000601	1663.609492	18.429796	0.815061	0	0
0	0	0	44.573929	5.794356	40.026037	5.794356	2.718265E+14	0.000596	1678.302273	18.412379	0.810427	0	0
0	0	0	44.463017	5.803548	39.880195	5.803548	2.565034E+14	0.000589	1698.024392	18.425046	0.805806	0	0
0	0	0	44.357863	5.812173	39.741913	5.812173	2.427512E+14	0.000583	1714.367457	18.438137	0.801185	0	0
0	0	0	44.251933	5.820205	39.603057	5.820205	2.296225E+14	0.000577	1733.769871	18.38753	0.796881	0	0
0	0	0	44.144696	5.827913	39.462753	5.827913	2.170361E+14	0.00057	1754.487253	18.371006	0.79226	0	0
0	0	0	44.039297	5.835096	39.325102	5.835096	2.053213E+14	0.000563	1775.964672	18.401126	0.787705	0	0
0	0	0	43.936225	5.842074	39.190465	5.842074	1.944626E+14	0.000557	1794.484726	18.402948	0.783084	0	0
0	0	0	43.825517	5.848968	39.046275	5.848968	1.83424E+14	0.00055	1817.993887	18.34947	0.779057	0	0
0	0	0	43.72216	5.855238	38.911736	5.855238	1.736726E+14	0.000544	1838.924264	18.310577	0.774621	0	0
0	0	0	43.614024	5.861418	38.771232	5.861418	1.640138E+14	0.000537	1862.523415	18.33182	0.769986	0	0
0	0	0	43.505522	5.867353	38.630413	5.867353	1.548517E+14	0.00053	1886.566457	18.340564	0.765735	0	0
0	0	0	43.403022	5.872722	38.497533	5.872722	1.466587E+14	0.000524	1909.664858	18.297024	0.761642	0	0
0	0	0	43.292763	5.878102	38.354874	5.878102	1.383205E+14	0.000516	1937.367351	18.273157	0.757325	0	0
0	0	0	43.188058	5.882918	38.219601	5.882918	1.308345E+14	0.000509	1965.475572	18.295157	0.752902	0	0
0	0	0	43.079882	5.888104	38.079618	5.888104	1.23519E+14	0.000503	1987.500448	18.305791	0.748914	0	0
0	0	0	42.973788	5.892352	37.943	5.892352	1.16736E+14	0.000495	2021.188269	18.265131	0.744993	0	0
0	0	0	42.862754	5.896718	37.800045	5.896718	1.100302E+14	0.000487	2055.162216	18.228896	0.740861	0	0
0	0	0	42.758008	5.901265	37.66478	5.901265	1.040531E+14	0.000482	2074.997028	18.250006	0.73653	0	0
0	0	0	42.646197	5.904888	37.521414	5.904888	9.802633E+13	0.000472	2119.492937	18.240004	0.732503	0	0
0	0	0	42.54333	5.90874	37.389031	5.90874	9.278676E+13	0.000466	2145.847533	18.203108	0.728595	0	0
0	0	0	42.43303	5.91234	37.247512	5.91234	8.747595E+13	0.000458	2183.614055	18.162671	0.724476	0	0
0	0	0	42.311541	5.916012	37.091855	5.916012	8.197384E+13	0.000449	2229.480072	18.174804	0.720277	0	0
0	0	0	42.199486	5.919464	36.948192	5.919464	7.720328E+13	0.000441	2266.742841	18.18338	0.716105	0	0
0	0	0	42.091881	5.922551	36.810408	5.922551	7.288131E+13	0.000434	2305.93384	18.117387	0.71254	0	0
0	0	0	41.980275	5.925585	36.66762	5.925585	6.86518E+13	0.000426	2348.665083	18.090461	0.708328	0	0
0	0	0	41.873283	5.928521	36.530684	5.928521	6.48259E+13	0.000419	2385.466944	18.096282	0.70413	0	0
0	0	0	41.751386	5.931353	36.375103	5.931353	6.072414E+13	0.00041	2441.757048	18.103348	0.70005	0	0
0	0	0	41.646232	5.934055	36.240631	5.934055	5.739337E+13	0.000404	2477.620277	18.042926	0.696393	0	0
0	0	0	41.530542	5.936549	36.093097	5.936549	5.393811E+13	0.000395	2532.404987	18.019316	0.692247	0	0
0	0	0	41.421263	5.939019	35.95361	5.939019	5.086434E+13	0.000388	2576.277083	18.049022	0.688167	0	0
0	0	0	41.309003	5.941324	35.810509	5.941324	4.788791E+13	0.00038	2628.197602	18.022702	0.684405	0	0
0	0	0	41.194048	5.943621	35.664009	5.943621	4.501938E+13	0.000373	2680.981258	17.967725	0.680813	0	0
0	0	0	41.083136	5.945674	35.522792	5.945674	4.241384E+13	0.000365	2736.848483	17.934068	0.676905	0	0
0	0	0	40.968181	5.947902	35.376312	5.947902	3.987153E+13	0.000359	2785.727129	17.96193	0.67268	0	0
0	0	0	40.85245	5.949691	35.229251	5.949691	3.746524E+13	0.00035	2857.307499	17.932537	0.669248	0	0
0	0	0	40.737005	5.951806	35.082221	5.951806	3.520893E+13	0.000344	2905.415648	17.877225	0.665485	0	0
0	0	0	40.617354	5.953626	34.930168	5.953626	3.301309E+13	0.000336	2974.716565	17.860067	0.661643	0	0
0	0	0	40.495743	5.955358	34.775717	5.955358	3.092101E+13	0.000328	3050.073516	17.877461	0.657748	0	0
0	0	0	40.378664	5.95704	34.626992	5.95704	2.903179E+13	0.000321	3118.309401	17.850554	0.654196	0	0
0	0	0	40.25987	5.958723	34.476094	5.958723	2.723242E+13	0.000314	3185.430864	17.780196	0.650711	0	0
0	0	0	40.138177	5.96015	34.321786	5.96015	2.550433E+13	0.000305	3275.515064	17.780128	0.646736	0	0
0	0	0	40.01628	5.961449	34.16733	5.961449	2.388294E+13	0.000296	3375.549586	17.792047	0.643053	0	0
0	0	0	39.895894	5.963269	34.014247	5.963269	2.238254E+13	0.000292	3419.067491	17.761502	0.639409	0	0
0	0	0	39.767667	5.964598	33.851777	5.964598	2.088767E+13	0.000284	3520.709749	17.679933	0.635976	0	0
0	0	0	39.643115	5.965974	33.693865	5.965974	1.953106E+13	0.000277	3606.867406	17.686198	0.632081	0	0
0	0	0	39.516604	5.967088	33.533738	5.967088	1.824305E+13	0.000269	3724.295957	17.709349	0.628424	0	0
0	0	0	39.386212	5.968337	33.368585	5.968337	1.700417E+13	0.000261	3830.502447	17.677933	0.624951	0	0
0	0	0	39.259292	5.969653	33.207714	5.969653	1.587896E+13	0.000255	3915.644715	17.604621	0.621545	0	0
0	0	0	39.125185	5.970721	33.038047	5.970721	1.477068E+13	0.000247	4046.96336	17.611024	0.617795	0	0
0	0	0	38.99508	5.971581	32.87361	5.971581	1.376931E+13	0.000238	4200.747587	17.622537	0.614283	0	0
0	0	0	38.860523	5.972728	32.703273	5.972728	1.280492E+13	0.000232	4315.769925	17.56263	0.611009	0	0
0	0	0	38.726048	5.973716	32.533191	5.973716	1.190849E+13	0.000225	4454.29454	17.506587	0.607471	0	0
0	0	0	38.590512	5.974726	32.361738	5.974726	1.106839E+13	0.000218	4587.082211	17.515864	0.603959	0	0
0	0	0	38.453464	5.975715	32.188396	5.975715	1.027908E+13	0.000212	4723.067452	17.532735	0.600473	0	0
0	0	0	38.314987	5.976455	32.013508	5.976455	9.53863E+12	0.000203	4915.333555	17.443915	0.597384	0	0
0	0	0	38.174795	5.977228	31.83642	5.977228	8.843261E+12	0.000196	5105.396408	17.408667	0.593792	0	0
0	0	0	38.034154	5.977998	31.65876	5.977998	8.196542E+12	0.000189	5296.961051	17.420124	0.590214	0	0
0	0	0	37.892247	5.978686	31.479588	5.978686	7.59188E+12	0.000181	5515.039738	17.401442	0.586914	0	0
0	0	0	37.752749	5.979242	31.303579	5.979242	7.040939E+12	0.000173	5769.060943	17.328125	0.58393	0	0
0	0	0	37.607697	5.980149	31.120199	5.980149	6.510387E+12	0.000169	5926.044802	17.286981	0.580471	0	0
0	0	0	37.465545	5.980855	30.940673	5.980855	6.029217E+12	0.000163	6135.901252	17.307933	0.577051	0	0
0	0	0	37.316002	5.981675	30.751718	5.981675	5.561334E+12	0.000158	6320.624943	17.275736	0.574014	0	0
0	0	0	37.166458	5.982154	30.563129	5.982154	5.129736E+12	0.000151	6642.667282	17.213648	0.570859	0	0
0	0	0	37.014423	5.982813	30.371201	5.982813	4.725249E+12	0.000145	6897.774587	17.20251	0.567545	0	0
0	0	0	36.86292	5.98333	30.180091	5.98333	4.353887E+12	0.000139	7218.996708	17.201183	0.564257	0	0
0	0	0	36.706883	5.983777	29.983352	5.983777	4.001882E+12	0.000132	7602.922461	17.151903	0.561432	0	0
0	0	0	36.548723	5.984248	29.783909	5.984248	3.674105E+12	0.000125	7993.280501	17.097647	0.558237	0	0
0	0	0	36.384968	5.985014	29.577087	5.985014	3.362981E+12	0.000122	8220.217326	17.094354	0.55487	0	0
0	0	0	36.220274	5.985567	29.369318	5.985567	3.07663E+12	0.000117	8581.708206	17.089469	0.551622	0	0
0	0	0	36.055294	5.985887	29.161449	5.985887	2.814218E+12	0.00011	9126.117906	17.00782	0.549021	0	0
0	0	0	35.883046	5.986433	28.944172	5.986433	2.564089E+12	0.000105	9537.617587	16.970393	0.545892	0	0
0	0	0	35.708061	5.98695	28.723478	5.98695	2.332732E+12	0.0001	9984.936455	17.004953	0.542499	0	0
0	0	0	35.529278	5.987454	28.498015	5.987454	2.117894E+12	9.55751E-5	10462.975777	16.939123	0.539911	0	0
0	0	0	35.348944	5.987804	28.270775	5.987804	1.921225E+12	8.989092E-5	11124.593862	16.883565	0.536901	0	0
0	0	0	35.165669	5.988219	28.039753	5.988219	1.740047E+12	8.513153E-5	11746.529265	16.852296	0.533864	0	0
0	0	0	34.976269	5.988667	27.800982	5.988667	1.570742E+12	8.082436E-5	12372.507049	16.887608	0.53059	0	0
0	0	0	34.787808	5.989191	27.563292	5.989191	1.418628E+12	7.770778E-5	12868.723609	16.821728	0.528121	0	0
0	0	0	34.593059	5.989325	27.318156	5.989325	1.276895E+12	7.112028E-5	14060.687779	16.741788	0.52519	0	0
0	0	0	34.397043	5.989867	27.070927	5.989867	1.148533E+12	6.862514E-5	14571.918705	16.760886	0.521876	0	0
0	0	0	34.195555	5.990138	26.817139	5.990138	1.030023E+12	6.386772E-5	15657.362958	16.74619	0.518971	0	0
0	0	0	33.990147	5.990362	26.558472	5.990362	9.217845E+11	5.899943E-5	16949.315111	16.679714	0.516383	0	0
0	0	0	33.780574	5.990828	26.294259	5.990828	8.230635E+11	5.647112E-5	17708.168011	16.61217	0.513426	0	0
0	0	0	33.564998	5.991116	26.022711	5.991116	7.325335E+11	5.259548E-5	19013.041162	16.630742	0.510349	0	0
0	0	0	33.347257	5.99145	25.748377	5.99145	6.511979E+11	4.941564E-5	20236.50964	16.585154	0.507788	0	0
0	0	0	33.126739	5.991631	25.470738	5.991631	5.780243E+11	4.52639E-5	22092.660517	16.510975	0.505015	0	0
0	0	0	32.891929	5.992064	25.174791	5.992064	5.091238E+11	4.315658E-5	23171.43493	16.486701	0.502084	0	0
0	0	0	32.658262	5.992297	24.880533	5.992297	4.487131E+11	3.980557E-5	25122.112266	16.488118	0.499127	0	0
0	0	0	32.422431	5.992635	24.583411	5.992635	3.950077E+11	3.757335E-5	26614.610689	16.421017	0.49675	0	0
0	0	0	32.183659	5.992702	24.282941	5.992702	3.471776E+11	3.349889E-5	29851.736609	16.372608	0.493991	0	0
0	0	0	31.946562	5.992958	23.984322	5.992958	3.054152E+11	3.120632E-5	32044.786123	16.380698	0.490888	0	0
0	0	0	31.704033	5.993175	23.67892	5.993175	2.678886E+11	2.880637E-5	34714.538234	16.338632	0.488446	0	0
0	0	0	31.459545	5.993477	23.370931	5.993477	2.347239E+11	2.722759E-5	36727.457457	16.249997	0.485924	0	0
0	0	0	31.208604	5.993627	23.055026	5.993627	2.049489E+11	2.474092E-5	40418.873214	16.221497	0.48298	0	0
0	0	0	30.953253	5.993776	22.73357	5.993776	1.785246E+11	2.246195E-5	44519.726451	16.247372	0.480049	0	0
0	0	0	30.69978	5.993853	22.414575	5.993853	1.556652E+11	2.001766E-5	49955.885917	16.172648	0.477804	0	0
0	0	0	30.439406	5.994351	22.086307	5.994351	1.352273E+11	2.031586E-5	49222.633384	16.083408	0.475163	0	0
0	0	0	30.179277	5.994321	21.759079	5.994321	1.174884E+11	1.747331E-5	57230.143902	16.087642	0.472193	0	0
0	0	0	29.915963	5.994607	21.427396	5.994607	1.019007E+11	1.675946E-5	59667.776564	16.081801	0.469631	0	0
0	0	0	29.651137	5.994748	21.094013	5.994748	8.830897E+10	1.532203E-5	65265.516482	16.000705	0.467361	0	0
0	0	0	29.38329	5.994743	20.757034	5.994743	7.640519E+10	1.32332E-5	75567.501896	15.939501	0.464561	0	0
0	0	0	29.111359	5.995062	20.414449	5.995062	6.596022E+10	1.304178E-5	76676.66558	15.956795	0.461564	0	0
0	0	0	28.838693	5.995024	20.071453	5.995024	5.69205E+10	1.106761E-5	90353.708786	15.882663	0.459597	0	0
0	0	0	28.563414	5.995204	19.724849	5.995204	4.90503E+10	1.034977E-5	96620.466258	15.819294	0.457049	0	0
0	0	0	28.28646	5.995363	19.376164	5.995363	4.223004E+10	9.640556E-6	103728.460328	15.799495	0.454263	0	0
0	0	0	28.008485	5.995305	19.026517	5.995305	3.633804E+10	8.054445E-6	124155.043892	15.791448	0.451715	0	0
0	0	0	27.730633	5.995543	18.676578	5.995543	3.127017E+10	7.865728E-6	127133.810472	15.688063	0.449576	0	0
0	0	0	27.451719	5.995637	18.325518	5.995637	2.689365E+10	7.141086E-6	140034.7168	15.651106	0.446922	0	0
0	0	0	27.171989	5.995782	17.973347	5.995782	2.311945E+10	6.724365E-6	148712.919099	15.663623	0.444295	0	0
0	0	0	26.889563	5.995862	17.617884	5.995862	1.984597E+10	6.089999E-6	164203.638487	15.580838	0.442156	0	0
0	0	0	26.605504	5.995843	17.260518	5.995843	1.702095E+10	5.154617E-6	194000.836204	15.519951	0.439687	0	0
0	0	0	26.320832	5.996028	16.902061	5.996028	1.459323E+10	5.057088E-6	197742.25153	15.519311	0.436994	0	0
0	0	0	26.034608	5.996048	16.541908	5.996048	1.250128E+10	4.40141E-6	227199.911048	15.494006	0.434868	0	0
0	0	0	25.750181	5.996154	16.183879	5.996154	1.071963E+10	4.119453E-6	242750.653176	15.397491	0.43294	0	0
0	0	0	25.464774	5.996214	15.824688	5.996214	9.187018E+9	3.722387E-6	268644.82297	15.360304	0.430313	0	0
0	0	0	25.181205	5.996254	15.46784	5.996254	7.881356E+9	3.31359E-6	301787.509926	15.382286	0.427791	0	0
0	0	0	24.897799	5.996366	15.111078	5.996366	6.761852E+9	3.180772E-6	314389.065008	15.299112	0.425731	0	0
0	0	0	24.61227	5.996492	14.75162	5.996492	5.794711E+9	3.143121E-6	318155.125736	15.232353	0.423553	0	0
0	0	0	24.326659	5.996505	14.392242	5.996505	4.96568E+9	2.737999E-6	365230.24436	15.227483	0.421058	0	0
0	0	0	24.040843	5.996624	14.03243	5.996624	4.254787E+9	2.751549E-6	363431.687013	15.181914	0.418853	0	0
0	0	0	23.755518	5.996459	13.673709	5.996459	3.646631E+9	1.902365E-6	525661.356317	15.056295	0.416991	0	0
0	0	0	23.461985	5.996492	13.30433	5.996492	3.111565E+9	1.688793E-6	592138.880271	15.082348	0.414205	0	0
0	0	0	23.164245	5.996578	12.929567	5.996578	2.648978E+9	1.605992E-6	622668.068106	15.071517	0.41208	0	0
0	0	0	22.870303	5.996697	12.559524	5.996697	2.259798E+9	1.634849E-6	611677.379996	14.985966	0.41006	0	0
0	0	0	22.583059	5.996796	12.197939	5.996796	1.934786E+9	1.668449E-6	599359.161035	14.900436	0.407934	0	0
0	0	0	22.296794	5.99677	11.837803	5.99677	1.657397E+9	1.359805E-6	735399.730923	14.915525	0.405399	0	0
0	0	0	22.005589	5.996796	11.471358	5.996796	1.41599E+9	1.221299E-6	818800.102058	14.845458	0.403603	0	0
0	0	0	21.709891	5.996928	11.099074	5.996928	1.20681E+9	1.398949E-6	714822.225335	14.762822	0.401398	0	0
0	0	0	21.415622	5.997106	10.728502	5.997106	1.029327E+9	2.227603E-6	448913.099791	14.769624	0.398956	0	0
0	0	0	21.119598	5.997172	10.355918	5.997172	8.77113E+8	2.796202E-6	357627.944392	14.705484	0.397107	0	0
0	0	0	20.820878	5.997001	9.98037	5.997001	7.463199E+8	1.06725E-6	936987.452052	14.625825	0.394995	0	0
0	0	0	20.519913	5.997001	9.601688	5.997001	6.342597E+8	9.070635E-7	1102458.606004	14.610201	0.392618	0	0
0	0	0	20.215027	5.997027	9.218026	5.997027	5.378843E+8	8.40615E-7	1189605.257574	14.613819	0.390493	0	0
0	0	0	19.90667	5.997212	8.829702	5.997212	4.55298E+8	2.02806E-6	493081.999845	14.493816	0.38875	0	0
0	0	0	19.593535	5.997199	8.435731	5.997199	3.843978E+8	1.512579E-6	661122.70561	14.464996	0.386175	0	0
0	0	0	19.273784	5.997159	8.033485	5.997159	3.233798E+8	9.425058E-7	1061001.426366	14.451416	0.384076	0	0
0	0	0	18.953013	5.997172	7.629856	5.997172	2.718975E+8	8.675281E-7	1152700.35567	14.364592	0.382373	0	0
0	0	0	18.627913	5.997166	7.220818	5.997166	2.280769E+8	6.948698E-7	1439118.505599	14.319706	0.380102	0	0
0	0	0	18.29877	5.997225	6.806567	5.997225	1.90901E+8	9.804264E-7	1019964.391155	14.304642	0.377871	0	0
0	0	0	17.965462	5.997337	6.386971	5.997337	1.594253E+8	-2.774066E-6	-360481.732137	14.243928	0.376115	0	0
0	0	0	17.624966	5.997172	5.958868	5.997172	1.32623E+8	4.232406E-7	2362722.228636	14.145572	0.3742	0	0
0	0	0	17.279325	5.997212	5.523895	5.997212	1.100203E+8	4.904177E-7	2039078.10522	14.151483	0.371903	0	0
0	0	0	16.926048	5.99741	5.079	5.99741	9.089364E+7	-4.118965E-7	-2427794.403539	14.112566	0.370186	0	0
0	0	0	16.569299	5.997192	4.630558	5.997192	7.495135E+7	2.78814E-7	3586620.666045	14.017177	0.368246	0	0
0	0	0	16.209039	5.997186	4.177281	5.997186	6.168804E+7	2.174805E-7	4598113.843563	13.992543	0.366107	0	0
0	0	0	15.843552	5.997423	3.716933	5.997423	5.062852E+7	-2.02224E-7	-4945010.631058	13.970495	0.3641	0	0
0	0	0	15.475287	5.997549	3.253312	5.997549	4.148945E+7	-7.795874E-8	-1.28273E+7	13.851993	0.362436	0	0
0	0	0	15.098733	5.997186	2.78026	5.997186	3.384806E+7	1.193371E-7	8379621.465032	13.820165	0.360271	0	0
0	0	0	14.717524	5.997232	2.300515	5.997232	2.754464E+7	1.531987E-7	6527471.147247	13.81429	0.358264	0	0
0	0	0	14.33174	5.997469	1.814614	5.997469	2.235973E+7	-6.312604E-8	-1.584132E+7	13.706871	0.356706	0	0
0	0	0	13.935462	5.997443	1.316056	5.997443	1.804812E+7	-6.120566E-8	-1.633836E+7	13.654807	0.354501	0	0
0	0	0	13.536774	5.997252	0.814817	5.997252	1.454896E+7	1.075398E-7	9298885.323534	13.644249	0.352587	0	0
0	0	0	13.140864	5.997476	0.316189	5.997476	1.174583E+7	-3.182744E-8	-3.141943E+7	13.555526	0.351069	0	0
0	0	0	12.743646	5.997476	-0.183607	5.997476	9476080.5	-2.567705E-8	-3.894528E+7	13.49875	0.349154	0	0
0	0	0	12.341202	5.99741	-0.689837	5.99741	7623363	-3.453924E-8	-2.895257E+7	13.517078	0.346976	0	0
0	0	0	11.938349	5.997212	-1.196289	5.997212	6131526	2.733819E-8	3.657887E+7	13.406354	0.345589	0	0
0	0	0	11.536149	5.997331	-1.702611	5.997331	4933373.5	-1.154894E-7	-8658807.049814	13.32884	0.343582	0	0
0	0	0	11.134235	5.997364	-2.208387	5.997364	3969963	-3.396482E-8	-2.944223E+7	13.328979	0.341642	0	0
0	0	0	10.732036	5.997206	-2.714094	5.997206	3194198.5	1.335837E-8	7.485944E+7	13.245093	0.340202	0	0
0	0	0	10.329142	5.997304	-3.221251	5.997304	2569060	1.546237E-7	6467315.922453	13.18253	0.338354	0	0
0	0	0	9.924166	5.997364	-3.730942	5.997364	2063943	-1.765778E-8	-5.663226E+7	13.166553	0.336374	0	0
0	0	0	9.521925	5.997351	-4.237026	5.997351	1660594	-1.903931E-8	-5.252292E+7	13.097638	0.334921	0	0
0	0	0	9.124013	5.997364	-4.737724	5.997364	1339200.5	-1.14573E-8	-8.728057E+7	13.013282	0.333126	0	0
0	0	0	8.726755	5.997529	-5.237953	5.997529	1080391	-2.215184E-9	-4.514298E+8	13.005225	0.331251	0	0
0	0	0	8.334152	5.997304	-5.731418	5.997304	873794.5	5.259422E-8	1.90135E+7	12.956379	0.329759	0	0
0	0	0	7.941059	5.997397	-6.22624	5.997397	706517	-3.698007E-9	-2.704159E+8	12.860751	0.328042	0	0
0	0	0	7.549232	5.99743	-6.71933	5.99743	571654	-2.155392E-9	-4.639526E+8	12.870907	0.326049	0	0
0	0	0	7.160019	5.99737	-7.208912	5.99737	463188	-3.516457E-9	-2.843772E+8	12.780331	0.324847	0	0
0	0	0	6.776522	5.997469	-7.691681	5.997469	376464.5	-1.062796E-9	-9.40914E+8	12.67849	0.323171	0	0
0	0	0	6.397681	5.997568	-8.168595	5.997568	306749	-5.318842E-10	-1.880108E+9	12.684941	0.321269	0	0
0	0	0	6.021127	5.997529	-8.642296	5.997529	250253	-5.131067E-10	-1.948912E+9	12.625802	0.319764	0	0
0	0	0	5.645553	5.997463	-9.114698	5.997463	204270.5	-6.018799E-10	-1.661461E+9	12.542355	0.31814	0	0
0	0	0	5.26953	5.997608	-9.588186	5.997608	166696.5	-2.503997E-10	-3.993615E+9	12.556735	0.316173	0	0
0	0	0	4.889382	5.997397	-10.06598	5.997397	135731	-7.104335E-10	-1.407591E+9	12.453618	0.314985	0	0
0	0	0	4.512991	5.997687	-10.540298	5.997687	110742	-1.312541E-10	-7.618809E+9	12.348437	0.313493	0	0
0	0	0	4.14538	5.997595	-11.002612	5.997595	90784	-1.427298E-10	-7.006245E+9	12.360157	0.311433	0	0
0	0	0	3.782547	5.997634	-11.459247	5.997634	74615	-1.029094E-10	-9.717285E+9	12.266778	0.31039	0	0
0	0	0	3.426942	5.997714	-11.906889	5.997714	61566	-6.81752E-11	-1.466809E+10	12.213201	0.308568	0	0
0	0	0	3.074685	5.997588	-12.349794	5.997588	50891	-8.192084E-11	-1.220691E+10	12.193377	0.306825	0	0
0	0	0	2.727084	5.997687	-12.787418	5.997687	42173	-4.998446E-11	-2.000622E+10	12.094231	0.305597	0	0
0	0	0	2.389815	5.997562	-13.211462	5.997562	35144.5	-6.254715E-11	-1.598794E+10	12.006234	0.303921	0	0
0	0	0	2.067614	5.997641	-13.617077	5.997641	29526.5	-3.990668E-11	-2.505846E+10	12.029139	0.302244	0	0
0	0	0	1.761503	5.997648	-14.002258	5.997648	25023	-3.315525E-11	-3.016113E+10	11.916252	0.301161	0	0
0	0	0	1.484835	5.997575	-14.350184	5.997575	21547	-3.642435E-11	-2.745417E+10	11.871145	0.299313	0	0
0	0	0	1.243083	5.997436	-14.654001	5.997436	18907.5	-6.751375E-11	-1.48118E+10	11.885321	0.297557	0	0
0	0	0	1.036082	5.997509	-14.914651	5.997509	16906	-3.814348E-11	-2.62168E+10	11.724009	0.296487	0	0
0	0	0	0.855421	5.997674	-15.142407	5.997674	15333	-1.883533E-11	-5.309173E+10	11.713452	0.294599	0	0
0	0	0	0.707348	5.997496	-15.328244	5.997496	14153.5	-3.422403E-11	-2.921923E+10	11.654241	0.293187	0	0
0	0	0	0.579162	5.997601	-15.489816	5.997601	13206	-2.028919E-11	-4.928732E+10	11.538767	0.291919	0	0
0	0	0	0.472701	5.997522	-15.623558	5.997522	12467.5	-2.63646E-11	-3.792965E+10	11.53701	0.290176	0	0
0	0	0	0.380083	5.997885	-15.741069	5.997885	11858.5	-9.201742E-12	-1.086751E+11	11.472797	0.288909	0	0
0	0	0	0.306536	5.997595	-15.832828	5.997595	11396.5	-1.791747E-11	-5.581144E+10	11.378246	0.287522	0	0
0	0	0	0.245567	5.997733	-15.909916	5.997733	11026.5	-1.163678E-11	-8.593442E+10	11.371918	0.285714	0	0
0	0	0	0.191581	5.997661	-15.977648	5.997661	10709.5	-1.365331E-11	-7.324233E+10	11.265466	0.284578	0	0
0	0	0	0.156585	5.997628	-16.021594	5.997628	10509	-1.479678E-11	-6.758225E+10	11.191418	0.282967	0	0
0	0	0	0.11391	5.997489	-16.074915	5.997489	10269.5	-2.57561E-11	-3.882575E+10	11.182601	0.281317	0	0
0	0	0	0.093288	5.997661	-16.101326	5.997661	10155.5	-1.294702E-11	-7.723783E+10	11.050775	0.28034	0	0
0	0	0	0.067887	5.997417	-16.132627	5.997417	10017	-4.252529E-11	-2.351542E+10	11.047753	0.278597	0	0
0	0	0	0.042895	5.997859	-16.165267	5.997859	9882.5	-8.03854E-12	-1.244007E+11	10.9956	0.27729	0	0
0	0	0	0.030236	5.997634	-16.180589	5.997634	9815	-1.35369E-11	-7.387216E+10	10.873688	0.275996	0	0
0	0	0	0.022926	5.997687	-16.18993	5.997687	9776.5	-1.158734E-11	-8.630105E+10	10.876881	0.274214	0	0
0	0	0	0.016597	5.997568	-16.197573	5.997568	9743	-1.689377E-11	-5.919342E+10	10.769065	0.273276	0	0
0	0	0	0.005612	5.997377	-16.210877	5.997377	9685.5	-6.608839E-11	-1.513125E+10	10.671452	0.271745	0	0
0	0	0	-0.005251	5.997667	-16.22533	5.997667	9628.5	-1.204734E-11	-8.300588E+10	10.682078	0.2702	0	0
0	0	0	-0.01252	5.99743	-16.233834	5.99743	9591	-3.616233E-11	-2.765308E+10	10.573383	0.269131	0	0
0	0	0	-0.022688	5.997661	-16.247253	5.997661	9538.5	-1.216042E-11	-8.223397E+10	10.535667	0.267678	0	0
0	0	0	-0.029059	5.997628	-16.255179	5.997628	9505.5	-1.338385E-11	-7.471694E+10	10.533629	0.266213	0	0
0	0	0	-0.032938	5.997542	-16.259828	5.997542	9485.5	-1.833343E-11	-5.454515E+10	10.394881	0.265157	0	0
0	0	0	-0.036409	5.997608	-16.264374	5.997608	9467.5	-1.422141E-11	-7.031653E+10	10.395372	0.263414	0	0
0	0	0	-0.038369	5.997469	-16.266466	5.997469	9457.5	-2.669944E-11	-3.745397E+10	10.276679	0.262608	0	0
0	0	0	-0.040003	5.997588	-16.268843	5.997588	9449.5	-1.521116E-11	-6.574122E+10	10.213289	0.260998	0	0
0	0	0	-0.04082	5.997813	-16.270477	5.997813	9445.5	-8.39185E-12	-1.191632E+11	10.190105	0.259704	0	0
0	0	0	-0.04184	5.997278	-16.270316	5.997278	9440	1.242974E-10	8.045219E+9	10.052473	0.258582	0	0
0	0	0	-0.042739	5.997443	-16.271892	5.997443	9435.5	-3.199695E-11	-3.125298E+10	10.061242	0.256944	0	0
0	0	0	-0.043719	5.997601	-16.273554	5.997601	9430.5	-1.448866E-11	-6.90195E+10	9.950798	0.256126	0	0
0	0	0	-0.04376	5.997648	-16.27373	5.997648	9430.5	-1.249533E-11	-8.00299E+10	9.916113	0.254489	0	0
0	0	0	-0.045067	5.997575	-16.275178	5.997575	9423.5	-1.593005E-11	-6.277444E+10	9.884716	0.253221	0	0
0	0	0	-0.045842	5.997384	-16.275637	5.997384	9420	-5.836898E-11	-1.713239E+10	9.755341	0.252191	0	0
0	0	0	-0.046087	5.99745	-16.276124	5.99745	9418.5	-3.040964E-11	-3.28843E+10	9.723064	0.25066	0	0
0	0	0	-0.046618	5.997575	-16.277131	5.997575	9415.5	-1.591653E-11	-6.282777E+10	9.625516	0.24959	0	0
0	0	0	-0.046904	5.997542	-16.277401	5.997542	9414	-1.819524E-11	-5.495943E+10	9.5549	0.248323	0	0
0	0	0	-0.047721	5.997727	-16.278929	5.997727	9410	-1.008875E-11	-9.912035E+10	9.524974	0.24695	0	0
0	0	0	-0.048374	5.997826	-16.280019	5.997826	9407	-8.143016E-12	-1.228046E+11	9.39509	0.245933	0	0
0	0	0	-0.048334	5.997621	-16.279414	5.997621	9407	-1.352769E-11	-7.392245E+10	9.405279	0.244507	0	0
0	0	0	-0.049599	5.99774	-16.281328	5.99774	9400.5	-9.767877E-12	-1.023764E+11	9.317178	0.243517	0	0
0	0	0	-0.049232	5.997839	-16.281134	5.997839	9402.5	-7.935337E-12	-1.260186E+11	9.252991	0.24217	0	0
0	0	0	-0.04915	5.997892	-16.281174	5.997892	9402.5	-7.212958E-12	-1.386394E+11	9.231178	0.241022	0	0
0	0	0	-0.049804	5.99772	-16.281532	5.99772	9399.5	-1.024034E-11	-9.765297E+10	9.106626	0.239952	0	0
0	0	0	-0.05058	5.997832	-16.282811	5.997832	9395.5	-8.029954E-12	-1.245337E+11	9.108877	0.238513	0	0
0	0	0	-0.05107	5.997516	-16.282571	5.997516	9393	-2.050629E-11	-4.876552E+10	8.96811	0.237747	0	0
0	0	0	-0.051029	5.997727	-16.283091	5.997727	9393.5	-1.007106E-11	-9.929446E+10	8.925853	0.236242	0	0
0	0	0	-0.051315	5.997727	-16.283451	5.997727	9392	-1.006945E-11	-9.931032E+10	8.846829	0.235146	0	0
0	0	0	-0.050784	5.997681	-16.282658	5.997681	9394.5	-1.133385E-11	-8.823129E+10	8.755425	0.234011	0	0
0	0	0	-0.052213	5.997681	-16.284456	5.997681	9387	-1.13248E-11	-8.830179E+10	8.745684	0.232796	0	0
0	0	0	-0.052744	5.997615	-16.284945	5.997615	9384.5	-1.378948E-11	-7.251906E+10	8.596764	0.231938	0	0
0	0	0	-0.052254	5.997555	-16.284168	5.997555	9387	-1.715916E-11	-5.827792E+10	8.642435	0.230301	0	0
0	0	0	-0.052417	5.997555	-16.284374	5.997555	9386	-1.715733E-11	-5.828412E+10	8.49636	0.229667	0	0
0	0	0	-0.053071	5.997773	-16.285785	5.997773	9383	-9.052091E-12	-1.104717E+11	8.49475	0.228228	0	0
0	0	0	-0.052499	5.99743	-16.284137	5.99743	9385.5	-3.538751E-11	-2.825856E+10	8.39664	0.22733	0	0
0	0	0	-0.052131	5.997575	-16.284067	5.997575	9387.5	-1.586919E-11	-6.301517E+10	8.357305	0.225997	0	0
0	0	0	-0.052621	5.997879	-16.285506	5.997879	9385	-7.367198E-12	-1.357368E+11	8.296032	0.225112	0	0
0	0	0	-0.051886	5.997681	-16.284045	5.997681	9389	-1.132721E-11	-8.828298E+10	8.180996	0.223884	0	0
0	0	0	-0.051886	5.997568	-16.283741	5.997568	9389	-1.627995E-11	-6.142524E+10	8.173913	0.222511	0	0
0	0	0	-0.052335	5.997694	-16.284646	5.997694	9386.5	-1.09329E-11	-9.146707E+10	8.028994	0.221917	0	0
0	0	0	-0.051519	5.997516	-16.283136	5.997516	9390.5	-2.050083E-11	-4.877851E+10	8.028405	0.220438	0	0
0	0	0	-0.051233	5.99772	-16.28333	5.99772	9392	-1.023217E-11	-9.773095E+10	7.890244	0.219791	0	0
0	0	0	-0.050457	5.997753	-16.282443	5.997753	9396	-9.47124E-12	-1.055828E+11	7.895494	0.21826	0	0
0	0	0	-0.050253	5.997747	-16.282168	5.997747	9397	-9.616028E-12	-1.03993E+11	7.778936	0.217705	0	0
0	0	0	-0.050457	5.997648	-16.282157	5.997648	9396	-1.244962E-11	-8.032376E+10	7.73222	0.216266	0	0
0	0	0	-0.050212	5.997674	-16.28192	5.997674	9397.5	-1.154405E-11	-8.662469E+10	7.649585	0.2155	0	0
0	0	0	-0.050498	5.997621	-16.282137	5.997621	9396	-1.351187E-11	-7.4009E+10	7.576223	0.214193	0	0
0	0	0	-0.050008	5.997443	-16.281038	5.997443	9398.5	-3.187148E-11	-3.137601E+10	7.529337	0.213242	0	0
0	0	0	-0.049436	5.997714	-16.281051	5.997714	9401	-1.041021E-11	-9.605954E+10	7.425932	0.212252	0	0
0	0	0	-0.048987	5.997562	-16.280075	5.997562	9403.5	-1.673554E-11	-5.975309E+10	7.384092	0.211275	0	0
0	0	0	-0.049069	5.997621	-16.280339	5.997621	9403.5	-1.352266E-11	-7.394997E+10	7.276243	0.210338	0	0
0	0	0	-0.049395	5.997535	-16.280518	5.997535	9401.5	-1.870742E-11	-5.345473E+10	7.251332	0.209242	0	0
0	0	0	-0.049885	5.997483	-16.280991	5.997483	9399	-2.448372E-11	-4.084346E+10	7.142291	0.208252	0	0
0	0	0	-0.049844	5.997522	-16.281047	5.997522	9399	-1.987575E-11	-5.031258E+10	7.125	0.207063	0	0
0	0	0	-0.049436	5.997555	-16.280623	5.997555	9401	-1.718475E-11	-5.819113E+10	7.01334	0.206403	0	0
0	0	0	-0.050008	5.997582	-16.281413	5.997582	9398.5	-1.549915E-11	-6.451969E+10	7.004392	0.20503	0	0
0	0	0	-0.050334	5.997516	-16.281646	5.997516	9397	-2.051502E-11	-4.874476E+10	6.886551	0.204251	0	0
0	0	0	-0.050212	5.997648	-16.281849	5.997648	9397.5	-1.24516E-11	-8.031094E+10	6.862548	0.203221	0	0
0	0	0	-0.049885	5.997753	-16.281724	5.997753	9399	-9.474264E-12	-1.055491E+11	6.753287	0.202469	0	0
0	0	0	-0.051682	5.997582	-16.28352	5.997582	9390	-1.548513E-11	-6.457809E+10	6.712705	0.20128	0	0
0	0	0	-0.052009	5.997595	-16.283967	5.997595	9388.5	-1.476052E-11	-6.774831E+10	6.61713	0.200369	0	0
0	0	0	-0.052376	5.997681	-16.284662	5.997681	9386.5	-1.13242E-11	-8.830649E+10	6.580021	0.199432	0	0
0	0	0	-0.05107	5.997641	-16.28291	5.997641	9393	-1.269515E-11	-7.877022E+10	6.485156	0.198508	0	0
0	0	0	-0.05209	5.997529	-16.283891	5.997529	9388	-1.92487E-11	-5.195157E+10	6.452214	0.197504	0	0
0	0	0	-0.053234	5.997588	-16.285491	5.997588	9382	-1.51025E-11	-6.62142E+10	6.351801	0.196593	0	0
0	0	0	-0.053601	5.9977	-16.286257	5.9977	9380	-1.073977E-11	-9.311183E+10	6.308198	0.19563	0	0
0	0	0	-0.054704	5.997819	-16.287965	5.997819	9374.5	-8.220435E-12	-1.216481E+11	6.204864	0.194666	0	0
0	0	0	-0.056215	5.997555	-16.289152	5.997555	9367	-1.71226E-11	-5.840235E+10	6.168248	0.193649	0	0
0	0	0	-0.056378	5.99778	-16.289965	5.99778	9366	-8.908212E-12	-1.12256E+11	6.063302	0.192791	0	0
0	0	0	-0.056011	5.99772	-16.289342	5.99772	9368	-1.020603E-11	-9.798133E+10	6.002274	0.192118	0	0
0	0	0	-0.056052	5.997681	-16.289286	5.997681	9367.5	-1.130127E-11	-8.84856E+10	5.944363	0.190784	0	0
0	0	0	-0.055807	5.997595	-16.288745	5.997595	9369	-1.472986E-11	-6.788932E+10	5.851301	0.19015	0	0
0	0	0	-0.056868	5.997727	-16.290439	5.997727	9363.5	-1.003889E-11	-9.961259E+10	5.82328	0.189041	0	0
0	0	0	-0.056011	5.997621	-16.289074	5.997621	9368	-1.347161E-11	-7.42302E+10	5.723322	0.188289	0	0
0	0	0	-0.057113	5.997707	-16.290693	5.997707	9362.5	-1.054072E-11	-9.487021E+10	5.685658	0.187351	0	0
0	0	0	-0.058706	5.997535	-16.292233	5.997535	9354.5	-1.86139E-11	-5.372331E+10	5.595017	0.186559	0	0
0	0	0	-0.05891	5.997529	-16.292472	5.997529	9353.5	-1.917796E-11	-5.214319E+10	5.57309	0.185582	0	0
0	0	0	-0.058216	5.997766	-16.292241	5.997766	9357	-9.158062E-12	-1.091934E+11	5.487036	0.184711	0	0
0	0	0	-0.058298	5.997641	-16.292005	5.997641	9356.5	-1.264582E-11	-7.90775E+10	5.421213	0.183853	0	0
0	0	0	-0.058257	5.997714	-16.29215	5.997714	9356.5	-1.036093E-11	-9.65164E+10	5.36432	0.182902	0	0
0	0	0	-0.05842	5.997641	-16.292159	5.997641	9355.5	-1.264447E-11	-7.908595E+10	5.275509	0.182215	0	0
0	0	0	-0.058461	5.997601	-16.292103	5.997601	9355.5	-1.437343E-11	-6.957281E+10	5.209628	0.181159	0	0
0	0	0	-0.057277	5.997826	-16.29122	5.997826	9361.5	-8.10363E-12	-1.234015E+11	5.122097	0.180354	0	0
0	0	0	-0.057848	5.997568	-16.291243	5.997568	9358.5	-1.622707E-11	-6.162542E+10	5.04837	0.179588	0	0
0	0	0	-0.057318	5.99772	-16.290986	5.99772	9361	-1.01984E-11	-9.80546E+10	4.969345	0.178598	0	0
0	0	0	-0.055153	5.997674	-16.288138	5.997674	9372.5	-1.151334E-11	-8.685575E+10	4.895603	0.177885	0	0
0	0	0	-0.054908	5.997496	-16.287347	5.997496	9373.5	-2.26657E-11	-4.411953E+10	4.835202	0.177066	0	0
0	0	0	-0.054581	5.99743	-16.286758	5.99743	9375.5	-3.53498E-11	-2.82887E+10	4.778244	0.176221	0	0
0	0	0	-0.054418	5.997747	-16.287409	5.997747	9376	-9.594539E-12	-1.04226E+11	4.689947	0.175455	0	0
0	0	0	-0.054704	5.997621	-16.28743	5.997621	9374.5	-1.348095E-11	-7.417873E+10	4.652505	0.174452	0	0
0	0	0	-0.053765	5.997595	-16.286176	5.997595	9379.5	-1.474637E-11	-6.781332E+10	4.543701	0.173858	0	0
0	0	0	-0.05352	5.9977	-16.286154	5.9977	9380.5	-1.074035E-11	-9.310687E+10	4.498319	0.172841	0	0
0	0	0	-0.053071	5.997674	-16.285517	5.997674	9383	-1.152624E-11	-8.675855E+10	4.404837	0.172023	0	0
0	0	0	-0.053397	5.997549	-16.285589	5.997549	9381	-1.762612E-11	-5.673398E+10	4.305715	0.171363	0	0
0	0	0	-0.052213	5.997542	-16.284081	5.997542	9387	-1.814306E-11	-5.511751E+10	4.252028	0.170518	0	0
0	0	0	-0.051845	5.997733	-16.284136	5.997733	9389	-9.908651E-12	-1.009219E+11	4.159101	0.169778	0	0
0	0	0	-0.05254	5.997304	-16.283849	5.997304	9385.5	5.649363E-10	1.770111E+9	4.115724	0.168973	0	0
0	0	0	-0.051437	5.997667	-16.283444	5.997667	9391	-1.175018E-11	-8.510511E+10	4.041291	0.168233	0	0
0	0	0	-0.052254	5.997615	-16.284329	5.997615	9387	-1.379315E-11	-7.249975E+10	3.958487	0.167349	0	0
0	0	0	-0.051682	5.997555	-16.283449	5.997555	9390	-1.716464E-11	-5.82593E+10	3.879783	0.166609	0	0
0	0	0	-0.052499	5.997344	-16.283905	5.997344	9385.5	-1.296575E-10	-7.712627E+9	3.806058	0.165698	0	0
0	0	0	-0.05254	5.997694	-16.284903	5.997694	9385.5	-1.093173E-11	-9.147681E+10	3.741534	0.164946	0	0
0	0	0	-0.052009	5.997582	-16.283931	5.997582	9388.5	-1.548265E-11	-6.458841E+10	3.667713	0.164352	0	0
0	0	0	-0.052785	5.997529	-16.284765	5.997529	9384.5	-1.924152E-11	-5.197094E+10	3.617044	0.163428	0	0
0	0	0	-0.053724	5.997568	-16.286054	5.997568	9379.5	-1.626348E-11	-6.148745E+10	3.531303	0.162688	0	0
0	0	0	-0.052948	5.99776	-16.285595	5.99776	9383.5	-9.319296E-12	-1.073042E+11	3.466893	0.162002	0	0
0	0	0	-0.053724	5.997575	-16.286071	5.997575	9379.5	-1.585567E-11	-6.306892E+10	3.39079	0.161289	0	0
0	0	0	-0.054132	5.997766	-16.287103	5.997766	9377.5	-9.178126E-12	-1.089547E+11	3.349863	0.160496	0	0
0	0	0	-0.054704	5.997483	-16.287055	5.997483	9374.5	-2.44199E-11	-4.09502E+10	3.289252	0.159783	0	0
0	0	0	-0.055112	5.997463	-16.287515	5.997463	9372.5	-2.761592E-11	-3.6211E+10	3.264174	0.158965	0	0
0	0	0	-0.057399	5.997707	-16.291053	5.997707	9361	-1.053903E-11	-9.488541E+10	3.194036	0.158384	0	0
0	0	0	-0.056133	5.997793	-16.289692	5.997793	9367.5	-8.665137E-12	-1.15405E+11	3.180682	0.157526	0	0
0	0	0	-0.05891	5.99739	-16.292097	5.99739	9353.5	-5.30784E-11	-1.884006E+10	3.149134	0.156918	0	0
0	0	0	-0.058665	5.997773	-16.292824	5.997773	9354.5	-9.024596E-12	-1.108083E+11	3.094497	0.156179	0	0
0	0	0	-0.058869	5.997707	-16.292903	5.997707	9353.5	-1.053058E-11	-9.49615E+10	3.091674	0.15536	0	0
0	0	0	-0.059114	5.997489	-16.292622	5.997489	9352.5	-2.345625E-11	-4.263256E+10	3.039723	0.154621	0	0
0	0	0	-0.059074	5.997852	-16.293553	5.997852	9352.5	-7.700341E-12	-1.298644E+11	3.036931	0.153842	0	0
0	0	0	-0.060299	5.9977	-16.294683	5.9977	9346	-1.070084E-11	-9.345057E+10	2.971276	0.153208	0	0
0	0	0	-0.060054	5.997621	-16.294161	5.997621	9347.5	-1.344213E-11	-7.4393E+10	2.966691	0.152443	0	0
0	0	0	-0.059564	5.99739	-16.292919	5.99739	9350	-5.305854E-11	-1.884711E+10	2.925359	0.151822	0	0
0	0	0	-0.060258	5.997766	-16.294811	5.997766	9346.5	-9.147785E-12	-1.093161E+11	2.890556	0.151162	0	0
0	0	0	-0.061646	5.9977	-16.296379	5.9977	9339.5	-1.06934E-11	-9.351561E+10	2.846749	0.150304	0	0
0	0	0	-0.06136	5.997364	-16.295108	5.997364	9341	-7.99148E-11	-1.251333E+10	2.818241	0.149723	0	0
0	0	0	-0.06181	5.997925	-16.297192	5.997925	9338.5	-6.77821E-12	-1.475316E+11	2.789162	0.149076	0	0
0	0	0	-0.062504	5.997582	-16.297137	5.997582	9335	-1.539443E-11	-6.495857E+10	2.757131	0.148402	0	0
0	0	0	-0.062871	5.997773	-16.298117	5.997773	9333.5	-9.004337E-12	-1.110576E+11	2.751501	0.147624	0	0
0	0	0	-0.061034	5.997714	-16.295644	5.997714	9342.5	-1.034543E-11	-9.666104E+10	2.692108	0.147056	0	0
0	0	0	-0.06087	5.997634	-16.295224	5.997634	9343.5	-1.28866E-11	-7.759996E+10	2.683757	0.146224	0	0
0	0	0	-0.0594	5.997773	-16.293749	5.997773	9351	-9.021219E-12	-1.108498E+11	2.624677	0.145775	0	0
0	0	0	-0.060339	5.997667	-16.294645	5.997667	9346	-1.169387E-11	-8.551489E+10	2.609578	0.145009	0	0
0	0	0	-0.05891	5.997601	-16.292668	5.997601	9353.5	-1.437036E-11	-6.958768E+10	2.589906	0.144389	0	0
0	0	0	-0.05842	5.997575	-16.29198	5.997575	9355.5	-1.58151E-11	-6.323071E+10	2.513486	0.143887	0	0
0	0	0	-0.059972	5.997595	-16.293987	5.997595	9348	-1.469684E-11	-6.804183E+10	2.527163	0.143002	0	0
0	0	0	-0.05891	5.997588	-16.292633	5.997588	9353.5	-1.505662E-11	-6.641596E+10	2.454532	0.142514	0	0
0	0	0	-0.05842	5.997667	-16.29223	5.997667	9355.5	-1.170576E-11	-8.542805E+10	2.45285	0.14159	0	0
0	0	0	-0.058502	5.997687	-16.292387	5.997687	9355.5	-1.108836E-11	-9.018462E+10	2.395906	0.141154	0	0
0	0	0	-0.056828	5.997549	-16.289905	5.997549	9364	-1.759418E-11	-5.683697E+10	2.361833	0.140467	0	0
0	0	0	-0.056174	5.997661	-16.289387	5.997661	9367	-1.194178E-11	-8.373959E+10	2.321296	0.139847	0	0
0	0	0	-0.054091	5.997582	-16.286552	5.997582	9377.5	-1.546451E-11	-6.466417E+10	2.312641	0.139068	0	0
0	0	0	-0.054867	5.997456	-16.287189	5.997456	9374	-2.88827E-11	-3.462281E+10	2.265834	0.138593	0	0
0	0	0	-0.054091	5.997549	-16.286462	5.997549	9377.5	-1.761955E-11	-5.675515E+10	2.233608	0.137933	0	0
0	0	0	-0.054745	5.997568	-16.287338	5.997568	9374.5	-1.625481E-11	-6.152025E+10	2.195575	0.137312	0	0
0	0	0	-0.053724	5.997562	-16.286036	5.997562	9379.5	-1.669282E-11	-5.990598E+10	2.18751	0.136797	0	0
0	0	0	-0.054622	5.997436	-16.286827	5.997436	9375	-3.347568E-11	-2.987244E+10	2.182437	0.136097	0	0
0	0	0	-0.054622	5.997516	-16.287041	5.997516	9375	-2.046699E-11	-4.885915E+10	2.092579	0.135609	0	0
0	0	0	-0.054051	5.997502	-16.286286	5.997502	9378	-2.189138E-11	-4.568008E+10	2.087569	0.134751	0	0
0	0	0	-0.053887	5.997648	-16.286473	5.997648	9379	-1.242709E-11	-8.046935E+10	2.048975	0.13417	0	0
0	0	0	-0.054132	5.99745	-16.286246	5.99745	9377.5	-3.027727E-11	-3.302808E+10	2.039522	0.133589	0	0
0	0	0	-0.055276	5.997423	-16.287613	5.997423	9372	-3.743001E-11	-2.671653E+10	1.988186	0.133074	0	0
0	0	0	-0.055357	5.997529	-16.288002	5.997529	9371	-1.921384E-11	-5.204581E+10	1.960837	0.132282	0	0
0	0	0	-0.054663	5.997483	-16.287003	5.997483	9375	-2.442121E-11	-4.094802E+10	1.945263	0.131687	0	0
0	0	0	-0.055153	5.9977	-16.288209	5.9977	9372.5	-1.073119E-11	-9.318634E+10	1.898269	0.131186	0	0
0	0	0	-0.055317	5.997654	-16.28829	5.997654	9371.5	-1.217781E-11	-8.211656E+10	1.906935	0.130446	0	0
0	0	0	-0.056828	5.99776	-16.290477	5.99776	9364	-9.29993E-12	-1.075277E+11	1.823993	0.13005	0	0
0	0	0	-0.056746	5.997562	-16.289838	5.997562	9364	-1.666524E-11	-6.000514E+10	1.852139	0.129245	0	0
0	0	0	-0.056868	5.997687	-16.290331	5.997687	9363.5	-1.109785E-11	-9.010757E+10	1.783085	0.128743	0	0
0	0	0	-0.058379	5.997674	-16.292197	5.997674	9356	-1.149307E-11	-8.700893E+10	1.779175	0.128057	0	0
0	0	0	-0.057808	5.997839	-16.291924	5.997839	9359	-7.898625E-12	-1.266043E+11	1.748326	0.127502	0	0
0	0	0	-0.059319	5.99774	-16.293557	5.99774	9351	-9.716443E-12	-1.029183E+11	1.714717	0.127	0	0
0	0	0	-0.059849	5.997733	-16.294207	5.997733	9348.5	-9.865909E-12	-1.013591E+11	1.695156	0.126301	0	0
0	0	0	-0.060299	5.997674	-16.294612	5.997674	9346	-1.148079E-11	-8.710202E+10	1.666698	0.125799	0	0
0	0	0	-0.061156	5.997483	-16.295173	5.997483	9342	-2.433524E-11	-4.109267E+10	1.659849	0.125139	0	0
0	0	0	-0.061891	5.997707	-16.296705	5.997707	9338.5	-1.05137E-11	-9.511403E+10	1.620515	0.124677	0	0
0	0	0	-0.06279	5.997846	-16.298211	5.997846	9333.5	-7.779711E-12	-1.285395E+11	1.616828	0.124043	0	0
0	0	0	-0.0623	5.997667	-16.297112	5.997667	9336	-1.168136E-11	-8.560648E+10	1.564836	0.123607	0	0
0	0	0	-0.063851	5.99778	-16.299368	5.99778	9328.5	-8.872545E-12	-1.127072E+11	1.574733	0.12296	0	0
0	0	0	-0.062871	5.997733	-16.29801	5.997733	9333.5	-9.850079E-12	-1.01522E+11	1.506861	0.122459	0	0
0	0	0	-0.064668	5.997608	-16.299931	5.997608	9324	-1.400585E-11	-7.139873E+10	1.497698	0.121891	0	0
0	0	0	-0.064341	5.997555	-16.299377	5.997555	9326	-1.704765E-11	-5.86591E+10	1.474384	0.121323	0	0
0	0	0	-0.064668	5.997582	-16.29986	5.997582	9324	-1.537629E-11	-6.503521E+10	1.43412	0.120795	0	0
0	0	0	-0.064872	5.9977	-16.300438	5.9977	9323.5	-1.067508E-11	-9.367609E+10	1.42669	0.120214	0	0
0	0	0	-0.063116	5.997654	-16.298104	5.997654	9332	-1.212648E-11	-8.246414E+10	1.376581	0.119792	0	0
0	0	0	-0.064137	5.997615	-16.299281	5.997615	9327	-1.370499E-11	-7.296614E+10	1.401269	0.11925	0	0
0	0	0	-0.06328	5.997357	-16.297505	5.997357	9331	-9.143234E-11	-1.093705E+10	1.332647	0.118775	0	0
0	0	0	-0.062953	5.997634	-16.297845	5.997634	9333	-1.287212E-11	-7.768727E+10	1.341701	0.117956	0	0
0	0	0	-0.062585	5.99776	-16.297722	5.99776	9335	-9.271128E-12	-1.078617E+11	1.306438	0.117573	0	0
0	0	0	-0.062136	5.997714	-16.297031	5.997714	9337	-1.033934E-11	-9.671798E+10	1.300978	0.117111	0	0
0	0	0	-0.061238	5.997747	-16.29599	5.997747	9341.5	-9.559234E-12	-1.046109E+11	1.24613	0.116557	0	0
0	0	0	-0.060952	5.997476	-16.294898	5.997476	9343	-2.531606E-11	-3.950062E+10	1.252191	0.115963	0	0
0	0	0	-0.059972	5.997674	-16.294201	5.997674	9348	-1.148325E-11	-8.708339E+10	1.252793	0.115501	0	0
0	0	0	-0.057889	5.997549	-16.291241	5.997549	9358.5	-1.758385E-11	-5.687038E+10	1.182213	0.115157	0	0
0	0	0	-0.059033	5.997681	-16.293037	5.997681	9352.5	-1.128318E-11	-8.862752E+10	1.210165	0.114497	0	0
0	0	0	-0.058053	5.997582	-16.291536	5.997582	9357.5	-1.543153E-11	-6.480238E+10	1.144567	0.114022	0	0
0	0	0	-0.056705	5.997648	-16.290019	5.997648	9364.5	-1.240788E-11	-8.059395E+10	1.13079	0.113454	0	0
0	0	0	-0.057848	5.997436	-16.290886	5.997436	9358.5	-3.341676E-11	-2.99251E+10	1.110196	0.112913	0	0
0	0	0	-0.056787	5.997588	-16.289961	5.997588	9364	-1.507352E-11	-6.634148E+10	1.118586	0.11249	0	0
0	0	0	-0.056828	5.997535	-16.289869	5.997535	9364	-1.86328E-11	-5.36688E+10	1.086292	0.112002	0	0
0	0	0	-0.055235	5.997403	-16.287508	5.997403	9372	-4.552007E-11	-2.196833E+10	1.083362	0.111381	0	0
0	0	0	-0.054704	5.997496	-16.28709	5.997496	9374.5	-2.266812E-11	-4.411483E+10	1.054607	0.110932	0	0
0	0	0	-0.054949	5.997522	-16.28747	5.997522	9373.5	-1.982182E-11	-5.044945E+10	1.030046	0.11047	0	0
0	0	0	-0.05548	5.997417	-16.287852	5.997417	9370.5	-3.978069E-11	-2.513782E+10	1.021334	0.109969	0	0
0	0	0	-0.054541	5.997469	-16.286813	5.997469	9375.5	-2.646794E-11	-3.778155E+10	0.958186	0.109572	0	0
0	0	0	-0.055235	5.997476	-16.287705	5.997476	9372	-2.539464E-11	-3.937839E+10	1.000894	0.109018	0	0
0	0	0	-0.055439	5.997403	-16.287765	5.997403	9371	-4.551521E-11	-2.197068E+10	0.964257	0.108609	0	0
0	0	0	-0.055357	5.997456	-16.287805	5.997456	9371	-2.887345E-11	-3.463389E+10	0.97869	0.108001	0	0
0	0	0	-0.054581	5.99741	-16.286704	5.99741	9375.5	-4.247678E-11	-2.354227E+10	0.91159	0.107658	0	0
0	0	0	-0.054786	5.997489	-16.287175	5.997489	9374	-2.351017E-11	-4.253478E+10	0.902081	0.107156	0	0
0	0	0	-0.05499	5.997601	-16.287736	5.997601	9373.5	-1.440109E-11	-6.943921E+10	0.907764	0.106734	0	0
0	0	0	-0.056215	5.997681	-16.289491	5.997681	9367	-1.130067E-11	-8.849033E+10	0.889105	0.106219	0	0
0	0	0	-0.058093	5.99776	-16.292069	5.99776	9357.5	-9.293474E-12	-1.076024E+11	0.858419	0.105744	0	0
0	0	0	-0.059074	5.997575	-16.292803	5.997575	9352.5	-1.581003E-11	-6.325099E+10	0.836122	0.105334	0	0
0	0	0	-0.05793	5.997601	-16.291435	5.997601	9358.5	-1.437804E-11	-6.955051E+10	0.86058	0.104872	0	0
0	0	0	-0.058053	5.997918	-16.292447	5.997918	9357.5	-6.865923E-12	-1.456468E+11	0.80169	0.104357	0	0
0	0	0	-0.058869	5.997813	-16.293189	5.997813	9353.5	-8.310113E-12	-1.203353E+11	0.837234	0.103988	0	0
0	0	0	-0.058788	5.997615	-16.29255	5.997615	9354	-1.374466E-11	-7.275552E+10	0.763016	0.103565	0	0
0	0	0	-0.061279	5.997634	-16.295738	5.997634	9341	-1.288316E-11	-7.762073E+10	0.783307	0.10305	0	0
0	0	0	-0.061646	5.997766	-16.296558	5.997766	9339.5	-9.140934E-12	-1.09398E+11	0.767718	0.102601	0	0
0	0	0	-0.06234	5.997621	-16.297038	5.997621	9336	-1.342559E-11	-7.448463E+10	0.758932	0.102179	0	0
0	0	0	-0.064464	5.997608	-16.299674	5.997608	9325.5	-1.40081E-11	-7.138725E+10	0	0	0	0
0	0	0	-0.064464	5.997582	-16.299603	5.997582	9325.5	-1.537876E-11	-6.502475E+10	0	0	0	0
0	0	0	-0.063606	5.997621	-16.298631	5.997621	9329.5	-1.341624E-11	-7.453653E+10	0	0	0	0
0	0	0	-0.063361	5.997615	-16.298305	5.997615	9331	-1.371087E-11	-7.293486E+10	0	0	0	0
0	0	0	-0.063076	5.9977	-16.298177	5.9977	9332.5	-1.068539E-11	-9.358575E+10	0	0	0	0
0	0	0	-0.06573	5.99772	-16.301571	5.99772	9319	-1.015264E-11	-9.849652E+10	0	0	0	0
0	0	0	-0.066465	5.997634	-16.302264	5.997634	9315	-1.28473E-11	-7.783739E+10	0	0	0	0
0	0	0	-0.065852	5.997648	-16.301528	5.997648	9318.5	-1.234693E-11	-8.099179E+10	0	0	0	0
0	0	0	-0.065444	5.997839	-16.301533	5.997839	9320.5	-7.866132E-12	-1.271273E+11	0	0	0	0
0	0	0	-0.065771	5.997634	-16.30139	5.997634	9318.5	-1.285212E-11	-7.780815E+10	0	0	0	0
0	0	0	-0.064831	5.997714	-16.300423	5.997714	9323.5	-1.032439E-11	-9.685802E+10	0	0	0	0
0	0	0	-0.065689	5.997621	-16.301252	5.997621	9319	-1.340114E-11	-7.462051E+10	0	0	0	0
0	0	0	-0.065158	5.997852	-16.301209	5.997852	9322	-7.675229E-12	-1.302893E+11	0	0	0	0
0	0	0	-0.064137	5.997641	-16.299353	5.997641	9327	-1.260595E-11	-7.932761E+10	0	0	0	0
0	0	0	-0.063076	5.997529	-16.297713	5.997529	9332.5	-1.91349E-11	-5.226052E+10	0	0	0	0
0	0	0	-0.062504	5.997766	-16.297637	5.997766	9335	-9.13653E-12	-1.094507E+11	0	0	0	0
0	0	0	-0.062708	5.997648	-16.297572	5.997648	9334	-1.236747E-11	-8.08573E+10	0	0	0	0
0	0	0	-0.060421	5.997687	-16.294802	5.997687	9345.5	-1.107651E-11	-9.028112E+10	0	0	0	0
0	0	0	-0.059604	5.99772	-16.293863	5.99772	9350	-1.018642E-11	-9.816996E+10	0	0	0	0
0	0	0	-0.058706	5.99776	-16.29284	5.99776	9354.5	-9.290495E-12	-1.076369E+11	0	0	0	0
0	0	0	-0.05989	5.997443	-16.293473	5.997443	9348.5	-3.170193E-11	-3.154383E+10	0	0	0	0
0	0	0	-0.058338	0	-0.058338	0	9356	0	0	0	0	0	0
0	0	0	-0.058869	0	-0.058869	0	9353.5	0	0	0	0	0	0
