Vload_(V)	ILoad_(A)	RsLoad (ohm)	SunsVoc_Voltage_(V)	SunsVoc_Current_(A)	Model_Voltage_(V)	Model_Current_(A)	Carrier_Density_(cm-3)	Lifetime_(s)	Inverse_Lifetime_(s-1)	Efficiency_(%)	Intensity_(suns)	Dark_IV_Voltage_(V)	Dark_IV_Current_(A)
2.912504	6.384493	0	64.981908	-0.863869	65.230817	-0.863869	3.807921E+15	0.000221	4510.404838	19.496456	1.113867	0	0
2.9182	6.385039	-0.482371	65.068237	-0.862877	65.312958	-0.862877	3.886614E+15	0.000225	4416.980534	19.668332	1.112441	0	0
7.049641	6.361284	6.552537	64.906524	-0.368617	65.014189	-0.368617	3.740353E+15	0.000233	4277.744628	19.479024	1.113431	0	0
12.175518	6.352695	5.963632	64.732519	0.08625	64.706541	0.08625	3.588394E+15	0.000239	4159.761625	19.62071	1.110935	0	0
16.860379	6.344132	5.366058	64.550755	0.524691	64.387727	0.524691	3.435456E+15	0.000246	4043.658491	19.517133	1.111886	0	0
21.631746	6.346596	4.577785	64.371033	0.926317	64.074496	0.926317	3.289861E+15	0.000253	3934.290097	19.512835	1.109787	0	0
26.884638	6.25665	4.398296	64.194824	1.292137	63.769254	1.292137	3.152351E+15	0.00026	3831.717864	19.588912	1.109074	0	0
31.73757	6.256763	3.622174	64.020329	1.630122	63.468545	1.630122	3.02112E+15	0.000267	3733.716104	19.430853	1.108559	0	0
36.61273	6.251558	2.863934	63.845548	1.942158	63.170365	1.942158	2.894436E+15	0.000274	3642.229706	19.605176	1.106301	0	0
41.171989	6.319907	1.778446	63.672279	2.231274	62.876338	2.231274	2.773394E+15	0.00028	3554.603512	19.428922	1.106816	0	0
45.957052	6.292262	1.194354	63.506482	2.496983	62.594076	2.496983	2.66167E+15	0.000287	3467.543081	19.534818	1.104558	0	0
47.39721	6.273774	1.052124	63.336847	2.746417	62.308898	2.746417	2.551375E+15	0.000294	3386.014513	19.503462	1.104875	0	0
48.793551	6.242854	0.944902	63.16811	2.976776	62.027634	2.976776	2.445562E+15	0.000301	3309.473246	19.439592	1.104162	0	0
50.215446	6.202741	0.833342	63.00362	3.191244	61.753485	3.191244	2.346036E+15	0.000308	3233.312474	19.576382	1.103212	0	0
51.652067	6.130446	0.758754	62.835496	3.393202	61.476369	3.393202	2.24789E+15	0.000315	3161.606909	19.401369	1.103885	0	0
53.084148	6.021057	0.695958	62.672068	3.580752	61.207171	3.580752	2.155845E+15	0.000323	3090.385441	19.587808	1.102023	0	0
54.458802	5.865436	0.643135	62.506721	3.756589	60.937358	3.756589	2.065982E+15	0.00033	3023.020694	19.462776	1.102816	0	0
55.851331	5.639219	0.591598	62.343456	3.921038	60.671865	3.921038	1.980374E+15	0.000337	2956.767217	19.527694	1.101192	0	0
57.231296	5.307525	0.550495	62.180069	4.071448	60.409518	4.071448	1.897711E+15	0.000344	2897.569662	19.539107	1.101627	0	0
58.547458	4.858885	0.519163	62.019173	4.210679	60.152593	4.210679	1.81916E+15	0.000351	2841.106724	19.445648	1.100835	0	0
59.858484	4.252134	0.489118	61.86236	4.338176	59.903634	4.338176	1.745245E+15	0.000358	2788.076192	19.608343	1.099488	0	0
61.10858	3.487337	0.465525	61.703873	4.456701	59.65464	4.456701	1.673111E+15	0.000364	2740.151376	19.438121	1.099488	0	0
62.272272	2.592927	0.443184	61.548082	4.569106	59.409884	4.569106	1.604648E+15	0.000371	2690.760971	19.596245	1.096914	0	0
63.310376	1.626685	0.449016	61.389472	4.674859	59.162953	4.674859	1.537363E+15	0.000377	2645.196445	19.486604	1.09731	0	0
64.192079	0.69823	0.45193	61.237111	4.774121	58.925221	4.774121	1.474959E+15	0.000384	2597.27429	19.495969	1.095171	0	0
53.313021	6.001152	0.684215	61.077971	4.865661	58.6812	4.865661	1.412042E+15	0.00039	2559.032696	19.558908	1.09426	0	0
64.796711	0	0	60.924548	4.950955	58.44598	4.950955	1.353513E+15	0.000396	2519.984433	19.418381	1.092993	0	0
0	0	0	60.771166	5.032291	58.211455	5.032291	1.297027E+15	0.000403	2480.727118	19.591269	1.090299	0	0
0	0	0	60.622398	5.107601	57.984586	5.107601	1.244122E+15	0.000409	2442.357397	19.420831	1.09022	0	0
0	0	0	60.464034	5.179004	57.746392	5.179004	1.189784E+15	0.000414	2411.277119	19.553163	1.086932	0	0
0	0	0	60.314286	5.245899	57.5204	5.245899	1.140225E+15	0.00042	2376.616264	19.487723	1.086893	0	0
0	0	0	60.16609	5.308381	57.297727	5.308381	1.092876E+15	0.000426	2343.657626	19.447142	1.084635	0	0
0	0	0	60.019527	5.367119	57.07823	5.367119	1.047663E+15	0.000432	2311.489351	19.549458	1.083209	0	0
0	0	0	59.872516	5.42199	56.859402	5.42199	1.003879E+15	0.000438	2282.323934	19.396675	1.082298	0	0
0	0	0	59.730404	5.47321	56.648091	5.47321	9.630076E+14	0.000444	2252.691908	19.572963	1.079803	0	0
0	0	0	59.585598	5.522488	56.433652	5.522488	9.227898E+14	0.000449	2223.85312	19.420138	1.079922	0	0
0	0	0	59.445569	5.5679	56.226871	5.5679	8.852344E+14	0.000455	2196.164274	19.51492	1.07707	0	0
0	0	0	59.299415	5.610841	56.012947	5.610841	8.473989E+14	0.00046	2173.673884	19.507966	1.076911	0	0
0	0	0	59.160979	5.651233	55.80988	5.651233	8.128108E+14	0.000465	2147.938826	19.417073	1.075683	0	0
0	0	0	59.016989	5.6892	55.600473	5.6892	7.7809E+14	0.00047	2127.68587	19.569154	1.073861	0	0
0	0	0	58.882228	5.724428	55.404156	5.724428	7.467232E+14	0.000475	2104.800632	19.395744	1.073584	0	0
0	0	0	58.7422	5.757681	55.201699	5.757681	7.152556E+14	0.000479	2086.769077	19.579275	1.070653	0	0
0	0	0	58.609236	5.788945	55.009199	5.788945	6.864094E+14	0.000484	2066.065285	19.454768	1.070732	0	0
0	0	0	58.470636	5.818796	54.809798	5.818796	6.573843E+14	0.000488	2049.213532	19.506346	1.067762	0	0
0	0	0	58.337509	5.846725	54.618336	5.846725	6.30482E+14	0.000492	2031.215329	19.543331	1.067049	0	0
0	0	0	58.202912	5.872904	54.425687	5.872904	6.042299E+14	0.000496	2016.336378	19.420058	1.065345	0	0
0	0	0	58.07052	5.897343	54.236686	5.897343	5.793126E+14	0.000499	2002.643874	19.593399	1.062612	0	0
0	0	0	57.941394	5.92122	54.051996	5.92122	5.55852E+14	0.000504	1984.905802	19.405161	1.062375	0	0
0	0	0	57.810513	5.942916	53.866128	5.942916	5.328983E+14	0.000507	1973.479489	19.553006	1.059048	0	0
0	0	0	57.681347	5.963883	53.682702	5.963883	5.110393E+14	0.00051	1960.215762	19.483026	1.058097	0	0
0	0	0	57.5492	5.983615	53.495914	5.983615	4.894702E+14	0.000513	1950.618262	19.474486	1.055483	0	0
0	0	0	57.424893	6.001923	53.320132	6.001923	4.698947E+14	0.000516	1939.111721	19.55483	1.0537	0	0
0	0	0	57.294012	6.019877	53.135708	6.019877	4.500118E+14	0.000518	1929.793431	19.393154	1.052631	0	0
0	0	0	57.167623	6.036476	52.957896	6.036476	4.315008E+14	0.00052	1920.983964	19.575435	1.049502	0	0
0	0	0	57.039763	6.052703	52.77819	6.052703	4.134452E+14	0.000523	1911.416188	19.403142	1.049185	0	0
0	0	0	56.91219	6.067682	52.599531	6.067682	3.960836E+14	0.000525	1905.14793	19.527442	1.045977	0	0
0	0	0	56.786413	6.081878	52.423602	6.081878	3.795882E+14	0.000527	1898.883107	19.484354	1.045343	0	0
0	0	0	56.65594	6.095948	52.241381	6.095948	3.631105E+14	0.000528	1892.776386	19.439476	1.043125	0	0
0	0	0	56.534492	6.108838	52.071743	6.108838	3.483362E+14	0.00053	1884.927229	19.555327	1.041501	0	0
0	0	0	56.408185	6.121325	51.895821	6.121325	3.335308E+14	0.000532	1879.441849	19.386547	1.040788	0	0
0	0	0	56.283061	6.13295	51.72194	6.13295	3.19411E+14	0.000533	1875.84615	19.56974	1.037698	0	0
0	0	0	56.159408	6.144115	51.550194	6.144115	3.059764E+14	0.000534	1871.309061	19.435717	1.037342	0	0
0	0	0	56.037388	6.154852	51.380788	6.154852	2.932106E+14	0.000536	1865.565625	19.523426	1.034292	0	0
0	0	0	55.914144	6.165003	51.21007	6.165003	2.807974E+14	0.000537	1861.936612	19.534746	1.033302	0	0
0	0	0	55.78804	6.17457	51.035888	6.17457	2.685814E+14	0.000537	1861.786696	19.447533	1.03144	0	0
0	0	0	55.670676	6.183372	50.873743	6.183372	2.576398E+14	0.000538	1859.485644	19.58875	1.029301	0	0
0	0	0	55.548452	6.192289	50.704964	6.192289	2.466702E+14	0.000539	1856.07541	19.408678	1.02843	0	0
0	0	0	55.426555	6.200667	50.536929	6.200667	2.361487E+14	0.000539	1854.269408	19.574121	1.024865	0	0
0	0	0	55.306413	6.208359	50.371659	6.208359	2.261755E+14	0.000539	1855.03306	19.454089	1.024311	0	0
0	0	0	55.182964	6.216044	50.201913	6.216044	2.163249E+14	0.000539	1854.882835	19.499177	1.020983	0	0
0	0	0	55.065559	6.223229	50.040486	6.223229	2.073185E+14	0.00054	1852.923715	19.548039	1.019557	0	0
0	0	0	54.94403	6.229913	49.873907	6.229913	1.983553E+14	0.000539	1856.387127	19.41851	1.017696	0	0
0	0	0	54.822337	6.236413	49.707178	6.236413	1.897348E+14	0.000538	1859.131754	19.583579	1.014765	0	0
0	0	0	54.705176	6.242695	49.54656	6.242695	1.8176E+14	0.000538	1858.376534	19.410155	1.013854	0	0
0	0	0	54.584749	6.248518	49.381912	6.248518	1.738836E+14	0.000537	1862.781917	19.559689	1.010131	0	0
0	0	0	54.465302	6.254136	49.218663	6.254136	1.663821E+14	0.000536	1866.341917	19.479995	1.009378	0	0
0	0	0	54.346223	6.259506	49.056042	6.259506	1.592012E+14	0.000535	1870.178454	19.475433	1.006724	0	0
0	0	0	54.227225	6.264771	48.893551	6.264771	1.52312E+14	0.000534	1872.42252	19.567066	1.004783	0	0
0	0	0	54.109085	6.269749	48.73238	6.269749	1.457464E+14	0.000533	1875.41023	19.407854	1.003476	0	0
0	0	0	53.990373	6.2743	48.570758	6.2743	1.394144E+14	0.000531	1882.836456	19.586747	1.000347	0	0
0	0	0	53.872232	6.27882	48.409864	6.27882	1.333678E+14	0.00053	1887.465842	19.417229	0.999991	0	0
0	0	0	53.753765	6.283221	48.248586	6.283221	1.275509E+14	0.000529	1891.35738	19.539442	0.996663	0	0
0	0	0	53.634441	6.287317	48.086381	6.287317	1.219323E+14	0.000527	1898.477874	19.494886	0.99599	0	0
0	0	0	53.515443	6.29098	47.924945	6.29098	1.165608E+14	0.000523	1911.120124	19.449902	0.993534	0	0
0	0	0	53.398651	6.294937	47.766132	6.294937	1.115057E+14	0.000523	1913.2234	19.572277	0.991792	0	0
0	0	0	53.281572	6.298339	47.60739	6.298339	1.06646E+14	0.00052	1924.409153	19.40951	0.990762	0	0
0	0	0	53.162778	6.301587	47.446465	6.301587	1.019198E+14	0.000516	1937.736435	19.589861	0.987514	0	0
0	0	0	53.044148	6.305079	47.285495	6.305079	9.739833E+13	0.000515	1942.284155	19.449547	0.986999	0	0
0	0	0	52.923884	6.308512	47.122362	6.308512	9.300907E+13	0.000514	1946.023823	19.532876	0.983949	0	0
0	0	0	52.802355	6.311025	46.958353	6.311025	8.876487E+13	0.000507	1971.64509	19.534931	0.982563	0	0
0	0	0	52.683847	6.31421	46.797707	6.31421	8.480416E+13	0.000507	1974.260662	19.44686	0.980701	0	0
0	0	0	52.559908	6.316804	46.630348	6.316804	8.084248E+13	0.000501	1994.569734	19.591895	0.978126	0	0
0	0	0	52.4414	6.319389	46.470192	6.319389	7.722023E+13	0.000498	2008.376072	19.400761	0.977532	0	0
0	0	0	52.313337	6.322114	46.297152	6.322114	7.348069E+13	0.000494	2022.249282	19.576431	0.974047	0	0
0	0	0	52.188581	6.324538	46.128767	6.324538	7.000512E+13	0.00049	2040.169426	19.45269	0.973651	0	0
0	0	0	52.063253	6.326993	45.95956	6.326993	6.667293E+13	0.000487	2054.434236	19.506821	0.97064	0	0
0	0	0	51.93666	6.329096	45.788975	6.329096	6.346228E+13	0.000481	2079.412369	19.538768	0.969175	0	0
0	0	0	51.810434	6.331334	45.618722	6.331334	6.04096E+13	0.000477	2096.250598	19.42402	0.967511	0	0
0	0	0	51.673958	6.333528	45.434831	6.333528	5.726862E+13	0.000472	2119.948409	19.596794	0.964937	0	0
0	0	0	51.536053	6.335529	45.249197	6.335529	5.425541E+13	0.000465	2149.817961	19.421909	0.964343	0	0
0	0	0	51.403252	6.337483	45.07038	6.337483	5.149921E+13	0.00046	2174.481236	19.58071	0.960976	0	0
0	0	0	51.272575	6.339474	44.894328	6.339474	4.891991E+13	0.000456	2192.205139	19.482542	0.960897	0	0
0	0	0	51.133608	6.341323	44.707348	6.341323	4.631473E+13	0.00045	2220.41598	19.496776	0.958164	0	0
0	0	0	50.990844	6.343212	44.515242	6.343212	4.377904E+13	0.000445	2246.248817	19.574559	0.956619	0	0
0	0	0	50.855919	6.344759	44.333905	6.344759	4.150721E+13	0.000439	2280.402752	19.424885	0.955351	0	0
0	0	0	50.716748	6.346386	44.146805	6.346386	3.928445E+13	0.000433	2310.746321	19.602238	0.95246	0	0
0	0	0	50.577986	6.347861	43.960383	6.347861	3.71841E+13	0.000426	2346.758818	19.422182	0.952262	0	0
0	0	0	50.437998	6.349598	43.772034	6.349598	3.517659E+13	0.000423	2363.105703	19.564466	0.948776	0	0
0	0	0	50.298255	6.350847	43.584501	6.350847	3.327853E+13	0.000415	2408.484149	19.507659	0.948142	0	0
0	0	0	50.157287	6.35196	43.395461	6.35196	3.146563E+13	0.000406	2462.954945	19.474774	0.945845	0	0
0	0	0	50.015217	6.353146	43.204857	6.353146	2.973665E+13	0.000398	2511.115239	19.582109	0.944023	0	0
0	0	0	49.865591	6.354206	43.004303	6.354206	2.801661E+13	0.000388	2575.185904	19.413806	0.942874	0	0
0	0	0	49.719478	6.35556	42.808094	6.35556	2.643146E+13	0.000383	2607.63753	19.598525	0.939706	0	0
0	0	0	49.56973	6.35652	42.607451	6.35652	2.489849E+13	0.000374	2676.332574	19.4426	0.93923	0	0
0	0	0	49.418594	6.357323	42.405115	6.357323	2.344015E+13	0.000362	2761.247496	19.55687	0.935983	0	0
0	0	0	49.261251	6.358458	42.194122	6.358458	2.201136E+13	0.000355	2817.563136	19.533519	0.934992	0	0
0	0	0	49.102111	6.359576	41.980737	6.359576	2.065371E+13	0.000348	2873.907288	19.46929	0.932576	0	0
0	0	0	48.935906	6.360178	41.758495	6.360178	1.932404E+13	0.000334	2997.347693	19.589282	0.930754	0	0
0	0	0	48.760921	6.361398	41.523836	6.361398	1.801549E+13	0.000327	3053.753838	19.408278	0.929843	0	0
0	0	0	48.585324	6.361908	41.289152	6.361908	1.679051E+13	0.000312	3204.234479	19.59987	0.926278	0	0
0	0	0	48.398047	6.363025	41.038186	6.363025	1.557482E+13	0.000305	3283.456147	19.462341	0.925961	0	0
0	0	0	48.204767	6.36368	40.779733	6.36368	1.441156E+13	0.000291	3440.219327	19.542286	0.922951	0	0
0	0	0	48.005076	6.36434	40.512712	6.36434	1.330013E+13	0.000277	3609.473499	19.545595	0.921882	0	0
0	0	0	47.792277	6.365351	40.227783	6.365351	1.22092E+13	0.000268	3734.816968	19.448328	0.920139	0	0
0	0	0	47.567472	6.366062	39.927182	6.366062	1.115309E+13	0.000254	3936.675757	19.596687	0.91796	0	0
0	0	0	47.33115	6.366962	39.610979	6.366962	1.01406E+13	0.000243	4118.210556	19.410257	0.917327	0	0
0	0	0	47.086376	6.367349	39.28411	6.367349	9.188135E+12	0.000225	4444.867546	19.589713	0.91392	0	0
0	0	0	46.823796	6.368011	38.933148	6.368011	8.265098E+12	0.000211	4750.399167	19.467256	0.913603	0	0
0	0	0	46.546638	6.36873	38.562656	6.36873	7.390748E+12	0.000197	5080.713011	19.520686	0.910989	0	0
0	0	0	46.253105	6.36961	38.170099	6.36961	6.56496E+12	0.000185	5400.218319	19.562495	0.90992	0	0
0	0	0	45.942257	6.370218	37.754775	6.370218	5.790458E+12	0.00017	5872.700483	19.438542	0.908494	0	0
0	0	0	45.603517	6.370705	37.30239	6.370705	5.049792E+12	0.000154	6503.996223	19.604352	0.906117	0	0
0	0	0	45.243747	6.371178	36.821958	6.371178	4.366316E+12	0.000138	7264.029547	19.409533	0.9058	0	0
0	0	0	44.854738	6.371771	36.302352	6.371771	3.730743E+12	0.000123	8123.076057	19.574518	0.90279	0	0
0	0	0	44.445024	6.37251	35.754909	6.37251	3.160908E+12	0.000111	9030.809888	19.481962	0.90279	0	0
0	0	0	44.011666	6.373076	35.176138	6.373076	2.652456E+12	9.75256E-5	10253.718167	19.510372	0.900057	0	0
0	0	0	43.556788	6.373344	34.569056	6.373344	2.206367E+12	8.307786E-5	12036.900737	19.581579	0.898908	0	0
0	0	0	43.079204	6.374221	33.930803	6.374221	1.818417E+12	7.431625E-5	13456.007143	19.440128	0.89772	0	0
0	0	0	42.578547	6.374719	33.262284	6.374719	1.484676E+12	6.377028E-5	15681.285205	19.61564	0.895106	0	0
0	0	0	42.046079	6.375311	32.551167	6.375311	1.196618E+12	5.470986E-5	18278.2421	19.43351	0.895066	0	0
0	0	0	41.501809	6.375591	31.824747	6.375591	9.598148E+11	4.526285E-5	22093.17196	19.572414	0.892254	0	0
0	0	0	40.941939	6.376088	31.077167	6.376088	7.64999E+11	3.820951E-5	26171.497947	19.514394	0.891581	0	0
0	0	0	40.351851	6.376509	30.289367	6.376509	6.022883E+11	3.166945E-5	31576.168596	19.500509	0.889363	0	0
0	0	0	39.747714	6.377127	29.482485	6.377127	4.714826E+11	2.687027E-5	37215.851535	19.600444	0.887897	0	0
0	0	0	39.12467	6.377416	28.650881	6.377416	3.66261E+11	2.172549E-5	46028.879809	19.430831	0.887026	0	0
0	0	0	38.481739	6.377714	27.792713	6.377714	2.822331E+11	1.747696E-5	57218.204959	19.613033	0.884412	0	0
0	0	0	37.815449	6.378169	26.903094	6.378169	2.154307E+11	1.430128E-5	69923.83308	19.434753	0.884253	0	0
0	0	0	37.130415	6.378375	25.988874	6.378375	1.631935E+11	1.119868E-5	89296.214836	19.55955	0.881322	0	0
0	0	0	36.424065	6.378487	25.046369	6.378487	1.225579E+11	8.566951E-6	116727.637151	19.515098	0.880886	0	0
0	0	0	35.694478	6.379285	24.071608	6.379285	9.117716E+10	7.349718E-6	136059.650968	19.478092	0.878668	0	0
0	0	0	34.952559	6.379167	23.082037	6.379167	6.749274E+10	5.320025E-6	187969.057215	19.595115	0.877124	0	0
0	0	0	34.210436	6.379363	22.091606	6.379363	4.995632E+10	4.088188E-6	244607.129881	19.425898	0.876252	0	0
0	0	0	33.471865	6.37988	21.105277	6.37988	3.702952E+10	3.370233E-6	296715.40529	19.611617	0.87344	0	0
0	0	0	32.744443	6.379954	20.134659	6.379954	2.757196E+10	2.550088E-6	392143.367825	19.45996	0.873163	0	0
0	0	0	32.028578	6.380209	19.179087	6.380209	2.062631E+10	2.021346E-6	494719.737603	19.550701	0.870271	0	0
0	0	0	31.330313	6.380555	18.246792	6.380555	1.554082E+10	1.656742E-6	603594.442795	19.544534	0.86936	0	0
0	0	0	30.624453	6.380732	17.304691	6.380732	1.167316E+10	1.302957E-6	767484.970539	19.478546	0.867578	0	0
0	0	0	29.917245	6.380705	16.361212	6.380705	8.763259E+9	9.711475E-7	1029709.667952	19.612199	0.865637	0	0
0	0	0	29.202523	6.381043	15.406921	6.381043	6.558726E+9	7.980311E-7	1253084.046444	19.420341	0.864964	0	0
0	0	0	28.477469	6.381352	14.438883	6.381352	4.888257E+9	6.53423E-7	1530402.174408	19.611182	0.861636	0	0
0	0	0	27.752824	6.381367	13.472026	6.381367	3.643849E+9	4.89337E-7	2043581.514265	19.449504	0.861716	0	0
0	0	0	27.023115	6.381613	12.497885	6.381613	2.710659E+9	3.951379E-7	2530761.777541	19.528351	0.858785	0	0
0	0	0	26.284462	6.381992	11.511484	6.381992	2.009161E+9	3.373443E-7	2964330.488763	19.548325	0.857557	0	0
0	0	0	25.548506	6.381901	10.529757	6.381901	1.490834E+9	2.415117E-7	4140586.379379	19.458501	0.855854	0	0
0	0	0	24.830517	6.381965	9.571642	6.381965	1.114313E+9	1.8504E-7	5404235.485002	19.606576	0.853992	0	0
0	0	0	24.121267	6.382126	8.624943	6.382126	8.358419E+8	1.482802E-7	6743987.046248	19.418279	0.853437	0	0
0	0	0	23.4141	6.382035	7.681634	6.382035	6.274912E+8	1.071851E-7	9329653.016762	19.59387	0.850427	0	0
0	0	0	22.711098	6.382197	6.743257	6.382197	4.718724E+8	8.627696E-8	1.159058E+7	19.477651	0.849873	0	0
0	0	0	22.029576	6.382499	5.833171	6.382499	3.579511E+8	7.53639E-8	1.326895E+7	19.513128	0.847377	0	0
0	0	0	21.353281	6.382688	4.930328	6.382688	2.721091E+8	6.33142E-8	1.579425E+7	19.563879	0.846189	0	0
0	0	0	20.686093	6.382752	4.039952	6.382752	2.076185E+8	5.006347E-8	1.997464E+7	19.433531	0.844842	0	0
0	0	0	20.0265	6.382906	3.159464	6.382906	1.589009E+8	4.204923E-8	2.378165E+7	19.603934	0.842505	0	0
0	0	0	19.368174	6.382759	2.281464	6.382759	1.216773E+8	2.945965E-8	3.394474E+7	19.412038	0.842109	0	0
0	0	0	18.718586	6.382745	1.414772	6.382745	9.35043E+7	2.245675E-8	4.453004E+7	19.573779	0.839218	0	0
0	0	0	18.090969	6.383208	0.576084	6.383208	7.249733E+7	2.36973E-8	4.219891E+7	19.47513	0.838584	0	0
0	0	0	17.483238	6.383054	-0.234381	6.383054	5.66649E+7	1.653273E-8	6.048609E+7	19.494691	0.836168	0	0
0	0	0	16.893231	6.383222	-1.022097	6.383222	4.460946E+7	1.474293E-8	6.782913E+7	19.561194	0.83494	0	0
0	0	0	16.322499	6.383124	-1.783346	6.383124	3.539432E+7	1.085687E-8	9.210761E+7	19.430878	0.833712	0	0
0	0	0	15.774391	6.38337	-2.51539	6.38337	2.834156E+7	1.059735E-8	9.436323E+7	19.616967	0.831138	0	0
0	0	0	15.247313	6.3833	-3.218472	6.3833	2.288848E+7	8.054404E-9	1.241557E+8	19.42744	0.830979	0	0
0	0	0	14.732772	6.383236	-3.904842	6.383236	1.85788E+7	6.208795E-9	1.610618E+8	19.576496	0.827731	0	0
0	0	0	14.234239	6.383391	-4.570491	6.383391	1.517879E+7	5.784176E-9	1.728855E+8	19.486087	0.827375	0	0
0	0	0	13.743955	6.383475	-5.224933	6.383475	1.244253E+7	5.13436E-9	1.947662E+8	19.494924	0.824879	0	0
0	0	0	13.269433	6.38351	-5.858199	6.38351	1.026493E+7	4.387257E-9	2.279328E+8	19.572142	0.823572	0	0
0	0	0	12.815412	6.383384	-6.463625	6.383384	8539118.125	3.233386E-9	3.092733E+8	19.417231	0.822424	0	0
0	0	0	12.372499	6.383531	-7.055058	6.383531	7135521.375	3.116612E-9	3.208613E+8	19.602242	0.819889	0	0
0	0	0	11.942244	6.383665	-7.629563	6.383665	5993319.5	3.03987E-9	3.289614E+8	19.417766	0.819572	0	0
0	0	0	11.527181	6.38356	-8.183066	6.38356	5065052.875	2.278911E-9	4.388062E+8	19.567143	0.816363	0	0
0	0	0	11.124042	6.383623	-8.721179	6.383623	4301304.125	2.075947E-9	4.81708E+8	19.494244	0.816165	0	0
0	0	0	10.732338	6.383904	-9.244718	6.383904	3669692.125	2.616307E-9	3.822181E+8	19.475012	0.813868	0	0
0	0	0	10.351986	6.383602	-9.751285	6.383602	3145270.75	1.482099E-9	6.747187E+8	19.569634	0.812363	0	0
0	0	0	9.98119	6.383974	-10.247226	6.383974	2706256.875	2.190795E-9	4.564552E+8	19.395637	0.811412	0	0
0	0	0	9.619255	6.383679	-10.729229	6.383679	2336900.875	1.205768E-9	8.29347E+8	19.602917	0.808679	0	0
0	0	0	9.268469	6.384058	-11.198509	6.384058	2027097.25	1.959533E-9	5.103258E+8	19.426005	0.80864	0	0
0	0	0	8.92634	6.383876	-11.654438	6.383876	1764547	1.200734E-9	8.328239E+8	19.56752	0.805471	0	0
0	0	0	8.594828	6.383904	-12.096877	6.383904	1542628.625	1.099818E-9	9.092415E+8	19.520787	0.804837	0	0
0	0	0	8.272668	6.384044	-12.527204	6.384044	1353742.75	1.267612E-9	7.888849E+8	19.476324	0.802936	0	0
0	0	0	7.955736	6.384016	-12.95001	6.384016	1190505.25	1.049012E-9	9.532777E+8	19.572674	0.801589	0	0
0	0	0	7.645704	6.38422	-13.364368	6.38422	1049884.625	1.616192E-9	6.187383E+8	19.403604	0.800639	0	0
0	0	0	7.337143	6.384093	-13.77568	6.384093	926426.125	9.743537E-10	1.026321E+9	19.594751	0.797747	0	0
0	0	0	7.037892	6.384002	-14.174681	6.384002	820577.125	7.023388E-10	1.423814E+9	19.413516	0.797866	0	0
0	0	0	6.740725	6.384311	-14.572236	6.384311	727435.75	1.683625E-9	5.939565E+8	19.547308	0.794618	0	0
0	0	0	6.445639	6.384213	-14.965656	6.384213	645411.5	9.685956E-10	1.032423E+9	19.508659	0.794222	0	0
0	0	0	6.155332	6.383981	-15.352247	6.383981	573746.375	4.708433E-10	2.123849E+9	19.459083	0.792083	0	0
0	0	0	5.862452	6.384178	-15.743715	6.384178	509507.125	6.793374E-10	1.472023E+9	19.571236	0.790657	0	0
0	0	0	5.568143	6.384185	-16.136451	6.384185	452198.25	6.166853E-10	1.621573E+9	19.388166	0.790063	0	0
0	0	0	5.268035	6.384297	-16.537284	6.384297	400393	8.600752E-10	1.162689E+9	19.579033	0.78729	0	0
0	0	0	4.954246	6.384374	-16.956255	6.384374	352561.875	1.252611E-9	7.983322E+8	19.42815	0.786934	0	0
0	0	0	4.620162	6.384136	-17.401221	6.384136	307900.625	3.620621E-10	2.761957E+9	19.531502	0.784201	0	0
0	0	0	4.281464	6.384367	-17.853967	6.384367	268394.125	9.000618E-10	1.111035E+9	19.512675	0.783646	0	0
0	0	0	3.902541	6.384178	-18.358925	6.384178	230172.375	3.068941E-10	3.258453E+9	19.442545	0.781983	0	0
0	0	0	3.482577	6.38448	-18.920364	6.38448	194136.375	6.37443E-9	1.568768E+8	19.581105	0.780002	0	0
0	0	0	2.99556	6.384529	-19.570397	6.384529	159350.625	-1.838364E-9	-5.439619E+8	19.39169	0.779329	0	0
0	0	0	2.47665	6.384297	-20.26199	6.384297	129117.5	2.773545E-10	3.605495E+9	19.591336	0.776477	0	0
0	0	0	2.061546	6.38441	-20.81629	6.38441	109117.5	5.51676E-10	1.812658E+9	19.425511	0.776596	0	0
0	0	0	1.771034	6.384178	-21.203104	6.384178	96993.375	1.293235E-10	7.732547E+9	19.519475	0.773704	0	0
0	0	0	1.612302	6.384403	-21.415719	6.384403	90947.875	4.239471E-10	2.358785E+9	19.508804	0.773269	0	0
0	0	0	1.509843	6.384388	-21.552386	6.384388	87247.25	3.518121E-10	2.842427E+9	19.421029	0.771684	0	0
0	0	0	1.401341	6.384543	-21.697727	6.384543	83492.375	-6.949117E-10	-1.439032E+9	19.567159	0.769823	0	0
0	0	0	1.289571	6.384381	-21.846284	6.384381	79793.375	3.014169E-10	3.317664E+9	19.380933	0.769347	0	0
0	0	0	1.164366	6.38441	-22.013454	6.38441	75844	3.834519E-10	2.607889E+9	19.56729	0.766535	0	0
0	0	0	1.039651	6.384395	-22.179818	6.384395	72104.375	3.11789E-10	3.207297E+9	19.436133	0.766139	0	0
0	0	0	0.910975	6.384339	-22.351314	6.384339	68439.125	1.874377E-10	5.335107E+9	19.517914	0.763565	0	0
0	0	0	0.775642	6.384374	-22.532025	6.384374	64785.125	2.301741E-10	4.344537E+9	19.524249	0.763089	0	0
0	0	0	0.637737	6.384241	-22.715552	6.384241	61262.25	1.022056E-10	9.784203E+9	19.42478	0.761346	0	0
0	0	0	0.485621	6.384719	-22.92028	6.384719	57598.25	-1.069622E-10	-9.349094E+9	19.575757	0.759366	0	0
0	0	0	0.339916	6.384557	-23.114112	6.384557	54294.25	-3.534422E-10	-2.829317E+9	19.372905	0.759049	0	0
0	0	0	0.216018	6.384325	-23.278585	6.384325	51634.25	1.295398E-10	7.719633E+9	19.564476	0.75596	0	0
0	0	0	0.130179	6.384424	-23.393487	6.384424	49868.25	3.034728E-10	3.295188E+9	19.423441	0.75592	0	0
0	0	0	0.072314	6.384473	-23.470882	6.384473	48711.875	1.032269E-9	9.687396E+8	19.493079	0.753425	0	0
0	0	0	0.022493	6.384403	-23.537102	6.384403	47737.75	2.225262E-10	4.493853E+9	19.510429	0.752553	0	0
0	0	0	-0.00156	6.384388	-23.569145	6.384388	47274.5	1.906277E-10	5.245828E+9	19.403385	0.751127	0	0
0	0	0	-0.036475	6.384501	-23.61615	6.384501	46610	-2.360502E-9	-4.236388E+8	19.57166	0.748949	0	0
0	0	0	-0.057751	6.384522	-23.644618	6.384522	46209.75	-6.606395E-10	-1.513685E+9	19.374636	0.748672	0	0
0	0	0	-0.06555	6.384543	-23.655103	6.384543	46063.75	-3.833911E-10	-2.608302E+9	19.559624	0.745701	0	0
0	0	0	-0.073799	6.38455	-23.666136	6.38455	45910	-3.353986E-10	-2.981527E+9	19.427382	0.745701	0	0
0	0	0	-0.083069	6.384761	-23.679285	6.384761	45737.75	-7.158896E-11	-1.396863E+10	19.488867	0.743126	0	0
0	0	0	-0.096096	6.384691	-23.696408	6.384691	45496.875	-9.648233E-11	-1.036459E+10	19.517934	0.742295	0	0
0	0	0	-0.10749	6.384606	-23.711299	6.384606	45287.25	-1.672648E-10	-5.978543E+9	19.397401	0.741027	0	0
0	0	0	-0.118924	6.384543	-23.726323	6.384543	45077.75	-3.751846E-10	-2.665355E+9	19.561632	0.738888	0	0
0	0	0	-0.124927	6.384613	-23.734593	6.384613	44968.125	-1.564188E-10	-6.393095E+9	19.362867	0.738571	0	0
0	0	0	-0.128847	6.38448	-23.739331	6.38448	44896.75	1.474181E-9	6.783429E+8	19.53865	0.735561	0	0
0	0	0	-0.131542	6.384473	-23.742901	6.384473	44847.75	9.503832E-10	1.052207E+9	19.404218	0.735521	0	0
0	0	0	-0.134074	6.384641	-23.746903	6.384641	44801.625	-1.264081E-10	-7.910883E+9	19.45817	0.733105	0	0
0	0	0	-0.135871	6.384522	-23.748859	6.384522	44769	-6.400418E-10	-1.562398E+9	19.491875	0.732353	0	0
0	0	0	-0.137464	6.384613	-23.751322	6.384613	44740.125	-1.556257E-10	-6.425675E+9	19.383106	0.730729	0	0
0	0	0	-0.137831	6.384733	-23.752254	6.384733	44733.5	-7.821103E-11	-1.278592E+10	19.55089	0.728709	0	0
0	0	0	-0.139015	6.384754	-23.753912	6.384754	44712	-7.186574E-11	-1.391484E+10	19.347375	0.728511	0	0
0	0	0	-0.141098	6.384564	-23.75599	6.384564	44674.25	-2.622507E-10	-3.813145E+9	19.544266	0.725421	0	0
0	0	0	-0.141547	6.384662	-23.756953	6.384662	44666.125	-1.103899E-10	-9.058803E+9	19.411852	0.7255	0	0
0	0	0	-0.143385	6.38481	-23.759951	6.38481	44632.875	-5.903585E-11	-1.693886E+10	19.45838	0.723084	0	0
0	0	0	-0.143222	6.384613	-23.759005	6.384613	44635.875	-1.55263E-10	-6.440683E+9	19.506395	0.722134	0	0
0	0	0	-0.143916	6.384494	-23.75949	6.384494	44623.25	-1.48148E-8	-6.750005E+7	19.367236	0.720985	0	0
0	0	0	-0.146448	6.384557	-23.763102	6.384557	44577.5	-2.901885E-10	-3.446036E+9	19.557603	0.718648	0	0
0	0	0	-0.145713	6.384613	-23.762329	6.384613	44590.75	-1.551061E-10	-6.4472E+9	19.352062	0.718529	0	0
0	0	0	-0.146774	6.384494	-23.763304	6.384494	44571.625	-1.479766E-8	-6.757823E+7	19.527098	0.715638	0	0
0	0	0	-0.146897	6.384543	-23.76365	6.384543	44569.375	-3.709534E-10	-2.695757E+9	19.410782	0.715638	0	0
0	0	0	-0.148122	6.384684	-23.765804	6.384684	44547.25	-9.794418E-11	-1.02099E+10	19.44281	0.713261	0	0
0	0	0	-0.147224	6.384592	-23.764267	6.384592	44563.5	-1.878063E-10	-5.324634E+9	19.487938	0.712429	0	0
0	0	0	-0.147918	6.384676	-23.765506	6.384676	44550.875	-1.016936E-10	-9.833456E+9	19.357931	0.711201	0	0
0	0	0	-0.147836	6.384613	-23.765163	6.384613	44552.375	-1.549726E-10	-6.452754E+9	19.541794	0.708865	0	0
0	0	0	-0.148816	6.384655	-23.766626	6.384655	44534.75	-1.148135E-10	-8.70978E+9	19.340523	0.708865	0	0
0	0	0	-0.14902	6.38462	-23.766769	6.38462	44531	-1.46378E-10	-6.831628E+9	19.521476	0.705894	0	0
0	0	0	-0.151307	6.384592	-23.769717	6.384592	44489.75	-1.874955E-10	-5.33346E+9	19.401819	0.705815	0	0
0	0	0	-0.150246	6.384501	-23.767962	6.384501	44508.875	-2.254093E-9	-4.436374E+8	19.422644	0.703834	0	0
0	0	0	-0.149347	6.384452	-23.766581	6.384452	44525.125	4.571823E-10	2.187311E+9	19.487469	0.702567	0	0
0	0	0	-0.149265	6.384684	-23.76733	6.384684	44526.625	-9.789884E-11	-1.021463E+10	19.349728	0.701576	0	0
0	0	0	-0.149837	6.384424	-23.767131	6.384424	44516.25	2.709033E-10	3.691354E+9	19.533869	0.6992	0	0
0	0	0	-0.149061	6.384599	-23.766745	6.384599	44530.25	-1.753035E-10	-5.704393E+9	19.338044	0.69924	0	0
0	0	0	-0.149429	6.384578	-23.767158	6.384578	44523.625	-2.184492E-10	-4.577724E+9	19.51147	0.696308	0	0
0	0	0	-0.151103	6.384297	-23.768353	6.384297	44493.375	9.557525E-11	1.046296E+10	19.382166	0.696427	0	0
0	0	0	-0.150776	6.384487	-23.768618	6.384487	44499.25	3.242993E-9	3.083571E+8	19.406045	0.69409	0	0
0	0	0	-0.151021	6.38436	-23.768478	6.38436	44494.875	1.412855E-10	7.077867E+9	19.464927	0.6931	0	0
0	0	0	-0.149755	6.384473	-23.767204	6.384473	44517.75	9.433901E-10	1.060007E+9	19.34292	0.691793	0	0
0	0	0	-0.150981	6.384599	-23.769307	6.384599	44495.625	-1.751672E-10	-5.708832E+9	19.519524	0.689733	0	0
0	0	0	-0.152124	6.384585	-23.77078	6.384585	44475	-2.016544E-10	-4.958979E+9	19.328491	0.689496	0	0
0	0	0	-0.152859	6.384648	-23.771995	6.384648	44461.75	-1.197932E-10	-8.347718E+9	19.493466	0.686842	0	0
0	0	0	-0.153757	6.384578	-23.772934	6.384578	44445.5	-2.180659E-10	-4.58577E+9	19.370521	0.687	0	0
0	0	0	-0.154166	6.384698	-23.773921	6.384698	44438.25	-9.100785E-11	-1.098806E+10	19.402818	0.684584	0	0
0	0	0	-0.154738	6.384712	-23.774736	6.384712	44427.875	-8.515039E-11	-1.174393E+10	19.477075	0.683356	0	0
0	0	0	-0.154207	6.384592	-23.773585	6.384592	44437.5	-1.872753E-10	-5.339731E+9	19.336474	0.682485	0	0
0	0	0	-0.154819	6.38455	-23.774247	6.38455	44426.5	-3.245608E-10	-3.081087E+9	19.524859	0.680227	0	0
0	0	0	-0.154493	6.38436	-23.773109	6.38436	44432.375	1.41087E-10	7.087823E+9	19.325402	0.67995	0	0
0	0	0	-0.15682	6.384684	-23.777411	6.384684	44390.375	-9.759927E-11	-1.024598E+10	19.487144	0.677415	0	0
0	0	0	-0.158413	6.38448	-23.778782	6.38448	44361.75	1.456614E-9	6.865237E+8	19.358651	0.677494	0	0
0	0	0	-0.158495	6.38455	-23.779151	6.38455	44360.25	-3.240768E-10	-3.085689E+9	19.388501	0.675157	0	0
0	0	0	-0.158699	6.384684	-23.779917	6.384684	44356.625	-9.752507E-11	-1.025377E+10	19.456102	0.674088	0	0
0	0	0	-0.161435	6.384627	-23.78336	6.384627	44307.375	-1.380494E-10	-7.243782E+9	19.3255	0.672979	0	0
0	0	0	-0.159679	6.384452	-23.780367	6.384452	44339	4.552711E-10	2.196493E+9	19.506963	0.670959	0	0
0	0	0	-0.161108	6.384754	-23.783392	6.384754	44313.375	-7.122503E-11	-1.404001E+10	19.305844	0.671038	0	0
0	0	0	-0.160618	6.384424	-23.781517	6.384424	44322.125	2.69722E-10	3.707522E+9	19.473204	0.668226	0	0
0	0	0	-0.160618	6.384494	-23.781777	6.384494	44322.125	-1.471483E-8	-6.795865E+7	19.350432	0.668226	0	0
0	0	0	-0.160332	6.384564	-23.781655	6.384564	44327.25	-2.602137E-10	-3.842995E+9	19.387442	0.66577	0	0
0	0	0	-0.163109	6.384733	-23.785984	6.384733	44277.375	-7.741356E-11	-1.291763E+10	19.446578	0.66478	0	0
0	0	0	-0.163517	6.384613	-23.786087	6.384613	44270	-1.539904E-10	-6.493912E+9	19.309706	0.663988	0	0
0	0	0	-0.1607	6.384585	-23.782223	6.384585	44320.625	-2.009545E-10	-4.976252E+9	19.498661	0.661492	0	0
0	0	0	-0.162619	6.384676	-23.785122	6.384676	44286.125	-1.010893E-10	-9.892242E+9	19.277988	0.661849	0	0
0	0	0	-0.161843	6.384634	-23.783931	6.384634	44300.125	-1.311871E-10	-7.622703E+9	19.45381	0.659155	0	0
0	0	0	-0.161925	6.384578	-23.783832	6.384578	44298.625	-2.173453E-10	-4.600975E+9	19.315391	0.659353	0	0
0	0	0	-0.162782	6.384585	-23.785003	6.384585	44283.25	-2.00785E-10	-4.980452E+9	19.367487	0.656858	0	0
0	0	0	-0.161108	6.384578	-23.782742	6.384578	44313.375	-2.174176E-10	-4.599443E+9	19.415238	0.656026	0	0
0	0	0	-0.160332	6.38474	-23.782305	6.38474	44327.25	-7.529778E-11	-1.32806E+10	19.288238	0.654996	0	0
0	0	0	-0.160373	6.384712	-23.782255	6.384712	44326.5	-8.495609E-11	-1.177079E+10	19.490082	0.65262	0	0
0	0	0	-0.160986	6.384655	-23.782865	6.384655	44315.5	-1.142482E-10	-8.752872E+9	19.273434	0.652857	0	0
0	0	0	-0.15976	6.38462	-23.7811	6.38462	44337.5	-1.457419E-10	-6.861443E+9	19.44159	0.650164	0	0
0	0	0	-0.158903	6.384655	-23.780086	6.384655	44353	-1.143449E-10	-8.745471E+9	19.317827	0.650204	0	0
0	0	0	-0.158535	6.384578	-23.779309	6.384578	44359.5	-2.176439E-10	-4.594661E+9	19.363062	0.647906	0	0
0	0	0	-0.159597	6.384578	-23.780726	6.384578	44340.5	-2.175507E-10	-4.596629E+9	19.413074	0.647233	0	0
0	0	0	-0.158576	6.384557	-23.779286	6.384557	44358.875	-2.887653E-10	-3.46302E+9	19.296485	0.645807	0	0
0	0	0	-0.15874	6.384606	-23.779686	6.384606	44355.875	-1.638249E-10	-6.104079E+9	19.465439	0.643945	0	0
0	0	0	-0.157637	6.384733	-23.778682	6.384733	44375.75	-7.758555E-11	-1.2889E+10	19.255042	0.643906	0	0
0	0	0	-0.157964	6.384438	-23.778027	6.384438	44369.875	3.390694E-10	2.949248E+9	19.446383	0.641212	0	0
0	0	0	-0.156657	6.384761	-23.777479	6.384761	44393.375	-6.948474E-11	-1.439165E+10	19.299689	0.641133	0	0
0	0	0	-0.156453	6.384592	-23.776582	6.384592	44397	-1.871047E-10	-5.344602E+9	19.358407	0.638994	0	0
0	0	0	-0.155309	6.384459	-23.774563	6.384459	44417.625	5.507005E-10	1.815869E+9	19.400227	0.637964	0	0
0	0	0	-0.155023	6.38455	-23.774519	6.38455	44422.75	-3.245334E-10	-3.081347E+9	19.280107	0.636895	0	0
0	0	0	-0.154738	6.384466	-23.773826	6.384466	44427.875	6.950233E-10	1.438801E+9	19.446603	0.635231	0	0
0	0	0	-0.15535	6.384613	-23.775189	6.384613	44416.875	-1.545013E-10	-6.472439E+9	19.249179	0.634915	0	0
0	0	0	-0.155268	6.384915	-23.776198	6.384915	44418.375	-4.410803E-11	-2.267161E+10	19.431628	0.632221	0	0
0	0	0	-0.153798	6.384634	-23.773196	6.384634	44444.875	-1.316157E-10	-7.597877E+9	19.300674	0.632221	0	0
0	0	0	-0.154411	6.384578	-23.773806	6.384578	44433.75	-2.180082E-10	-4.586983E+9	19.365705	0.630043	0	0
0	0	0	-0.155391	6.384459	-23.774672	6.384459	44416.125	5.506819E-10	1.81593E+9	19.382218	0.629449	0	0
0	0	0	-0.156249	6.384459	-23.775816	6.384459	44400.75	5.504913E-10	1.816559E+9	19.27633	0.628339	0	0
0	0	0	-0.15633	6.384227	-23.775068	6.384227	44399.25	7.015543E-11	1.425406E+10	19.444812	0.626597	0	0
0	0	0	-0.156861	6.384388	-23.776374	6.384388	44389.625	1.789948E-10	5.586754E+9	19.250921	0.626319	0	0
0	0	0	-0.157678	6.384627	-23.778347	6.384627	44375	-1.382601E-10	-7.232743E+9	19.450201	0.623468	0	0
0	0	0	-0.157433	6.384529	-23.777656	6.384529	44379.375	-5.119866E-10	-1.953176E+9	19.265346	0.623982	0	0
0	0	0	-0.157514	6.384452	-23.777479	6.384452	44377.875	4.556703E-10	2.194569E+9	19.345245	0.621447	0	0
0	0	0	-0.159597	6.384564	-23.780674	6.384564	44340.5	-2.602915E-10	-3.841846E+9	19.345431	0.621051	0	0
0	0	0	-0.158821	6.384473	-23.779301	6.384473	44354.375	9.399279E-10	1.063911E+9	19.264319	0.619586	0	0
0	0	0	-0.160455	6.384662	-23.782182	6.384662	44325	-1.095468E-10	-9.128519E+9	19.415112	0.61816	0	0
0	0	0	-0.160945	6.384543	-23.782395	6.384543	44316.25	-3.688466E-10	-2.711154E+9	19.226693	0.617764	0	0
0	0	0	-0.160781	6.384403	-23.781657	6.384403	44319.125	2.065905E-10	4.840493E+9	19.428939	0.615348	0	0
0	0	0	-0.160945	6.384606	-23.782628	6.384606	44316.25	-1.636785E-10	-6.109537E+9	19.26134	0.615585	0	0
0	0	0	-0.160577	6.38462	-23.78219	6.38462	44322.875	-1.456939E-10	-6.863707E+9	19.363804	0.612971	0	0
0	0	0	-0.163558	6.384606	-23.786116	6.384606	44269.25	-1.635049E-10	-6.116023E+9	19.34631	0.612694	0	0
0	0	0	-0.163027	6.384487	-23.784966	6.384487	44278.875	3.226933E-9	3.098918E+8	19.262061	0.611466	0	0
0	0	0	-0.162497	6.384585	-23.784621	6.384585	44288.375	-2.008082E-10	-4.979875E+9	19.401167	0.610159	0	0
0	0	0	-0.163762	6.384592	-23.786336	6.384592	44265.625	-1.86551E-10	-5.360464E+9	19.198529	0.61	0	0
0	0	0	-0.162047	6.384374	-23.783242	6.384374	44296.5	1.573804E-10	6.354032E+9	19.420759	0.607228	0	0
0	0	0	-0.16511	6.384691	-23.788498	6.384691	44241.5	-9.382014E-11	-1.065869E+10	19.225935	0.607545	0	0
0	0	0	-0.163926	6.384796	-23.787308	6.384796	44262.75	-6.125802E-11	-1.632439E+10	19.354266	0.604891	0	0
0	0	0	-0.163967	6.384585	-23.786583	6.384585	44262	-2.006887E-10	-4.982843E+9	19.29906	0.60497	0	0
0	0	0	-0.165273	6.384571	-23.788275	6.384571	44238.5	-2.364644E-10	-4.228966E+9	19.249147	0.603386	0	0
0	0	0	-0.16462	6.384698	-23.787871	6.384698	44250.25	-9.062284E-11	-1.103475E+10	19.378593	0.602079	0	0
0	0	0	-0.163803	6.384705	-23.786807	6.384705	44264.875	-8.764905E-11	-1.140914E+10	19.186306	0.60192	0	0
0	0	0	-0.16266	6.384311	-23.783825	6.384311	44285.5	1.024973E-10	9.756352E+9	19.414269	0.599306	0	0
0	0	0	-0.162374	6.384522	-23.784224	6.384522	44290.625	-6.332027E-10	-1.579273E+9	19.205941	0.599979	0	0
0	0	0	-0.162251	6.384459	-23.783826	6.384459	44292.75	5.491523E-10	1.820988E+9	19.354486	0.597207	0	0
0	0	0	-0.161394	6.384627	-23.783306	6.384627	44308.25	-1.380522E-10	-7.243639E+9	19.283852	0.597207	0	0
0	0	0	-0.160822	6.384726	-23.782907	6.384726	44318.5	-7.982076E-11	-1.252807E+10	19.245838	0.595385	0	0
0	0	0	-0.162251	6.384515	-23.784034	6.384515	44292.75	-8.323629E-10	-1.201399E+9	19.359503	0.594434	0	0
0	0	0	-0.160822	6.384684	-23.782751	6.384684	44318.5	-9.744124E-11	-1.02626E+10	19.181989	0.59388	0	0
0	0	0	-0.16021	6.384859	-23.782583	6.384859	44329.5	-5.076869E-11	-1.969718E+10	19.387473	0.591741	0	0
0	0	0	-0.160536	6.384466	-23.781564	6.384466	44323.625	6.933925E-10	1.442185E+9	19.182807	0.592018	0	0
0	0	0	-0.159025	6.384445	-23.77947	6.384445	44350.75	3.886188E-10	2.573216E+9	19.33503	0.589364	0	0
0	0	0	-0.159025	6.384733	-23.780535	6.384733	44350.75	-7.754184E-11	-1.289626E+10	19.238822	0.589681	0	0
0	0	0	-0.158658	6.38455	-23.779369	6.38455	44357.375	-3.240558E-10	-3.085889E+9	19.22171	0.587899	0	0
0	0	0	-0.157474	6.38441	-23.777269	6.38441	44378.625	2.243694E-10	4.456936E+9	19.328644	0.586908	0	0
0	0	0	-0.157759	6.384571	-23.778248	6.384571	44373.5	-2.37186E-10	-4.2161E+9	19.164798	0.586235	0	0
0	0	0	-0.158209	6.384599	-23.778952	6.384599	44365.375	-1.746544E-10	-5.725592E+9	19.367427	0.584136	0	0
0	0	0	-0.156412	6.38436	-23.77567	6.38436	44397.75	1.409771E-10	7.093351E+9	19.170267	0.584373	0	0
0	0	0	-0.155922	6.384599	-23.7759	6.384599	44406.625	-1.748168E-10	-5.720274E+9	19.327987	0.581997	0	0
0	0	0	-0.155758	6.384487	-23.775266	6.384487	44409.5	3.236453E-9	3.089803E+8	19.220434	0.582274	0	0
0	0	0	-0.15633	6.384669	-23.776705	6.384669	44399.25	-1.053725E-10	-9.490146E+9	19.231314	0.580215	0	0
0	0	0	-0.158535	6.38441	-23.778686	6.38441	44359.5	2.242727E-10	4.458858E+9	19.300522	0.579541	0	0
0	0	0	-0.156779	6.384543	-23.776836	6.384543	44391.125	-3.694698E-10	-2.706581E+9	19.157855	0.578709	0	0
0	0	0	-0.155881	6.384424	-23.775196	6.384424	44407.375	2.702407E-10	3.700404E+9	19.370884	0.576412	0	0
0	0	0	-0.156534	6.384634	-23.776847	6.384634	44395.625	-1.314699E-10	-7.606306E+9	19.151232	0.576808	0	0
0	0	0	-0.156779	6.384712	-23.77746	6.384712	44391.125	-8.507995E-11	-1.175365E+10	19.320153	0.574471	0	0
0	0	0	-0.157024	6.384634	-23.777501	6.384634	44386.75	-1.314436E-10	-7.607827E+9	19.178307	0.574748	0	0
0	0	0	-0.1578	6.384473	-23.777939	6.384473	44372.75	9.403173E-10	1.063471E+9	19.220968	0.57261	0	0
0	0	0	-0.158413	6.38455	-23.779042	6.38455	44361.75	-3.240877E-10	-3.085584E+9	19.260506	0.572253	0	0
0	0	0	-0.15972	6.384564	-23.780838	6.384564	44338.25	-2.602783E-10	-3.842041E+9	19.144783	0.571184	0	0
0	0	0	-0.159638	6.384719	-23.781301	6.384719	44339.75	-8.234067E-11	-1.214467E+10	19.324539	0.56952	0	0
0	0	0	-0.158862	6.384606	-23.779849	6.384606	44353.625	-1.638166E-10	-6.104389E+9	19.128153	0.569441	0	0
0	0	0	-0.159066	6.384599	-23.780096	6.384599	44350	-1.745939E-10	-5.727577E+9	19.3239	0.566827	0	0
0	0	0	-0.161108	6.384459	-23.782301	6.384459	44313.375	5.49408E-10	1.820141E+9	19.162563	0.567421	0	0
0	0	0	-0.16168	6.384648	-23.783765	6.384648	44303	-1.193655E-10	-8.37763E+9	19.214233	0.56544	0	0
0	0	0	-0.163109	6.384691	-23.785828	6.384691	44277.375	-9.389621E-11	-1.065006E+10	19.239571	0.564886	0	0
0	0	0	-0.165273	6.384515	-23.788067	6.384515	44238.5	-8.313435E-10	-1.202872E+9	19.128308	0.563856	0	0
0	0	0	-0.162946	6.38448	-23.784831	6.38448	44280.375	1.453942E-9	6.877853E+8	19.324541	0.562034	0	0
0	0	0	-0.163844	6.384592	-23.786445	6.384592	44264.25	-1.865452E-10	-5.360631E+9	19.100923	0.561994	0	0
0	0	0	-0.165968	6.38441	-23.788603	6.38441	44226.125	2.235984E-10	4.472305E+9	19.298679	0.559618	0	0
0	0	0	-0.164457	6.384845	-23.788198	6.384845	44253.125	-5.27012E-11	-1.89749E+10	19.127095	0.560014	0	0
0	0	0	-0.164212	6.384726	-23.78743	6.384726	44257.625	-7.971112E-11	-1.25453E+10	19.220478	0.557954	0	0
0	0	0	-0.165804	6.384522	-23.788801	6.384522	44229	-6.323216E-10	-1.581474E+9	19.204082	0.557637	0	0
0	0	0	-0.165437	6.384578	-23.788518	6.384578	44235.625	-2.170362E-10	-4.607527E+9	19.125605	0.55633	0	0
0	0	0	-0.165192	6.384494	-23.78788	6.384494	44240	-1.468757E-8	-6.80848E+7	19.282175	0.554944	0	0
0	0	0	-0.164906	6.384473	-23.78742	6.384473	44245.125	9.376128E-10	1.066538E+9	19.087018	0.554825	0	0
0	0	0	-0.164661	6.384494	-23.787171	6.384494	44249.5	-1.469072E-8	-6.807018E+7	19.280594	0.552607	0	0
0	0	0	-0.163599	6.384564	-23.786014	6.384564	44268.625	-2.598696E-10	-3.848084E+9	19.088456	0.553082	0	0
0	0	0	-0.164007	6.384684	-23.787001	6.384684	44261.25	-9.731537E-11	-1.027587E+10	19.217432	0.550785	0	0
0	0	0	-0.164538	6.384557	-23.787242	6.384557	44251.75	-2.88068E-10	-3.471403E+9	19.158764	0.550785	0	0
0	0	0	-0.165273	6.384691	-23.788716	6.384691	44238.5	-9.381378E-11	-1.065942E+10	19.122062	0.549082	0	0
0	0	0	-0.163191	6.384543	-23.785392	6.384543	44275.875	-3.685105E-10	-2.713627E+9	19.25775	0.547775	0	0
0	0	0	-0.161843	6.384634	-23.783931	6.384634	44300.125	-1.311871E-10	-7.622703E+9	19.065852	0.547696	0	0
0	0	0	-0.161026	6.384571	-23.782607	6.384571	44314.75	-2.36872E-10	-4.22169E+9	19.257962	0.545675	0	0
0	0	0	-0.161516	6.384438	-23.782768	6.384438	44306	3.385813E-10	2.9535E+9	19.056628	0.546072	0	0
0	0	0	-0.160986	6.384501	-23.782293	6.384501	44315.5	-2.2443E-9	-4.455733E+8	19.213238	0.543418	0	0
0	0	0	-0.160618	6.384473	-23.781699	6.384473	44322.125	9.392445E-10	1.064685E+9	19.11609	0.543695	0	0
0	0	0	-0.159311	6.384676	-23.780709	6.384676	44345.625	-1.012251E-10	-9.87897E+9	19.117238	0.542071	0	0
0	0	0	-0.159025	6.384698	-23.780405	6.384698	44350.75	-9.082866E-11	-1.100974E+10	19.212366	0.541081	0	0
0	0	0	-0.158045	6.384578	-23.778656	6.384578	44368.375	-2.176875E-10	-4.593742E+9	19.030199	0.540685	0	0
0	0	0	-0.157759	6.384662	-23.778586	6.384662	44373.5	-1.096667E-10	-9.118542E+9	19.233699	0.538744	0	0
0	0	0	-0.157964	6.384424	-23.777975	6.384424	44369.875	2.700125E-10	3.703532E+9	19.02265	0.538942	0	0
0	0	0	-0.158168	6.384452	-23.778351	6.384452	44366.125	4.555497E-10	2.19515E+9	19.207826	0.536526	0	0
0	0	0	-0.156943	6.384508	-23.776924	6.384508	44388.25	-1.216799E-9	-8.218286E+8	19.090437	0.536962	0	0
0	0	0	-0.15633	6.384543	-23.776237	6.384543	44399.25	-3.695374E-10	-2.706086E+9	19.1251	0.534981	0	0
0	0	0	-0.156249	6.384684	-23.776648	6.384684	44400.75	-9.762208E-11	-1.024358E+10	19.186474	0.534387	0	0
0	0	0	-0.156126	6.384424	-23.775523	6.384424	44402.875	2.702134E-10	3.700779E+9	19.019904	0.533912	0	0
0	0	0	-0.157269	6.384508	-23.77736	6.384508	44382.375	-1.216638E-9	-8.219374E+8	19.226542	0.53205	0	0
0	0	0	-0.155473	6.384754	-23.775872	6.384754	44414.625	-7.138777E-11	-1.4008E+10	19.007322	0.532248	0	0
0	0	0	-0.157351	6.384374	-23.776976	6.384374	44380.875	1.576802E-10	6.341952E+9	19.196007	0.52999	0	0
0	0	0	-0.156657	6.384684	-23.777193	6.384684	44393.375	-9.760587E-11	-1.024529E+10	19.032563	0.530386	0	0
0	0	0	-0.15682	6.384508	-23.776761	6.384508	44390.375	-1.216857E-9	-8.217893E+8	19.121304	0.52801	0	0
0	0	0	-0.157964	6.384543	-23.778417	6.384543	44369.875	-3.692929E-10	-2.707878E+9	19.125344	0.52801	0	0
0	0	0	-0.158004	6.38455	-23.778497	6.38455	44369.125	-3.241416E-10	-3.085071E+9	19.012086	0.527059	0	0
0	0	0	-0.158454	6.384536	-23.779045	6.384536	44361	-4.289632E-10	-2.331202E+9	19.184441	0.525594	0	0
0	0	0	-0.159638	6.384669	-23.781119	6.384669	44339.75	-1.052312E-10	-9.502881E+9	18.98182	0.525515	0	0
0	0	0	-0.159148	6.384494	-23.779815	6.384494	44348.5	-1.472359E-8	-6.791823E+7	19.201035	0.523178	0	0
0	0	0	-0.161108	6.384585	-23.782768	6.384585	44313.375	-2.009216E-10	-4.977066E+9	19.027654	0.523494	0	0
0	0	0	-0.160373	6.384684	-23.782151	6.384684	44326.5	-9.745883E-11	-1.026074E+10	19.114656	0.521593	0	0
0	0	0	-0.163109	6.384613	-23.785542	6.384613	44277.375	-1.54016E-10	-6.492831E+9	0	0	0	0
0	0	0	-0.163068	6.384648	-23.785618	6.384648	44278.125	-1.192985E-10	-8.382337E+9	0	0	0	0
0	0	0	-0.161761	6.384578	-23.783614	6.384578	44301.625	-2.1736E-10	-4.600663E+9	0	0	0	0
0	0	0	-0.163558	6.384691	-23.786428	6.384691	44269.25	-9.387898E-11	-1.065201E+10	0	0	0	0
0	0	0	-0.164212	6.384775	-23.787611	6.384775	44257.625	-6.582417E-11	-1.519199E+10	0	0	0	0
0	0	0	-0.164416	6.384669	-23.787494	6.384669	44254	-1.050277E-10	-9.521294E+9	0	0	0	0
0	0	0	-0.16511	6.384691	-23.788498	6.384691	44241.5	-9.382014E-11	-1.065869E+10	0	0	0	0
0	0	0	-0.164579	6.384726	-23.78792	6.384726	44251	-7.969919E-11	-1.254718E+10	0	0	0	0
0	0	0	-0.165069	6.384684	-23.788418	6.384684	44242.25	-9.727359E-11	-1.028028E+10	0	0	0	0
0	0	0	-0.164497	6.384585	-23.787291	6.384585	44252.5	-2.006456E-10	-4.983912E+9	0	0	0	0
0	0	0	-0.165355	6.384529	-23.788228	6.384529	44237	-5.103441E-10	-1.959462E+9	0	0	0	0
0	0	0	-0.167274	6.384747	-23.791594	6.384747	44202.625	-7.301073E-11	-1.369662E+10	0	0	0	0
0	0	0	-0.164783	6.384529	-23.787465	6.384529	44247.375	-5.104638E-10	-1.959003E+9	0	0	0	0
0	0	0	-0.165845	6.384936	-23.790389	6.384936	44228.25	-4.18338E-11	-2.390411E+10	0	0	0	0
0	0	0	-0.1656	6.384655	-23.789022	6.384655	44232.75	-1.140349E-10	-8.769247E+9	0	0	0	0
0	0	0	-0.166008	6.384522	-23.789073	6.384522	44225.375	-6.322698E-10	-1.581603E+9	0	0	0	0
0	0	0	-0.163354	6.38455	-23.785635	6.38455	44273	-3.234394E-10	-3.09177E+9	0	0	0	0
0	0	0	-0.164416	6.384754	-23.787806	6.384754	44254	-7.11296E-11	-1.405885E+10	0	0	0	0
0	0	0	-0.163436	6.384641	-23.786082	6.384641	44271.5	-1.249124E-10	-8.005612E+9	0	0	0	0
0	0	0	-0.163803	6.384733	-23.786911	6.384733	44264.875	-7.73917E-11	-1.292128E+10	0	0	0	0
0	0	0	-0.163681	6.384403	-23.785526	6.384403	44267.125	2.063481E-10	4.84618E+9	0	0	0	0
0	0	0	-0.161639	6.384936	-23.784776	6.384936	44303.75	-4.190522E-11	-2.386338E+10	0	0	0	0
0	0	0	-0.162006	6.384283	-23.78285	6.384283	44297.125	8.877182E-11	1.126484E+10	0	0	0	0
0	0	0	-0.161557	6.384648	-23.783602	6.384648	44305.25	-1.193716E-10	-8.377205E+9	0	0	0	0
0	0	0	-0.161067	6.384719	-23.783208	6.384719	44314	-8.229285E-11	-1.215172E+10	0	0	0	0
0	0	0	-0.160373	6.384662	-23.782073	6.384662	44326.5	-1.095505E-10	-9.128211E+9	0	0	0	0
0	0	0	-0.159107	6.384599	-23.78015	6.384599	44349.25	-1.745909E-10	-5.727674E+9	0	0	0	0
0	0	0	-0.15923	6.384452	-23.779768	6.384452	44347.125	4.553546E-10	2.196091E+9	0	0	0	0
0	0	0	-0.15878	6.384424	-23.779065	6.384424	44355.125	2.699228E-10	3.704763E+9	0	0	0	0
0	0	0	-0.158168	6.384353	-23.777987	6.384353	44366.125	1.337689E-10	7.475581E+9	0	0	0	0
0	0	0	-0.156657	6.384592	-23.776855	6.384592	44393.375	-1.870894E-10	-5.345039E+9	0	0	0	0
0	0	0	-0.156044	6.384641	-23.776219	6.384641	44404.375	-1.252873E-10	-7.981656E+9	0	0	0	0
0	0	0	-0.156575	6.384487	-23.776356	6.384487	44394.875	3.235387E-9	3.090821E+8	0	0	0	0
0	0	0	-0.156289	6.384395	-23.775637	6.384395	44400	1.919916E-10	5.208562E+9	0	0	0	0
0	0	0	-0.157923	6.384719	-23.779012	6.384719	44370.625	-8.239801E-11	-1.213622E+10	0	0	0	0
0	0	0	-0.158862	6.384712	-23.780239	6.384712	44353.625	-8.500808E-11	-1.176359E+10	0	0	0	0
0	0	0	-0.158249	6.38455	-23.778824	6.38455	44364.75	-3.241096E-10	-3.085376E+9	0	0	0	0
0	0	0	-0.157882	6.384578	-23.778438	6.384578	44371.25	-2.177016E-10	-4.593444E+9	0	0	0	0
0	0	0	-0.158903	6.384466	-23.779384	6.384466	44353	6.93852E-10	1.44123E+9	0	0	0	0
0	0	0	-0.157433	6.384648	-23.778098	6.384648	44379.375	-1.195713E-10	-8.363213E+9	0	0	0	0
0	0	0	-0.15923	6.384557	-23.780158	6.384557	44347.125	-2.886888E-10	-3.463937E+9	0	0	0	0
0	0	0	-0.158454	6.384367	-23.778421	6.384367	44361	1.48765E-10	6.72201E+9	0	0	0	0
0	0	0	-0.159189	6.384431	-23.779636	6.384431	44347.75	3.004763E-10	3.32805E+9	0	0	0	0
0	0	0	-0.159842	6.384452	-23.780585	6.384452	44336	4.552403E-10	2.196642E+9	0	0	0	0
0	0	0	-0.162415	6.384473	-23.784096	6.384473	44289.875	9.385611E-10	1.065461E+9	0	0	0	0
0	0	0	-0.161925	6.384789	-23.784612	6.384789	44298.625	-6.276115E-11	-1.593342E+10	0	0	0	0
0	0	0	-0.161761	6.384522	-23.783406	6.384522	44301.625	-6.333599E-10	-1.578881E+9	0	0	0	0
0	0	0	-0.162946	6.384571	-23.785169	6.384571	44280.375	-2.366882E-10	-4.224967E+9	0	0	0	0
0	0	0	-0.162619	6.384599	-23.784837	6.384599	44286.125	-1.743424E-10	-5.735838E+9	0	0	0	0
0	0	0	-0.164212	6.384508	-23.786624	6.384508	44257.625	-1.213218E-9	-8.242542E+8	0	0	0	0
0	0	0	-0.163681	6.384648	-23.786435	6.384648	44267.125	-1.192688E-10	-8.38442E+9	0	0	0	0
0	0	0	-0.165559	6.384754	-23.789332	6.384754	44233.375	-7.109645E-11	-1.40654E+10	0	0	0	0
0	0	0	-0.164007	6.384487	-23.786273	6.384487	44261.25	3.225648E-9	3.100152E+8	0	0	0	0
0	0	0	-0.165641	6.384459	-23.788349	6.384459	44232	5.483991E-10	1.823489E+9	0	0	0	0
0	0	0	-0.164416	6.384655	-23.787442	6.384655	44254	-1.140897E-10	-8.765036E+9	0	0	0	0
0	0	0	-0.165478	6.384705	-23.789041	6.384705	44234.875	-8.758965E-11	-1.141687E+10	0	0	0	0
0	0	0	-0.166131	6.384775	-23.790173	6.384775	44223.125	-6.577286E-11	-1.520384E+10	0	0	0	0
0	0	0	-0.16658	6.384655	-23.79033	6.384655	44215.125	-1.139894E-10	-8.772742E+9	0	0	0	0
0	0	0	-0.165968	6.384578	-23.789227	6.384578	44226.125	-2.169895E-10	-4.608517E+9	0	0	0	0
0	0	0	-0.16658	6.384648	-23.790304	6.384648	44215.125	-1.191287E-10	-8.39428E+9	0	0	0	0
0	0	0	-0.166213	6.384726	-23.7901	6.384726	44221.75	-7.964651E-11	-1.255548E+10	0	0	0	0
0	0	0	-0.165763	6.384529	-23.788772	6.384529	44229.75	-5.102605E-10	-1.959783E+9	0	0	0	0
0	0	0	-0.16511	6.384712	-23.788576	6.384712	44241.5	-8.479318E-11	-1.17934E+10	0	0	0	0
0	0	0	-0.164783	6.384592	-23.787699	6.384592	44247.375	-1.864741E-10	-5.362675E+9	0	0	0	0
0	0	0	-0.16462	6.384585	-23.787455	6.384585	44250.25	-2.006354E-10	-4.984166E+9	0	0	0	0
0	0	0	-0.164048	6.384655	-23.786952	6.384655	44260.5	-1.141064E-10	-8.763749E+9	0	0	0	0
0	0	0	-0.163762	6.38455	-23.78618	6.38455	44265.625	-3.233855E-10	-3.092285E+9	0	0	0	0
0	0	0	-0.162782	6.384613	-23.785107	6.384613	44283.25	-1.540365E-10	-6.491969E+9	0	0	0	0
0	0	0	-0.161884	6.384494	-23.783466	6.384494	44299.375	-1.470728E-8	-6.799355E+7	0	0	0	0
0	0	0	-0.163681	6.384641	-23.786409	6.384641	44267.125	-1.249E-10	-8.006403E+9	0	0	0	0
0	0	0	-0.160618	6.384543	-23.781959	6.384543	44322.125	-3.688955E-10	-2.710795E+9	0	0	0	0
0	0	0	-0.160291	6.384747	-23.782276	6.384747	44328	-7.321782E-11	-1.365788E+10	0	0	0	0
0	0	0	-0.15927	6.384585	-23.780316	6.384585	44346.375	-2.010712E-10	-4.973362E+9	0	0	0	0
0	0	0	-0.16119	0	-0.16119	0	44311.875	0	0	0	0	0	0
0	0	0	-0.15927	0	-0.15927	0	44346.375	0	0	0	0	0	0
