Vload_(V)	ILoad_(A)	RsLoad (ohm)	SunsVoc_Voltage_(V)	SunsVoc_Current_(A)	Model_Voltage_(V)	Model_Current_(A)	Carrier_Density_(cm-3)	Lifetime_(s)	Inverse_Lifetime_(s-1)	Efficiency_(%)	Intensity_(suns)	Dark_IV_Voltage_(V)	Dark_IV_Current_(A)
5.433539	6.443581	0	66.069593	-0.897147	66.3249	-0.897147	4.312787E+15	0.000247	4023.800816	19.88451	1.124402	0	0
5.343059	6.442465	3.01501	66.032472	-0.627553	66.21227	-0.627553	4.272004E+15	0.000254	3912.757263	19.983043	1.12345	0	0
9.158603	6.439217	4.750943	65.883746	-0.217357	65.9477	-0.217357	4.111858E+15	0.000259	3830.911941	19.970604	1.123966	0	0
14.20181	6.416822	5.610101	65.714029	0.201869	65.652851	0.201869	3.935334E+15	0.000265	3752.598963	19.905595	1.122974	0	0
18.823996	6.41617	4.902486	65.532551	0.617008	65.339741	0.617008	3.753684E+15	0.00027	3674.30112	20.052299	1.121943	0	0
23.590474	6.406853	4.310081	65.348705	1.00394	65.025387	1.00394	3.576901E+15	0.000276	3601.511438	19.857572	1.121031	0	0
28.447678	6.40551	3.569767	65.169514	1.358255	64.719438	1.358255	3.411368E+15	0.000282	3531.801934	20.066314	1.118889	0	0
33.722714	6.3222	3.329381	64.987872	1.690568	64.411719	1.690568	3.250163E+15	0.000287	3466.150756	19.841091	1.119048	0	0
38.242548	6.395378	2.156428	64.811132	1.996432	64.112397	1.996432	3.099464E+15	0.000293	3402.038564	20.000044	1.116469	0	0
43.015391	6.383703	1.515839	64.631165	2.288472	63.80881	2.288472	2.952045E+15	0.000298	3338.541274	19.878141	1.116628	0	0
47.82694	6.329508	1.06945	64.450463	2.562609	63.505527	2.562609	2.809944E+15	0.000304	3277.059313	19.888254	1.115002	0	0
52.535388	6.15083	0.770792	64.26776	2.81725	63.202173	2.81725	2.672098E+15	0.000309	3221.032226	19.939128	1.114764	0	0
53.665847	6.065244	0.714056	64.090897	3.048404	62.909854	3.048404	2.544052E+15	0.000315	3168.409911	19.800382	1.113812	0	0
54.821068	5.942864	0.667369	63.91677	3.253972	62.626631	3.253972	2.423002E+15	0.000319	3126.12913	19.978058	1.113257	0	0
55.928314	5.7887	0.622462	63.745378	3.445994	62.348406	3.445994	2.308556E+15	0.000323	3084.341608	19.76038	1.113812	0	0
57.055173	5.57571	0.583915	63.575498	3.627792	62.072792	3.627792	2.199576E+15	0.000328	3041.5221	19.966471	1.112503	0	0
58.132011	5.309836	0.548977	63.405945	3.799657	61.79856	3.799657	2.09509E+15	0.000333	2998.937275	19.793039	1.113574	0	0
59.174972	4.970787	0.522634	63.226264	3.963589	61.512511	3.963589	1.988885E+15	0.000337	2963.838785	19.926876	1.11175	0	0
60.244707	4.530205	0.49527	63.055648	4.114928	61.239966	4.114928	1.892207E+15	0.000341	2925.699662	19.893455	1.112503	0	0
61.263948	4.001582	0.473113	62.885278	4.255956	60.969678	4.255956	1.799589E+15	0.000345	2890.4642	19.850876	1.111353	0	0
62.233982	3.384365	0.455891	62.709926	4.387514	60.69512	4.387514	1.708224E+15	0.000349	2862.419583	19.978687	1.110917	0	0
63.210089	2.648241	0.434974	62.542863	4.510192	60.432556	4.510192	1.624795E+15	0.000353	2830.24455	19.811183	1.110322	0	0
64.091922	1.875318	0.429308	62.374208	4.625265	60.16951	4.625265	1.544037E+15	0.000356	2801.391551	20.02763	1.108497	0	0
64.840531	1.138859	0.421416	62.209228	4.731101	59.913509	4.731101	1.468302E+15	0.00036	2774.759329	19.811376	1.108696	0	0
54.189045	6.019	0.686804	62.04531	4.829079	59.660902	4.829079	1.39615E+15	0.000363	2751.510112	19.995828	1.106237	0	0
65.821789	0	0	61.885721	4.920183	59.415514	4.920183	1.328776E+15	0.000366	2728.162723	19.861156	1.106435	0	0
0	0	0	61.725682	5.006355	59.170564	5.006355	1.26397E+15	0.000369	2706.062291	19.911897	1.103976	0	0
0	0	0	61.562704	5.087252	58.9232	5.087252	1.200723E+15	0.000372	2688.504616	19.937194	1.103222	0	0
0	0	0	61.402297	5.163084	58.680399	5.163084	1.141097E+15	0.000374	2671.035386	19.823977	1.101239	0	0
0	0	0	61.244097	5.233803	58.441877	5.233803	1.08476E+15	0.000376	2654.775259	19.990825	1.099573	0	0
0	0	0	61.090755	5.300215	58.210731	5.300215	1.032419E+15	0.000379	2636.409961	19.779286	1.098661	0	0
0	0	0	60.931329	5.362812	57.97285	5.362812	9.802915E+14	0.000381	2624.756218	19.996073	1.095885	0	0
0	0	0	60.781336	5.421016	57.748482	5.421016	9.333126E+14	0.000383	2608.543383	19.797929	1.095726	0	0
0	0	0	60.624115	5.476009	57.515742	5.476009	8.861492E+14	0.000384	2599.763313	19.933005	1.09295	0	0
0	0	0	60.475389	5.527676	57.294953	5.527676	8.434303E+14	0.000387	2585.698552	19.858717	1.092791	0	0
0	0	0	60.322619	5.577604	57.069165	5.577604	8.014076E+14	0.000388	2573.049183	19.834129	1.090967	0	0
0	0	0	60.174913	5.623483	56.851522	5.623483	7.625097E+14	0.00039	2561.131837	19.924822	1.090134	0	0
0	0	0	60.024879	5.666832	56.631675	5.666832	7.24685E+14	0.000392	2552.454948	19.756612	1.08942	0	0
0	0	0	59.877582	5.707001	56.416629	5.707001	6.891488E+14	0.000393	2545.349816	19.967298	1.087635	0	0
0	0	0	59.7291	5.744478	56.201083	5.744478	6.548766E+14	0.000393	2542.350131	19.754372	1.087437	0	0
0	0	0	59.586907	5.77996	55.994377	5.77996	6.234656E+14	0.000394	2534.967364	19.96456	1.085017	0	0
0	0	0	59.440875	5.813172	55.783576	5.813172	5.925938E+14	0.000395	2533.615701	19.815025	1.085335	0	0
0	0	0	59.301255	5.844563	55.581789	5.844563	5.643477E+14	0.000395	2528.003627	19.911027	1.082558	0	0
0	0	0	59.155713	5.874425	55.372801	5.874425	5.361801E+14	0.000395	2528.212053	19.915956	1.082082	0	0
0	0	0	59.014092	5.902768	55.169475	5.902768	5.099788E+14	0.000396	2525.7821	19.836934	1.080179	0	0
0	0	0	58.872593	5.929021	54.967268	5.929021	4.849479E+14	0.000396	2527.255565	19.993758	1.078315	0	0
0	0	0	58.738404	5.953293	54.775566	5.953293	4.622331E+14	0.000396	2526.415409	19.793741	1.077085	0	0
0	0	0	58.597191	5.977095	54.574636	5.977095	4.393666E+14	0.000395	2528.900306	20.00735	1.074269	0	0
0	0	0	58.464595	5.998887	54.386026	5.998887	4.188299E+14	0.000395	2528.998523	19.798419	1.073793	0	0
0	0	0	58.325873	6.019994	54.189545	6.019994	3.982784E+14	0.000395	2533.293404	19.951831	1.070699	0	0
0	0	0	58.191602	6.040024	53.999356	6.040024	3.792633E+14	0.000395	2534.536558	19.85385	1.069867	0	0
0	0	0	58.056801	6.058789	53.809076	6.058789	3.61009E+14	0.000394	2538.90618	19.858661	1.067288	0	0
0	0	0	57.923592	6.076555	53.621336	6.076555	3.437631E+14	0.000393	2543.195576	19.92206	1.0659	0	0
0	0	0	57.792792	6.093732	53.436943	6.093732	3.275677E+14	0.000393	2544.03827	19.784524	1.063878	0	0
0	0	0	57.660972	6.109162	53.252233	6.109162	3.11959E+14	0.000392	2553.53096	19.973082	1.061775	0	0
0	0	0	57.529274	6.124333	53.067661	6.124333	2.970529E+14	0.000391	2560.028259	19.750777	1.06122	0	0
0	0	0	57.395779	6.138998	52.880883	6.138998	2.826188E+14	0.00039	2567.186072	19.964759	1.058246	0	0
0	0	0	57.270288	6.152384	52.705415	6.152384	2.696465E+14	0.000389	2572.447745	19.790366	1.057849	0	0
0	0	0	57.137937	6.165529	52.520894	6.165529	2.565672E+14	0.000387	2581.552942	19.907097	1.054716	0	0
0	0	0	57.010404	6.177588	52.343378	6.177588	2.445266E+14	0.000386	2591.206495	19.870559	1.05416	0	0
0	0	0	56.880095	6.189694	52.161997	6.189694	2.327717E+14	0.000385	2598.182379	19.826952	1.05182	0	0
0	0	0	56.752031	6.201323	51.983788	6.201323	2.217378E+14	0.000384	2602.556528	19.947183	1.050749	0	0
0	0	0	56.624131	6.21193	51.806434	6.21193	2.112106E+14	0.000383	2612.654671	19.771189	1.049242	0	0
0	0	0	56.495741	6.221922	51.62877	6.221922	2.011185E+14	0.000381	2625.408773	19.990002	1.046704	0	0
0	0	0	56.370209	6.231587	51.455016	6.231587	1.916931E+14	0.00038	2634.405938	19.769963	1.046307	0	0
0	0	0	56.244432	6.240746	51.281214	6.240746	1.826702E+14	0.000378	2645.095047	19.955621	1.043214	0	0
0	0	0	56.12033	6.249389	51.109924	6.249389	1.741637E+14	0.000376	2656.081477	19.823069	1.042698	0	0
0	0	0	55.992593	6.258053	50.933688	6.258053	1.658025E+14	0.000375	2665.540172	19.884104	1.039803	0	0
0	0	0	55.870941	6.265473	50.766417	6.265473	1.581964E+14	0.000373	2681.976416	19.904596	1.038692	0	0
0	0	0	55.749942	6.273227	50.599646	6.273227	1.509626E+14	0.000372	2688.14554	19.814074	1.036114	0	0
0	0	0	55.622123	6.280232	50.42435	6.280232	1.436654E+14	0.000369	2708.532236	19.975088	1.034171	0	0
0	0	0	55.507046	6.287003	50.266061	6.287003	1.37386E+14	0.000368	2714.927829	19.773569	1.032465	0	0
0	0	0	55.383434	6.2934	50.096678	6.2934	1.309347E+14	0.000366	2732.310415	19.995464	1.029332	0	0
0	0	0	55.260679	6.299864	49.928295	6.299864	1.248172E+14	0.000365	2742.871167	19.790413	1.028737	0	0
0	0	0	55.144131	6.305632	49.768664	6.305632	1.192645E+14	0.000363	2755.355517	19.939112	1.025405	0	0
0	0	0	55.020723	6.311691	49.599603	6.311691	1.136451E+14	0.000362	2764.614628	19.848472	1.02485	0	0
0	0	0	54.902869	6.316818	49.438647	6.316818	1.08518E+14	0.000359	2782.670172	19.856132	1.021875	0	0
0	0	0	54.781502	6.322079	49.272846	6.322079	1.034724E+14	0.000357	2797.241824	19.933082	1.020448	0	0
0	0	0	54.663525	6.327139	49.111659	6.327139	9.878607E+13	0.000356	2807.943988	19.772241	1.018742	0	0
0	0	0	54.543956	6.331708	48.948727	6.331708	9.424691E+13	0.000354	2827.681798	19.981623	1.016085	0	0
0	0	0	54.424672	6.336273	48.786122	6.336273	8.992085E+13	0.000352	2842.791557	19.756898	1.01545	0	0
0	0	0	54.304327	6.3405	48.622351	6.3405	8.57523E+13	0.000349	2863.560044	19.977338	1.012198	0	0
0	0	0	54.187248	6.344624	48.462964	6.344624	8.187785E+13	0.000347	2879.066479	19.789759	1.012158	0	0
0	0	0	54.069639	6.348724	48.302844	6.348724	7.815791E+13	0.000346	2891.155868	19.906684	1.008906	0	0
0	0	0	53.951335	6.352714	48.141851	6.352714	7.458263E+13	0.000345	2902.308552	19.871712	1.008113	0	0
0	0	0	53.824742	6.35621	47.970234	6.35621	7.093386E+13	0.000341	2934.183339	19.831291	1.005614	0	0
0	0	0	53.703416	6.359734	47.805554	6.359734	6.76011E+13	0.000338	2954.660092	19.945729	1.004265	0	0
0	0	0	53.582254	6.362853	47.641426	6.362853	6.4426E+13	0.000335	2984.961294	19.768703	1.002481	0	0
0	0	0	53.470811	6.366003	47.490164	6.366003	6.163494E+13	0.000334	2998.365421	19.995139	0.999704	0	0
0	0	0	53.350711	6.369069	47.327422	6.369069	5.875981E+13	0.000331	3020.76962	19.78203	0.998832	0	0
0	0	0	53.226935	6.372045	47.159835	6.372045	5.593455E+13	0.000328	3046.621416	19.970488	0.995698	0	0
0	0	0	53.112266	6.374912	47.004438	6.374912	5.34365E+13	0.000327	3061.217469	19.835232	0.994945	0	0
0	0	0	52.992696	6.377352	46.842894	6.377352	5.094856E+13	0.000323	3096.656886	19.900811	0.991931	0	0
0	0	0	52.88207	6.380037	46.692991	6.380037	4.874842E+13	0.000322	3105.180907	19.921761	0.990542	0	0
0	0	0	52.761602	6.382305	46.530357	6.382305	4.645891E+13	0.000318	3141.935116	19.817643	0.988282	0	0
0	0	0	52.64775	6.384603	46.376476	6.384603	4.439267E+13	0.000316	3164.85974	19.978788	0.986179	0	0
0	0	0	52.531284	6.386876	46.219112	6.386876	4.237279E+13	0.000314	3187.924203	19.771534	0.984791	0	0
0	0	0	52.412204	6.389124	46.058263	6.389124	4.040137E+13	0.000311	3210.928417	19.990325	0.981817	0	0
0	0	0	52.299454	6.391198	45.905994	6.391198	3.861832E+13	0.000309	3231.288078	19.778337	0.981103	0	0
0	0	0	52.178946	6.393249	45.743385	6.393249	3.679847E+13	0.000307	3258.261165	19.942266	0.97789	0	0
0	0	0	52.057661	6.394837	45.580186	6.394837	3.505252E+13	0.000302	3312.63511	19.835823	0.977414	0	0
0	0	0	51.940174	6.396843	45.421602	6.396843	3.343944E+13	0.0003	3329.563845	19.85568	0.974559	0	0
0	0	0	51.820645	6.398676	45.260449	6.398676	3.187372E+13	0.000298	3356.093438	19.925635	0.973131	0	0
0	0	0	51.7052	6.4004	45.104828	6.4004	3.043045E+13	0.000296	3380.31772	19.791981	0.971068	0	0
0	0	0	51.583385	6.401963	44.940864	6.401963	2.897768E+13	0.000292	3421.324399	19.98357	0.969085	0	0
0	0	0	51.464918	6.403752	44.781106	6.403752	2.763082E+13	0.000291	3433.819879	19.766608	0.967975	0	0
0	0	0	51.347227	6.405289	44.622626	6.405289	2.635425E+13	0.000289	3461.228312	19.988207	0.965079	0	0
0	0	0	51.221368	6.406835	44.45323	6.406835	2.505376E+13	0.000286	3493.942756	19.801074	0.964445	0	0
0	0	0	51.105066	6.408054	44.2969	6.408054	2.39087E+13	0.000283	3539.794844	19.933895	0.961391	0	0
0	0	0	50.979044	6.409497	44.127359	6.409497	2.272652E+13	0.00028	3572.652632	19.88728	0.96024	0	0
0	0	0	50.856698	6.41087	43.962774	6.41087	2.163438E+13	0.000278	3601.865077	19.849723	0.957821	0	0
0	0	0	50.734719	6.412058	43.798861	6.412058	2.059743E+13	0.000274	3645.725481	19.956792	0.956314	0	0
0	0	0	50.608738	6.413251	43.629594	6.413251	1.957827E+13	0.000271	3690.451978	19.788937	0.954529	0	0
0	0	0	50.483533	6.414587	43.461187	6.414587	1.861506E+13	0.00027	3710.404987	19.997121	0.951911	0	0
0	0	0	50.353958	6.41575	43.287127	6.41575	1.766782E+13	0.000266	3752.518188	19.772046	0.95092	0	0
0	0	0	50.229652	6.416817	43.120183	6.416817	1.680418E+13	0.000264	3794.097789	19.974245	0.947628	0	0
0	0	0	50.09726	6.417564	42.942798	6.417564	1.59305E+13	0.000257	3890.46023	19.813169	0.947073	0	0
0	0	0	49.965929	6.418843	42.766223	6.418843	1.51085E+13	0.000256	3900.438926	19.902882	0.944019	0	0
0	0	0	49.83464	6.419596	42.590279	6.419596	1.432894E+13	0.000251	3987.511308	19.886812	0.942987	0	0
0	0	0	49.70041	6.420493	42.410239	6.420493	1.357332E+13	0.000247	4052.096154	19.822235	0.940449	0	0
0	0	0	49.567732	6.4214	42.232244	6.4214	1.286544E+13	0.000243	4106.985058	19.95911	0.938625	0	0
0	0	0	49.432154	6.422112	42.050595	6.422112	1.218006E+13	0.000238	4198.943103	19.770469	0.937117	0	0
0	0	0	49.297108	6.423023	41.869412	6.423023	1.153353E+13	0.000236	4246.046982	19.992232	0.934301	0	0
0	0	0	49.156466	6.423736	41.680986	6.423736	1.089653E+13	0.00023	4338.538483	19.778642	0.933707	0	0
0	0	0	49.017581	6.424569	41.49475	6.424569	1.030191E+13	0.000227	4396.284885	19.968423	0.930454	0	0
0	0	0	48.871468	6.425196	41.299103	6.425196	9.71123E+12	0.000222	4509.948299	19.831038	0.930018	0	0
0	0	0	48.728826	6.42569	41.108235	6.42569	9.167167E+12	0.000215	4649.273127	19.893062	0.927004	0	0
0	0	0	48.578669	6.42658	40.906862	6.42658	8.627251E+12	0.000213	4694.25344	19.91969	0.926012	0	0
0	0	0	48.432229	6.427018	40.710977	6.427018	8.131259E+12	0.000206	4852.305364	19.813217	0.92387	0	0
0	0	0	48.276887	6.427738	40.502868	6.427738	7.63617E+12	0.000202	4942.503597	19.979415	0.921967	0	0
0	0	0	48.122198	6.428381	40.295711	6.428381	7.173051E+12	0.000198	5047.906748	19.77653	0.920697	0	0
0	0	0	47.959342	6.428964	40.077722	6.428964	6.715731E+12	0.000193	5185.035543	19.991097	0.917961	0	0
0	0	0	47.794403	6.429479	39.857027	6.429479	6.282213E+12	0.000187	5347.268147	19.778256	0.917524	0	0
0	0	0	47.625462	6.430166	39.630771	6.430166	5.867116E+12	0.000184	5446.706278	19.958832	0.913955	0	0
0	0	0	47.449048	6.430492	39.394984	6.430492	5.462852E+12	0.000175	5707.904492	19.849581	0.913677	0	0
0	0	0	47.26904	6.431196	39.153919	6.431196	5.079003E+12	0.000172	5808.978464	19.880885	0.910623	0	0
0	0	0	47.081968	6.431629	38.903758	6.431629	4.708598E+12	0.000165	6046.606421	19.933116	0.909592	0	0
0	0	0	46.890771	6.432062	38.648085	6.432062	4.357886E+12	0.000159	6296.732425	19.80253	0.907569	0	0
0	0	0	46.69108	6.432631	38.380894	6.432631	4.019413E+12	0.000154	6489.456367	19.989502	0.905388	0	0
0	0	0	46.478525	6.433127	38.096622	6.433127	3.687938E+12	0.000148	6752.936892	19.772904	0.904436	0	0
0	0	0	46.257763	6.433431	37.801638	6.433431	3.372538E+12	0.000139	7169.620106	19.996444	0.901501	0	0
0	0	0	46.027812	6.433971	37.494072	6.433971	3.072629E+12	0.000134	7450.801925	19.794102	0.901144	0	0
0	0	0	45.78757	6.434071	37.17335	6.434071	2.787721E+12	0.000123	8126.771991	19.94611	0.897892	0	0
0	0	0	45.539284	6.434501	36.841444	6.434501	2.52098E+12	0.000117	8580.246461	19.874071	0.897336	0	0
0	0	0	45.281442	6.434979	36.49671	6.434979	2.270935E+12	0.000111	9023.906422	19.865978	0.894719	0	0
0	0	0	45.016126	6.435462	36.141982	6.435462	2.039489E+12	0.000105	9483.757218	19.956257	0.89337	0	0
0	0	0	44.738723	6.435585	35.771611	6.435585	1.822668E+12	9.568815E-5	10450.615066	19.794533	0.891744	0	0
0	0	0	44.438697	6.435911	35.37076	6.435911	1.614021E+12	8.833349E-5	11320.734595	20.001907	0.889364	0	0
0	0	0	44.122989	6.436421	34.948707	6.436421	1.420193E+12	8.326983E-5	12009.15215	19.768682	0.88865	0	0
0	0	0	43.787966	6.436698	34.501196	6.436698	1.239889E+12	7.562222E-5	13223.627095	19.986336	0.885557	0	0
0	0	0	43.443795	6.43723	34.041096	6.43723	1.078462E+12	7.127766E-5	14029.642068	19.799691	0.885358	0	0
0	0	0	43.08329	6.43732	33.559828	6.43732	9.318558E+11	6.248065E-5	16004.956059	19.926154	0.882304	0	0
0	0	0	42.704571	6.437488	33.054133	6.437488	7.992517E+11	5.506519E-5	18160.293274	19.885034	0.881591	0	0
0	0	0	42.310988	6.437753	32.528445	6.437753	6.813951E+11	4.90824E-5	20373.903186	19.848307	0.879171	0	0
0	0	0	41.903847	6.438124	31.984489	6.438124	5.777304E+11	4.44384E-5	22503.060602	19.959157	0.877624	0	0
0	0	0	41.478698	6.438288	31.416804	6.438288	4.862714E+11	3.856265E-5	25931.829019	19.78559	0.876157	0	0
0	0	0	41.030639	6.438651	30.818219	6.438651	4.055056E+11	3.452532E-5	28964.250861	20.006002	0.873618	0	0
0	0	0	40.557261	6.438829	30.186123	6.438829	3.346999E+11	2.95646E-5	33824.237683	19.779004	0.873024	0	0
0	0	0	40.061178	6.439112	29.523541	6.439112	2.737253E+11	2.571022E-5	38895.033295	19.989861	0.870128	0	0
0	0	0	39.552517	6.439443	28.844078	6.439443	2.227196E+11	2.25914E-5	44264.63342	19.823486	0.869771	0	0
0	0	0	39.03716	6.439544	28.156046	6.439544	1.807262E+11	1.87937E-5	53209.310721	19.925056	0.866797	0	0
0	0	0	38.512981	6.43973	27.45609	6.43973	1.461268E+11	1.592756E-5	62784.25339	19.90592	0.866003	0	0
0	0	0	37.970876	6.439999	26.73205	6.439999	1.172954E+11	1.374719E-5	72742.149245	19.840605	0.863822	0	0
0	0	0	37.415171	6.440225	25.989921	6.440225	9.363479E+10	1.171274E-5	85377.124637	19.976526	0.862235	0	0
0	0	0	36.846277	6.440223	25.230584	6.440223	7.434816E+10	9.294042E-6	107595.81325	19.786456	0.860927	0	0
0	0	0	36.266397	6.440412	24.456235	6.440412	5.877172E+10	7.784507E-6	128460.282951	20.011036	0.858309	0	0
0	0	0	35.667651	6.440579	23.656732	6.440579	4.61046E+10	6.446133E-6	155131.765049	19.78153	0.857833	0	0
0	0	0	35.054326	6.440844	22.837572	6.440844	3.595446E+10	5.514909E-6	181326.654498	19.98786	0.854779	0	0
0	0	0	34.431364	6.440832	22.006067	6.440832	2.792956E+10	4.265532E-6	234437.3524	19.828423	0.854541	0	0
0	0	0	33.820326	6.441076	21.189978	6.441076	2.180091E+10	3.652625E-6	273775.743446	19.913779	0.851646	0	0
0	0	0	33.205327	6.441112	20.368998	6.441112	1.698977E+10	2.889058E-6	346133.581239	19.905168	0.850971	0	0
0	0	0	32.591758	6.441248	19.549723	6.441248	1.324805E+10	2.384082E-6	419448.727212	19.826732	0.84875	0	0
0	0	0	31.975493	6.441427	18.726754	6.441427	1.03191E+10	2.010698E-6	497339.788635	19.972521	0.847402	0	0
0	0	0	31.354981	6.441371	17.898595	6.441371	8.023866E+9	1.523763E-6	656269.920767	19.77072	0.845974	0	0
0	0	0	30.726587	6.441783	17.058925	6.441783	6.219245E+9	1.451826E-6	688787.836969	19.99472	0.843634	0	0
0	0	0	30.095131	6.441918	16.215736	6.441918	4.814513E+9	1.215335E-6	822818.680065	19.779997	0.842801	0	0
0	0	0	29.458407	6.441989	15.365647	6.441989	3.719114E+9	9.808825E-7	1019490.130853	19.96433	0.840025	0	0
0	0	0	28.808779	6.442039	14.498374	6.442039	2.857949E+9	7.781788E-7	1285051.660011	19.840276	0.83935	0	0
0	0	0	28.143836	6.442089	13.610657	6.442089	2.182594E+9	6.141673E-7	1628220.835951	19.898114	0.836852	0	0
0	0	0	27.466194	6.442082	12.706114	6.442082	1.658269E+9	4.644673E-7	2153004.211658	19.912235	0.836058	0	0
0	0	0	26.781609	6.44209	11.792271	6.44209	1.256362E+9	3.536027E-7	2828032.700594	19.822611	0.833837	0	0
0	0	0	26.080445	6.442473	10.855407	6.442473	9.454867E+8	3.581967E-7	2791762.503272	19.971722	0.832291	0	0
0	0	0	25.365968	6.442487	9.90163	6.442487	7.077043E+8	2.716134E-7	3681703.747353	19.770067	0.831021	0	0
0	0	0	24.66215	6.442445	8.962218	6.442445	5.320163E+8	1.96542E-7	5087971.288148	19.989867	0.828523	0	0
0	0	0	23.971807	6.442431	8.040728	6.442431	4.021341E+8	1.46732E-7	6815148.024175	19.771356	0.828245	0	0
0	0	0	23.286079	6.442814	7.124402	6.442814	3.045295E+8	1.666537E-7	6000465.586297	19.957303	0.824993	0	0
0	0	0	22.607743	6.442672	6.219251	6.442672	2.313073E+8	1.068154E-7	9361943.825104	19.819902	0.824874	0	0
0	0	0	21.939411	6.442566	5.327375	6.442566	1.76405E+8	7.292141E-8	1.371339E+7	19.875806	0.822097	0	0
0	0	0	21.276306	6.442828	4.441519	6.442828	1.348195E+8	7.517695E-8	1.330195E+7	19.903403	0.821344	0	0
0	0	0	20.631701	6.442729	3.581297	6.442729	1.038131E+8	5.113702E-8	1.95553E+7	19.801237	0.819242	0	0
0	0	0	20.004043	6.442871	2.743058	6.442871	8.048876E+7	4.757431E-8	2.101975E+7	19.959812	0.817933	0	0
0	0	0	19.394761	6.443006	1.92936	6.443006	6.287154E+7	4.587401E-8	2.179884E+7	19.75124	0.816783	0	0
0	0	0	18.802916	6.442807	1.139846	6.442807	4.945877E+7	2.6821E-8	3.728422E+7	19.994045	0.813967	0	0
0	0	0	18.238268	6.442984	0.385606	6.442984	3.933883E+7	2.767916E-8	3.612827E+7	19.776259	0.813689	0	0
0	0	0	17.699185	6.442984	-0.334021	6.442984	3.161554E+7	2.224506E-8	4.495379E+7	19.960706	0.810635	0	0
0	0	0	17.181172	6.442793	-1.024979	6.442793	2.562655E+7	1.364683E-8	7.327707E+7	19.843616	0.810675	0	0
0	0	0	16.680679	6.442956	-1.693552	6.442956	2.092013E+7	1.405095E-8	7.116958E+7	19.879938	0.808017	0	0
0	0	0	16.197746	6.443055	-2.33851	6.443055	1.720008E+7	1.37368E-8	7.279718E+7	19.93403	0.807026	0	0
0	0	0	15.731147	6.443247	-2.961935	6.443247	1.42355E+7	1.789477E-8	5.588226E+7	19.804941	0.805519	0	0
0	0	0	15.286845	6.443134	-3.554711	6.443134	1.188888E+7	1.115185E-8	8.967123E+7	19.993358	0.803456	0	0
0	0	0	14.86194	6.443112	-4.121861	6.443112	1.000748E+7	8.960663E-9	1.115989E+8	19.776537	0.802584	0	0
0	0	0	14.448265	6.443226	-4.674419	6.443226	8462244.5	9.999789E-9	1.000021E+8	20.010942	0.799887	0	0
0	0	0	14.050027	6.443105	-5.205675	6.443105	7200531.75	6.351171E-9	1.574513E+8	19.785809	0.799768	0	0
0	0	0	13.665877	6.443212	-5.718803	6.443212	6162036.75	7.001808E-9	1.428203E+8	19.962796	0.796674	0	0
0	0	0	13.296224	6.443233	-6.212325	6.443233	5304403.75	6.396014E-9	1.563474E+8	19.851424	0.796317	0	0
0	0	0	12.939068	6.443261	-6.689188	6.443261	4589328.5	6.025237E-9	1.659686E+8	19.880583	0.793858	0	0
0	0	0	12.588771	6.443254	-7.156785	6.443254	3981711	5.113968E-9	1.955429E+8	19.922848	0.793144	0	0
0	0	0	12.248766	6.443311	-7.610841	6.443311	3468983.75	5.39244E-9	1.854448E+8	19.789897	0.791399	0	0
0	0	0	11.912232	6.443261	-8.059935	6.443261	3026537.25	3.973484E-9	2.516683E+8	19.970997	0.789614	0	0
0	0	0	11.589337	6.443155	-8.490643	6.443155	2655164	2.615018E-9	3.824066E+8	19.760614	0.788385	0	0
0	0	0	11.271832	6.443325	-8.915019	6.443325	2334456.75	3.83023E-9	2.610809E+8	19.979885	0.786164	0	0
0	0	0	10.964129	6.443134	-9.325178	6.443134	2060658.25	1.93292E-9	5.17352E+8	19.767359	0.785807	0	0
0	0	0	10.66349	6.44324	-9.726843	6.44324	1824190.25	2.245387E-9	4.453575E+8	19.937623	0.782872	0	0
0	0	0	10.36967	6.443396	-10.119565	6.443396	1619328.75	3.677206E-9	2.719456E+8	19.838572	0.782475	0	0
0	0	0	10.080139	6.443488	-10.506364	6.443488	1439975	6.529815E-9	1.531437E+8	19.86254	0.779976	0	0
0	0	0	9.798857	6.443389	-10.881539	6.443389	1284775.75	2.809601E-9	3.559224E+8	19.908365	0.779302	0	0
0	0	0	9.52129	6.443297	-11.251773	6.443297	1148032	1.695447E-9	5.898151E+8	19.789057	0.777478	0	0
0	0	0	9.250748	6.443474	-11.613502	6.443474	1028768	4.044767E-9	2.47233E+8	19.981568	0.775455	0	0
0	0	0	8.988618	6.443503	-11.96352	6.443503	925043.5	4.954694E-9	2.018288E+8	19.754153	0.77486	0	0
0	0	0	8.728856	6.443638	-12.310726	6.443638	832576	-6.184947E-9	-1.616829E+8	19.984429	0.772282	0	0
0	0	0	8.479345	6.443368	-12.642925	6.443368	752472	1.481203E-9	6.751268E+8	19.757649	0.772282	0	0
0	0	0	8.230691	6.443567	-12.975515	6.443567	680311.75	1.971968E-8	5.071076E+7	19.926591	0.769307	0	0
0	0	0	7.985753	6.443552	-13.302445	6.443552	615998.75	9.016164E-9	1.109119E+8	19.819798	0.768911	0	0
0	0	0	7.74449	6.443716	-13.625057	6.443716	558597.25	-1.742148E-9	-5.74004E+8	19.849531	0.766332	0	0
0	0	0	7.508536	6.443652	-13.93983	6.443652	507636	-3.013824E-9	-3.318044E+8	19.894783	0.765619	0	0
0	0	0	7.271603	6.443531	-14.25572	6.443531	461141	3.873335E-9	2.581755E+8	19.774793	0.763675	0	0
0	0	0	7.028584	6.443645	-14.580516	6.443645	417872.25	-2.757784E-9	-3.6261E+8	19.954297	0.762049	0	0
0	0	0	6.787812	6.44368	-14.902053	6.44368	379008.25	-1.605417E-9	-6.228912E+8	19.731617	0.761256	0	0
0	0	0	6.561618	6.443645	-15.20389	6.443645	345796.75	-2.282115E-9	-4.3819E+8	19.968512	0.758916	0	0
0	0	0	6.335505	6.443645	-15.505736	6.443645	315506	-2.082209E-9	-4.802593E+8	19.753758	0.758598	0	0
0	0	0	6.104779	6.443496	-15.813236	6.443496	287330.5	1.41117E-9	7.086316E+8	19.932399	0.755901	0	0
0	0	0	5.881321	6.44373	-16.112338	6.44373	262443.5	-7.404045E-10	-1.350613E+9	19.820347	0.755743	0	0
0	0	0	5.657496	6.443701	-16.411036	6.443701	239676.25	-8.356485E-10	-1.196675E+9	19.854895	0.753165	0	0
0	0	0	5.429954	6.443517	-16.714157	6.443517	218554.75	1.429605E-9	6.994939E+8	19.902187	0.752332	0	0
0	0	0	5.197961	6.443559	-17.023999	6.443559	198935	3.86956E-9	2.584273E+8	19.778798	0.750587	0	0
0	0	0	4.95674	6.443723	-17.346581	6.443723	180400.5	-5.344433E-10	-1.871106E+9	19.959178	0.749119	0	0
0	0	0	4.719928	6.443567	-17.662169	6.443567	163885.25	4.750438E-9	2.105069E+8	19.731466	0.748247	0	0
0	0	0	4.49206	6.443652	-17.966656	6.443652	149423	-8.871205E-10	-1.127243E+9	19.955758	0.745867	0	0
0	0	0	4.278975	6.443531	-18.250691	6.443531	137056	1.151197E-9	8.68661E+8	19.735017	0.745629	0	0
0	0	0	4.082102	6.44378	-18.514376	6.44378	126541.5	-2.67621E-10	-3.736627E+9	19.915035	0.742654	0	0
0	0	0	3.89993	6.443701	-18.757292	6.443701	117532	-4.097837E-10	-2.440312E+9	19.783961	0.742694	0	0
0	0	0	3.732949	6.443638	-18.979977	6.443638	109838.5	-8.159546E-10	-1.225558E+9	19.824357	0.740235	0	0
0	0	0	3.571195	6.443694	-19.19611	6.443694	102866.5	-3.811233E-10	-2.623823E+9	19.870503	0.739442	0	0
0	0	0	3.422346	6.443694	-19.394815	6.443694	96842	-3.588024E-10	-2.78705E+9	19.75381	0.737895	0	0
0	0	0	3.277131	6.443829	-19.589148	6.443829	91305.25	-1.544361E-10	-6.475171E+9	19.928759	0.736229	0	0
0	0	0	3.142248	6.443701	-19.768757	6.443701	86446	-3.014002E-10	-3.317848E+9	19.713789	0.735436	0	0
0	0	0	3.012061	6.443517	-19.941892	6.443517	82001.5	5.363864E-10	1.864328E+9	19.951696	0.733056	0	0
0	0	0	2.895962	6.443531	-20.096926	6.443531	78231.25	6.571008E-10	1.521837E+9	19.720737	0.732778	0	0
0	0	0	2.778924	6.443609	-20.253443	6.443609	74605.75	-1.114042E-9	-8.976322E+8	19.914231	0.730002	0	0
0	0	0	2.678303	6.443843	-20.388606	6.443843	71623.5	-1.145903E-10	-8.72674E+9	19.78626	0.729764	0	0
0	0	0	2.591403	6.44363	-20.50385	6.44363	69143.75	-5.874462E-10	-1.702284E+9	19.837241	0.727662	0	0
0	0	0	2.521327	6.443787	-20.597957	6.443787	67207	-1.372272E-10	-7.287183E+9	19.870841	0.726789	0	0
0	0	0	2.470567	6.443439	-20.66447	6.443439	65838	1.942689E-10	5.147504E+9	19.758136	0.725243	0	0
0	0	0	2.429363	6.443382	-20.719271	6.443382	64747.25	1.365425E-10	7.323729E+9	19.92802	0.723815	0	0
0	0	0	2.393305	6.443687	-20.768504	6.443687	63807.75	-2.522123E-10	-3.964914E+9	19.714955	0.722744	0	0
0	0	0	2.36333	6.443907	-20.809309	6.443907	63037	-8.110356E-11	-1.232992E+10	19.94152	0.720642	0	0
0	0	0	2.354306	6.443581	-20.820183	6.443581	62806.75	9.284743E-8	1.077036E+7	19.706533	0.720602	0	0
0	0	0	2.335235	6.443616	-20.845769	6.443616	62323	-7.430039E-10	-1.345888E+9	19.913749	0.717707	0	0
0	0	0	2.307262	6.443673	-20.883315	6.443673	61620	-2.811519E-10	-3.556796E+9	19.753772	0.717865	0	0
0	0	0	2.292397	6.443595	-20.902878	6.443595	61249.75	-1.847875E-9	-5.411621E+8	19.825263	0.715168	0	0
0	0	0	2.285006	6.443744	-20.913281	6.443744	61066.5	-1.572735E-10	-6.35835E+9	19.836639	0.714613	0	0
0	0	0	2.281984	6.443772	-20.917418	6.443772	60991.75	-1.337752E-10	-7.475227E+9	19.747396	0.712947	0	0
0	0	0	2.275491	6.443616	-20.925523	6.443616	60831.5	-7.252225E-10	-1.378887E+9	19.904415	0.711519	0	0
0	0	0	2.265935	6.443758	-20.938791	6.443758	60596.25	-1.435574E-10	-6.965855E+9	19.698588	0.710528	0	0
0	0	0	2.256298	6.443694	-20.951426	6.443694	60360	-2.236355E-10	-4.471562E+9	19.932715	0.708346	0	0
0	0	0	2.2447	6.443709	-20.96696	6.443709	60076.75	-1.977992E-10	-5.055633E+9	19.702289	0.708346	0	0
0	0	0	2.236002	6.443801	-20.978904	6.443801	59865.25	-1.1434E-10	-8.745845E+9	19.922168	0.705451	0	0
0	0	0	2.228692	6.443645	-20.988099	6.443645	59688.25	-3.939175E-10	-2.538603E+9	19.752215	0.705689	0	0
0	0	0	2.22224	6.443716	-20.996968	6.443716	59532.25	-1.856686E-10	-5.385942E+9	19.826823	0.703309	0	0
0	0	0	2.217095	6.443772	-21.004042	6.443772	59408.25	-1.303021E-10	-7.674476E+9	19.818948	0.702913	0	0
0	0	0	2.214277	6.443567	-21.007061	6.443567	59340.25	1.72006E-9	5.813751E+8	19.752134	0.700811	0	0
0	0	0	2.2115	6.443758	-21.011459	6.443758	59273.5	-1.404237E-10	-7.121305E+9	19.897881	0.69966	0	0
0	0	0	2.209826	6.443886	-21.014155	6.443886	59233.5	-8.153189E-11	-1.226514E+10	19.697077	0.698709	0	0
0	0	0	2.206436	6.443709	-21.01804	6.443709	59152	-1.947545E-10	-5.13467E+9	19.92114	0.696725	0	0
0	0	0	2.204476	6.443687	-21.02058	6.443687	59105	-2.336238E-10	-4.280386E+9	19.682579	0.696488	0	0
0	0	0	2.200066	6.443751	-21.026698	6.443751	58999.5	-1.456082E-10	-6.867744E+9	19.909164	0.693592	0	0
0	0	0	2.193818	6.443787	-21.035166	6.443787	58850.25	-1.201639E-10	-8.321964E+9	19.730345	0.693672	0	0
0	0	0	2.188346	6.443787	-21.042471	6.443787	58719.75	-1.198975E-10	-8.340459E+9	19.824029	0.69149	0	0
0	0	0	2.181608	6.443659	-21.051006	6.443659	58559.5	-3.159448E-10	-3.16511E+9	19.786143	0.691054	0	0
0	0	0	2.172419	6.443545	-21.062862	6.443545	58341.75	6.844998E-10	1.460921E+9	19.733132	0.68919	0	0
0	0	0	2.16805	6.443588	-21.068848	6.443588	58238.5	-3.587264E-9	-2.78764E+8	19.863729	0.688079	0	0
0	0	0	2.163109	6.443751	-21.076034	6.443751	58122	-1.434426E-10	-6.97143E+9	19.684336	0.68681	0	0
0	0	0	2.156738	6.443737	-21.084487	6.443737	57972	-1.561027E-10	-6.40604E+9	19.910196	0.684906	0	0
0	0	0	2.152614	6.443687	-21.089813	6.443687	57875.25	-2.287629E-10	-4.371337E+9	19.669874	0.684668	0	0
0	0	0	2.150163	6.443652	-21.092956	6.443652	57817.75	-3.432624E-10	-2.913223E+9	19.902051	0.682051	0	0
0	0	0	2.146733	6.443751	-21.097894	6.443751	57737.5	-1.424937E-10	-7.017856E+9	19.695012	0.682328	0	0
0	0	0	2.144283	6.443709	-21.101011	6.443709	57680	-1.89908E-10	-5.265707E+9	19.829402	0.679552	0	0
0	0	0	2.142813	6.44346	-21.102077	6.44346	57645.75	2.000424E-10	4.99894E+9	19.771271	0.679314	0	0
0	0	0	2.140894	6.44373	-21.105613	6.44373	57601	-1.625037E-10	-6.153708E+9	19.737023	0.677331	0	0
0	0	0	2.139668	6.443595	-21.106762	6.443595	57572.25	-1.736927E-9	-5.757295E+8	19.84863	0.6763	0	0
0	0	0	2.138117	6.443517	-21.108551	6.443517	57536	3.763532E-10	2.657078E+9	19.665265	0.675229	0	0
0	0	0	2.137382	6.443765	-21.110429	6.443765	57518.75	-1.310175E-10	-7.632571E+9	19.881338	0.673563	0	0
0	0	0	2.136769	6.443694	-21.110991	6.443694	57504.5	-2.130558E-10	-4.693606E+9	19.650669	0.673008	0	0
0	0	0	2.13583	6.443737	-21.112398	6.443737	57482.75	-1.547853E-10	-6.460564E+9	19.897129	0.67043	0	0
0	0	0	2.135421	6.443517	-21.112149	6.443517	57473.25	3.759428E-10	2.659979E+9	19.684243	0.670509	0	0
0	0	0	2.134891	6.443794	-21.113857	6.443794	57460.75	-1.134107E-10	-8.817513E+9	19.832772	0.667931	0	0
0	0	0	2.134972	6.443559	-21.112903	6.443559	57462.75	1.117731E-9	8.946698E+8	19.731778	0.66797	0	0
0	0	0	2.135054	6.443666	-21.113178	6.443666	57464.75	-2.841154E-10	-3.519697E+9	19.749447	0.66567	0	0
0	0	0	2.134931	6.443595	-21.113085	6.443595	57461.75	-1.733593E-9	-5.768366E+8	19.807076	0.665234	0	0
0	0	0	2.134646	6.443886	-21.114517	6.443886	57455.25	-7.908422E-11	-1.264475E+10	19.667593	0.663846	0	0
0	0	0	2.134972	6.44363	-21.113159	6.44363	57462.75	-4.882043E-10	-2.048323E+9	19.864469	0.662021	0	0
0	0	0	2.134768	6.443886	-21.114353	6.443886	57458	-7.908801E-11	-1.264414E+10	19.625742	0.661664	0	0
0	0	0	2.133706	6.443638	-21.114874	6.443638	57433.25	-4.266529E-10	-2.343826E+9	19.876823	0.659007	0	0
0	0	0	2.133829	6.443744	-21.115095	6.443744	57436	-1.479233E-10	-6.760258E+9	19.643404	0.659403	0	0
0	0	0	2.134686	6.443716	-21.113848	6.443716	57456	-1.791932E-10	-5.58057E+9	19.833966	0.656746	0	0
0	0	0	2.133747	6.443865	-21.115639	6.443865	57434.25	-8.49904E-11	-1.176603E+10	19.699716	0.656786	0	0
0	0	0	2.133829	6.44363	-21.114685	6.44363	57436	-4.87977E-10	-2.049277E+9	19.750583	0.654366	0	0
0	0	0	2.134482	6.443652	-21.11389	6.443652	57451.25	-3.410865E-10	-2.931808E+9	19.780248	0.653851	0	0
0	0	0	2.132685	6.443538	-21.115879	6.443538	57409.5	5.620452E-10	1.779216E+9	19.660335	0.652423	0	0
0	0	0	2.13342	6.443694	-21.115461	6.443694	57426.5	-2.127668E-10	-4.699981E+9	19.845463	0.650797	0	0
0	0	0	2.132645	6.443701	-21.116522	6.443701	57408.5	-2.001588E-10	-4.996032E+9	19.619863	0.650202	0	0
0	0	0	2.133543	6.44346	-21.114452	6.44346	57429.5	1.99292E-10	5.017763E+9	19.860108	0.647981	0	0
0	0	0	2.134237	6.443787	-21.114704	6.443787	57445.5	-1.172956E-10	-8.525466E+9	19.612329	0.648139	0	0
0	0	0	2.133298	6.444092	-21.117059	6.444092	57423.75	-4.718726E-11	-2.119216E+10	19.826007	0.645363	0	0
0	0	0	2.134156	6.443765	-21.114736	6.443765	57443.75	-1.308466E-10	-7.642536E+9	19.659876	0.645839	0	0
0	0	0	2.132767	6.443673	-21.116256	6.443673	57411.25	-2.619488E-10	-3.81754E+9	19.748956	0.643142	0	0
0	0	0	2.132563	6.443623	-21.116349	6.443623	57406.75	-5.695621E-10	-1.755735E+9	19.74999	0.642745	0	0
0	0	0	2.132522	6.443666	-21.116558	6.443666	57405.75	-2.838237E-10	-3.523314E+9	19.666212	0.641119	0	0
0	0	0	2.131297	6.443701	-21.118321	6.443701	57377.25	-2.000499E-10	-4.998753E+9	19.813362	0.63981	0	0
0	0	0	2.130154	6.443751	-21.120027	6.443751	57350.5	-1.415386E-10	-7.065212E+9	19.611431	0.639096	0	0
0	0	0	2.129173	6.443709	-21.121182	6.443709	57327.75	-1.887483E-10	-5.298062E+9	19.844003	0.637113	0	0
0	0	0	2.127744	6.443851	-21.123602	6.443851	57294.5	-8.92506E-11	-1.120441E+10	19.601313	0.637034	0	0
0	0	0	2.1246	6.443666	-21.127134	6.443666	57221.5	-2.829127E-10	-3.534659E+9	19.834065	0.634297	0	0
0	0	0	2.123211	6.443701	-21.129115	6.443701	57189.5	-1.993953E-10	-5.015164E+9	19.653492	0.634416	0	0
0	0	0	2.119822	6.443815	-21.13405	6.443815	57110.75	-1.024602E-10	-9.75989E+9	19.773974	0.632116	0	0
0	0	0	2.118229	6.44378	-21.136048	6.44378	57074	-1.207051E-10	-8.284656E+9	19.722807	0.631957	0	0
0	0	0	2.115575	6.443623	-21.139028	6.443623	57012.5	-5.656506E-10	-1.767876E+9	19.6812	0.630291	0	0
0	0	0	2.115371	6.443694	-21.139556	6.443694	57007.75	-2.112153E-10	-4.734505E+9	19.793311	0.629419	0	0
0	0	0	2.114105	6.443815	-21.141682	6.443815	56978.5	-1.022229E-10	-9.782544E+9	19.622823	0.62815	0	0
0	0	0	2.11239	6.443701	-21.143561	6.443701	56939	-1.985219E-10	-5.037228E+9	19.846126	0.626524	0	0
0	0	0	2.109899	6.44346	-21.146016	6.44346	56881.5	1.973903E-10	5.066105E+9	19.594895	0.626365	0	0
0	0	0	2.109123	6.443843	-21.148435	6.443843	56863.5	-9.097583E-11	-1.099193E+10	19.839554	0.623747	0	0
0	0	0	2.105815	6.44368	-21.152261	6.44368	56787.5	-2.405424E-10	-4.15727E+9	19.613458	0.623985	0	0
0	0	0	2.104427	6.443474	-21.153372	6.443474	56755.5	2.231436E-10	4.481418E+9	19.773188	0.621526	0	0
0	0	0	2.104181	6.443623	-21.154237	6.443623	56749.75	-5.630437E-10	-1.776061E+9	19.669392	0.621566	0	0
0	0	0	2.10018	6.443808	-21.160246	6.443808	56657.75	-1.048279E-10	-9.539444E+9	19.68947	0.619543	0	0
0	0	0	2.095442	6.443851	-21.166723	6.443851	56549.25	-8.808968E-11	-1.135207E+10	19.744049	0.619027	0	0
0	0	0	2.095361	6.443843	-21.166807	6.443843	56547.25	-9.046986E-11	-1.10534E+10	19.605472	0.617639	0	0
0	0	0	2.092951	6.443737	-21.169639	6.443737	56492	-1.521174E-10	-6.573868E+9	19.793859	0.616251	0	0
0	0	0	2.094095	6.443701	-21.167984	6.443701	56518.25	-1.970549E-10	-5.074728E+9	19.565631	0.615815	0	0
0	0	0	2.094013	6.443716	-21.168144	6.443716	56516.25	-1.762623E-10	-5.673363E+9	19.81462	0.613514	0	0
0	0	0	2.09287	6.443638	-21.169389	6.443638	56490.25	-4.196477E-10	-2.382951E+9	19.579151	0.613713	0	0
0	0	0	2.095565	6.443517	-21.165355	6.443517	56552	3.699167E-10	2.703311E+9	19.786096	0.611135	0	0
0	0	0	2.094422	6.443666	-21.16742	6.443666	56525.75	-2.794728E-10	-3.578166E+9	19.629038	0.611571	0	0
0	0	0	2.096545	6.443595	-21.164329	6.443595	56574.25	-1.706818E-9	-5.858857E+8	19.721669	0.609152	0	0
0	0	0	2.099281	6.44346	-21.160189	6.44346	56637.25	1.965427E-10	5.087952E+9	19.720769	0.608914	0	0
0	0	0	2.100261	6.443346	-21.158471	6.443346	56659.75	1.014049E-10	9.861455E+9	19.637309	0.607327	0	0
0	0	0	2.10022	6.443765	-21.160037	6.443765	56658.75	-1.290585E-10	-7.748423E+9	19.774894	0.606455	0	0
0	0	0	2.103569	6.443843	-21.155849	6.443843	56735.75	-9.077144E-11	-1.101668E+10	19.566216	0.605661	0	0
0	0	0	2.103201	6.443453	-21.15493	6.443453	56727.25	1.859429E-10	5.377995E+9	19.80108	0.60352	0	0
0	0	0	2.105652	6.443524	-21.151916	6.443524	56783.75	4.176307E-10	2.39446E+9	19.540812	0.603559	0	0
0	0	0	2.103896	6.443865	-21.15549	6.443865	56743.25	-8.396787E-11	-1.190932E+10	19.772039	0.601179	0	0
0	0	0	2.105284	6.443609	-21.152714	6.443609	56775.25	-8.4779E-10	-1.179537E+9	19.578124	0.601497	0	0
0	0	0	2.105815	6.443638	-21.152108	6.443638	56787.5	-4.218559E-10	-2.370478E+9	19.717347	0.598958	0	0
0	0	0	2.105856	6.443694	-21.152258	6.443694	56788.5	-2.10403E-10	-4.752784E+9	19.652555	0.599038	0	0
0	0	0	2.108183	6.44363	-21.14892	6.44363	56842	-4.829304E-10	-2.070692E+9	19.616468	0.597293	0	0
0	0	0	2.106836	6.443645	-21.15077	6.443645	56811	-3.749288E-10	-2.667173E+9	19.717427	0.59646	0	0
0	0	0	2.108061	6.443616	-21.149033	6.443616	56839.25	-6.776276E-10	-1.475737E+9	19.55382	0.595468	0	0
0	0	0	2.11092	6.443701	-21.145524	6.443701	56905	-1.984033E-10	-5.040238E+9	19.782492	0.593763	0	0
0	0	0	2.113247	6.443929	-21.143237	6.443929	56958.75	-6.879287E-11	-1.453639E+10	19.52982	0.593485	0	0
0	0	0	2.114636	6.443751	-21.140743	6.443751	56991	-1.406513E-10	-7.10978E+9	19.777292	0.591343	0	0
0	0	0	2.114595	6.443879	-21.141258	6.443879	56990	-8.031332E-11	-1.245123E+10	19.552208	0.591423	0	0
0	0	0	2.11243	6.443602	-21.143148	6.443602	56940	-1.137497E-9	-8.791234E+8	19.726852	0.589202	0	0
0	0	0	2.11239	6.443829	-21.144023	6.443829	56939	-9.63081E-11	-1.038334E+10	19.613075	0.58936	0	0
0	0	0	2.111205	6.443588	-21.144732	6.443588	56911.75	-3.505541E-9	-2.852626E+8	19.648798	0.587258	0	0
0	0	0	2.109613	6.443595	-21.146884	6.443595	56875	-1.715891E-9	-5.827875E+8	19.699884	0.586822	0	0
0	0	0	2.108796	6.443701	-21.148359	6.443701	56856.25	-1.982334E-10	-5.044559E+9	19.563841	0.585394	0	0
0	0	0	2.103773	6.443737	-21.155192	6.443737	56740.5	-1.527866E-10	-6.545077E+9	19.745148	0.584283	0	0
0	0	0	2.104386	6.443716	-21.154298	6.443716	56754.5	-1.770053E-10	-5.649547E+9	19.518024	0.583688	0	0
0	0	0	2.100588	6.44351	-21.158624	6.44351	56667.25	3.337512E-10	2.996244E+9	19.765054	0.581705	0	0
0	0	0	2.098914	6.443936	-21.162397	6.443936	56628.75	-6.702533E-11	-1.491973E+10	19.516171	0.581824	0	0
0	0	0	2.097607	6.44373	-21.163398	6.44373	56598.75	-1.596761E-10	-6.262677E+9	19.740831	0.579405	0	0
0	0	0	2.09483	6.44378	-21.167285	6.44378	56535	-1.195652E-10	-8.363641E+9	19.549975	0.579841	0	0
0	0	0	2.094626	6.443673	-21.167173	6.443673	56530.25	-2.579291E-10	-3.877035E+9	19.658843	0.577382	0	0
0	0	0	2.092992	6.443666	-21.169328	6.443666	56493	-2.793109E-10	-3.58024E+9	19.619983	0.577343	0	0
0	0	0	2.089358	6.443709	-21.174333	6.443709	56409.75	-1.857258E-10	-5.384282E+9	19.584611	0.575399	0	0
0	0	0	2.08899	6.443716	-21.17485	6.443716	56401.5	-1.759044E-10	-5.684906E+9	19.68711	0.574725	0	0
0	0	0	2.088459	6.443709	-21.175533	6.443709	56389.25	-1.856583E-10	-5.386239E+9	19.503348	0.573852	0	0
0	0	0	2.086785	6.443496	-21.176999	6.443496	56351	2.767576E-10	3.61327E+9	19.732009	0.572147	0	0
0	0	0	2.086989	6.443836	-21.177957	6.443836	56355.75	-9.267081E-11	-1.079088E+10	19.475913	0.572147	0	0
0	0	0	2.085887	6.443687	-21.17889	6.443687	56330.5	-2.22657E-10	-4.491212E+9	19.716917	0.569807	0	0
0	0	0	2.083559	6.443517	-21.181382	6.443517	56277.25	3.681195E-10	2.716509E+9	19.49763	0.570203	0	0
0	0	0	2.079353	6.443659	-21.18751	6.443659	56181.5	-3.031148E-10	-3.29908E+9	19.679127	0.567427	0	0
0	0	0	2.080945	6.443645	-21.185333	6.443645	56217.75	-3.710136E-10	-2.695319E+9	19.565018	0.567982	0	0
0	0	0	2.079026	6.44363	-21.187844	6.44363	56174	-4.77255E-10	-2.095316E+9	19.578604	0.566079	0	0
0	0	0	2.078373	6.443701	-21.188972	6.443701	56159	-1.958024E-10	-5.107191E+9	19.652021	0.565325	0	0
0	0	0	2.078495	6.443815	-21.189219	6.443815	56161.75	-1.007576E-10	-9.924809E+9	19.512633	0.564214	0	0
0	0	0	2.079394	6.443602	-21.18725	6.443602	56182.5	-1.122364E-9	-8.909765E+8	19.716064	0.562787	0	0
0	0	0	2.080455	6.443467	-21.185346	6.443467	56206.5	2.07208E-10	4.826068E+9	19.477226	0.562271	0	0
0	0	0	2.081231	6.44368	-21.185079	6.44368	56224.25	-2.381566E-10	-4.198918E+9	19.719424	0.560328	0	0
0	0	0	2.082293	6.443538	-21.183149	6.443538	56248.5	5.506789E-10	1.81594E+9	19.456884	0.560605	0	0
0	0	0	2.083028	6.443616	-21.18245	6.443616	56265.25	-6.707844E-10	-1.490792E+9	19.682945	0.558344	0	0
0	0	0	2.084539	6.443751	-21.18092	6.443751	56299.75	-1.389454E-10	-7.197074E+9	19.502473	0.558503	0	0
0	0	0	2.086622	6.443701	-21.17796	6.443701	56347.25	-1.964587E-10	-5.090128E+9	19.604878	0.556322	0	0
0	0	0	2.089521	6.443659	-21.173936	6.443659	56413.5	-3.043665E-10	-3.285512E+9	19.571543	0.556203	0	0
0	0	0	2.090379	6.443645	-21.17274	6.443645	56433.25	-3.724358E-10	-2.685026E+9	19.521491	0.554418	0	0
0	0	0	2.091481	6.443673	-21.17137	6.443673	56458.5	-2.576017E-10	-3.881962E+9	19.644956	0.553783	0	0
0	0	0	2.091931	6.443666	-21.170745	6.443666	56468.75	-2.79191E-10	-3.581778E+9	19.449593	0.553149	0	0
0	0	0	2.093115	6.443765	-21.169523	6.443765	56495.75	-1.286872E-10	-7.770778E+9	19.671631	0.551443	0	0
0	0	0	2.092747	6.443609	-21.16945	6.443609	56487.5	-8.434932E-10	-1.185546E+9	19.418958	0.551285	0	0
0	0	0	2.093646	6.443737	-21.168712	6.443737	56508	-1.521605E-10	-6.572007E+9	19.680331	0.549024	0	0
0	0	0	2.097688	6.443701	-21.163187	6.443701	56600.5	-1.973417E-10	-5.067353E+9	19.457806	0.549301	0	0
0	0	0	2.095892	6.44363	-21.165329	6.44363	56559.5	-4.805302E-10	-2.081035E+9	19.617145	0.54716	0	0
0	0	0	2.096586	6.443879	-21.165299	6.443879	56575.5	-7.972918E-11	-1.254246E+10	19.521202	0.54712	0	0
0	0	0	2.099649	6.443673	-21.160468	6.443673	56645.5	-2.584549E-10	-3.869147E+9	19.546991	0.545097	0	0
0	0	0	2.101323	6.443709	-21.158361	6.443709	56684	-1.866288E-10	-5.358231E+9	19.59014	0.544899	0	0
0	0	0	2.101854	6.443971	-21.1586	6.443971	56696.25	-6.100031E-11	-1.639336E+10	19.462656	0.54359	0	0
0	0	0	2.103324	6.443758	-21.155869	6.443758	56730.25	-1.343985E-10	-7.440558E+9	19.644416	0.54244	0	0
0	0	0	2.104998	6.44395	-21.154325	6.44395	56768.5	-6.460449E-11	-1.54788E+10	19.393456	0.542162	0	0
0	0	0	2.103896	6.443709	-21.154926	6.443709	56743.25	-1.868238E-10	-5.352636E+9	19.653539	0.54006	0	0
0	0	0	2.102793	6.443808	-21.156757	6.443808	56718	-1.049394E-10	-9.52931E+9	19.395051	0.54014	0	0
0	0	0	2.1012	6.443645	-21.158293	6.443645	56681.25	-3.740725E-10	-2.673278E+9	19.618842	0.537958	0	0
0	0	0	2.097443	6.44363	-21.163258	6.44363	56595	-4.808318E-10	-2.079729E+9	19.435895	0.538196	0	0
0	0	0	2.096096	6.443716	-21.165364	6.443716	56564.25	-1.76412E-10	-5.668549E+9	19.549804	0.535975	0	0
0	0	0	2.093686	6.44373	-21.168632	6.44373	56509	-1.594229E-10	-6.272624E+9	19.493503	0.536134	0	0
0	0	0	2.092747	6.443772	-21.170039	6.443772	56487.5	-1.238959E-10	-8.071293E+9	19.456694	0.534547	0	0
0	0	0	2.092012	6.443538	-21.170175	6.443538	56470.5	5.528523E-10	1.808801E+9	19.568871	0.533833	0	0
0	0	0	2.089766	6.443751	-21.173942	6.443751	56419.25	-1.392403E-10	-7.18183E+9	19.395116	0.532921	0	0
0	0	0	2.087561	6.443701	-21.176706	6.443701	56368.75	-1.965337E-10	-5.088187E+9	19.627178	0.531295	0	0
0	0	0	2.087969	6.443758	-21.176366	6.443758	56378	-1.33564E-10	-7.487046E+9	19.373468	0.531136	0	0
0	0	0	2.084335	6.443758	-21.181218	6.443758	56295	-1.333674E-10	-7.498085E+9	19.6453	0.528915	0	0
0	0	0	2.084172	6.443907	-21.181974	6.443907	56291.25	-7.242446E-11	-1.380749E+10	19.388259	0.529312	0	0
0	0	0	2.082701	6.443567	-21.182707	6.443567	56257.75	1.630709E-9	6.1323E+8	19.590398	0.527011	0	0
0	0	0	2.082171	6.443552	-21.183364	6.443552	56245.75	8.232519E-10	1.214695E+9	19.45777	0.527329	0	0
0	0	0	2.082252	6.443936	-21.184639	6.443936	56247.5	-6.657408E-11	-1.502086E+10	19.514098	0.525227	0	0
0	0	0	2.081109	6.443872	-21.185935	6.443872	56221.5	-8.116464E-11	-1.232064E+10	0	0	0	0
0	0	0	2.079312	6.443822	-21.188154	6.443822	56180.5	-9.78233E-11	-1.022251E+10	0	0	0	0
0	0	0	2.07727	6.443836	-21.190931	6.443836	56134	-9.230616E-11	-1.083351E+10	0	0	0	0
0	0	0	2.075024	6.443581	-21.193007	6.443581	56083	8.290785E-8	1.206158E+7	0	0	0	0
0	0	0	2.07482	6.443709	-21.193741	6.443709	56078.25	-1.846344E-10	-5.41611E+9	0	0	0	0
0	0	0	2.073595	6.443574	-21.194889	6.443574	56050.5	3.186916E-9	3.13783E+8	0	0	0	0
0	0	0	2.073922	6.443801	-21.195273	6.443801	56057.75	-1.070679E-10	-9.339871E+9	0	0	0	0
0	0	0	2.074861	6.443531	-21.193045	6.443531	56079.25	4.710358E-10	2.122981E+9	0	0	0	0
0	0	0	2.075228	6.44368	-21.193093	6.44368	56087.5	-2.375774E-10	-4.209155E+9	0	0	0	0
0	0	0	2.0758	6.443687	-21.192355	6.443687	56100.5	-2.217479E-10	-4.509625E+9	0	0	0	0
0	0	0	2.076331	6.443609	-21.191365	6.443609	56112.5	-8.378935E-10	-1.193469E+9	0	0	0	0
0	0	0	2.077352	6.443623	-21.190053	6.443623	56136	-5.569544E-10	-1.795479E+9	0	0	0	0
0	0	0	2.07919	6.443751	-21.188061	6.443751	56177.75	-1.386443E-10	-7.212703E+9	0	0	0	0
0	0	0	2.08066	6.443737	-21.186048	6.443737	56211.25	-1.513615E-10	-6.606702E+9	0	0	0	0
0	0	0	2.081436	6.443701	-21.184884	6.443701	56229	-1.960464E-10	-5.100833E+9	0	0	0	0
0	0	0	2.083355	6.44373	-21.182424	6.44373	56272.75	-1.587564E-10	-6.298958E+9	0	0	0	0
0	0	0	2.085274	6.443758	-21.179964	6.443758	56316.5	-1.334183E-10	-7.495222E+9	0	0	0	0
0	0	0	2.084988	6.443758	-21.180346	6.443758	56310	-1.334029E-10	-7.496088E+9	0	0	0	0
0	0	0	2.086132	6.443581	-21.178179	6.443581	56336	8.328187E-8	1.200742E+7	0	0	0	0
0	0	0	2.087602	6.443751	-21.176831	6.443751	56369.75	-1.391181E-10	-7.188136E+9	0	0	0	0
0	0	0	2.088623	6.443616	-21.174981	6.443616	56393	-6.723074E-10	-1.487415E+9	0	0	0	0
0	0	0	2.089685	6.44363	-21.173615	6.44363	56417.25	-4.793217E-10	-2.086282E+9	0	0	0	0
0	0	0	2.090542	6.443751	-21.172906	6.443751	56437	-1.392841E-10	-7.179571E+9	0	0	0	0
0	0	0	2.091767	6.443567	-21.170604	6.443567	56465	1.636717E-9	6.109792E+8	0	0	0	0
0	0	0	2.091971	6.443737	-21.170947	6.443737	56469.5	-1.520569E-10	-6.576487E+9	0	0	0	0
0	0	0	2.090787	6.443659	-21.172246	6.443659	56442.5	-3.04523E-10	-3.283824E+9	0	0	0	0
0	0	0	2.096913	6.443737	-21.164351	6.443737	56582.75	-1.523618E-10	-6.563325E+9	0	0	0	0
0	0	0	2.099077	6.443765	-21.161564	6.443765	56632.5	-1.289987E-10	-7.752014E+9	0	0	0	0
0	0	0	2.099036	6.443559	-21.160875	6.443559	56631.5	1.101562E-9	9.07802E+8	0	0	0	0
0	0	0	2.098954	6.443822	-21.161932	6.443822	56629.75	-9.860555E-11	-1.014142E+10	0	0	0	0
0	0	0	2.098914	6.443836	-21.162038	6.443836	56628.75	-9.311973E-11	-1.073886E+10	0	0	0	0
0	0	0	2.097443	6.443588	-21.163104	6.443588	56595	-3.486031E-9	-2.868592E+8	0	0	0	0
0	0	0	2.096504	6.443758	-21.164973	6.443758	56573.5	-1.340272E-10	-7.461173E+9	0	0	0	0
0	0	0	2.095075	6.443623	-21.166394	6.443623	56540.75	-5.609701E-10	-1.782626E+9	0	0	0	0
0	0	0	2.092461	6.443588	-21.169755	6.443588	56480.75	-3.478994E-9	-2.874395E+8	0	0	0	0
0	0	0	2.093727	6.443801	-21.168833	6.443801	56509.75	-1.079312E-10	-9.265165E+9	0	0	0	0
0	0	0	2.089685	6.443567	-21.173385	6.443567	56417.25	1.635333E-9	6.114963E+8	0	0	0	0
0	0	0	2.087643	6.44368	-21.17652	6.44368	56370.5	-2.387761E-10	-4.188024E+9	0	0	0	0
0	0	0	2.088092	6.443822	-21.176433	6.443822	56380.75	-9.817198E-11	-1.018621E+10	0	0	0	0
0	0	0	2.083804	6.443652	-21.181542	6.443652	56283	-3.341506E-10	-2.992662E+9	0	0	0	0
0	0	0	2.083927	6.443701	-21.181558	6.443701	56285.75	-1.962443E-10	-5.09569E+9	0	0	0	0
0	0	0	2.081885	6.443744	-21.184438	6.443744	56239	-1.448405E-10	-6.904145E+9	0	0	0	0
0	0	0	2.080047	6.443808	-21.187122	6.443808	56197.25	-1.039759E-10	-9.617613E+9	0	0	0	0
0	0	0	2.080251	6.443616	-21.186157	6.443616	56202	-6.700304E-10	-1.49247E+9	0	0	0	0
0	0	0	2.08017	6.443559	-21.186061	6.443559	56200	1.093169E-9	9.14772E+8	0	0	0	0
0	0	0	2.078863	6.443751	-21.188497	6.443751	56170.25	-1.386258E-10	-7.213666E+9	0	0	0	0
0	0	0	2.077393	6.443751	-21.19046	6.443751	56136.75	-1.385431E-10	-7.217971E+9	0	0	0	0
0	0	0	2.075637	6.443524	-21.191984	6.443524	56097	4.125798E-10	2.423773E+9	0	0	0	0
0	0	0	2.074902	6.443609	-21.193273	6.443609	56080	-8.374082E-10	-1.194161E+9	0	0	0	0
0	0	0	2.075473	6.44373	-21.192945	6.44373	56093	-1.582493E-10	-6.319143E+9	0	0	0	0
0	0	0	2.073146	6.443524	-21.195309	6.443524	56040.25	4.121624E-10	2.426228E+9	0	0	0	0
0	0	0	2.073309	6.443581	-21.195296	6.443581	56044	8.28502E-8	1.206998E+7	0	0	0	0
0	0	0	2.072656	6.44378	-21.196886	6.44378	56029	-1.18495E-10	-8.439173E+9	0	0	0	0
0	0	0	2.072737	6.443673	-21.196393	6.443673	56031	-2.556512E-10	-3.91158E+9	0	0	0	0
0	0	0	2.072778	6.443694	-21.196415	6.443694	56032	-2.076001E-10	-4.816953E+9	0	0	0	0
0	0	0	2.074452	6.443822	-21.194641	6.443822	56070	-9.76309E-11	-1.024266E+10	0	0	0	0
0	0	0	2.07531	6.443659	-21.192907	6.443659	56089.5	-3.026185E-10	-3.304491E+9	0	0	0	0
0	0	0	2.075637	6.443886	-21.193291	6.443886	56097	-7.721466E-11	-1.295091E+10	0	0	0	0
0	0	0	2.076984	6.443581	-21.19039	6.443581	56127.5	8.297364E-8	1.205202E+7	0	0	0	0
0	0	0	2.077964	6.443545	-21.188953	6.443545	56149.75	6.587819E-10	1.517953E+9	0	0	0	0
0	0	0	2.079475	6.443638	-21.18727	6.443638	56184.25	-4.173745E-10	-2.39593E+9	0	0	0	0
0	0	0	2.079435	6.443723	-21.187632	6.443723	56183.25	-1.66445E-10	-6.007991E+9	0	0	0	0
0	0	0	2.081395	6.443659	-21.184784	6.443659	56228	-3.033657E-10	-3.296352E+9	0	0	0	0
0	0	0	2.082171	6.443758	-21.184107	6.443758	56245.75	-1.332507E-10	-7.50465E+9	0	0	0	0
0	0	0	2.083518	6.44368	-21.182026	6.44368	56276.5	-2.383779E-10	-4.195019E+9	0	0	0	0
0	0	0	2.085315	6.443701	-21.179705	6.443701	56317.5	-1.96355E-10	-5.092817E+9	0	0	0	0
0	0	0	2.085846	6.443801	-21.179355	6.443801	56329.5	-1.075869E-10	-9.294813E+9	0	0	0	0
0	0	0	2.087357	6.443815	-21.177389	6.443815	56364	-1.011205E-10	-9.889196E+9	0	0	0	0
0	0	0	2.08801	6.443794	-21.17644	6.443794	56379	-1.112756E-10	-8.986696E+9	0	0	0	0
0	0	0	2.087071	6.443709	-21.177386	6.443709	56357.5	-1.855538E-10	-5.389273E+9	0	0	0	0
0	0	0	2.088174	6.443574	-21.175427	6.443574	56382.75	3.205807E-9	3.11934E+8	0	0	0	0
0	0	0	2.08997	0	2.08997	0	56423.75	0	0	0	0	0	0
0	0	0	2.093156	0	2.093156	0	56496.75	0	0	0	0	0	0
