Vload_(V)	ILoad_(A)	RsLoad (ohm)	SunsVoc_Voltage_(V)	SunsVoc_Current_(A)	Model_Voltage_(V)	Model_Current_(A)	Carrier_Density_(cm-3)	Lifetime_(s)	Inverse_Lifetime_(s-1)	Efficiency_(%)	Intensity_(suns)	Dark_IV_Voltage_(V)	Dark_IV_Current_(A)
2.664688	6.012449	0	51.855993	-0.216042	51.958954	-0.216042	7.356073E+15	0.000525	1813.568838	19.604978	1.108921	0	0
2.660871	6.012896	-0.454659	52.409328	-0.473931	52.621215	-0.473931	8.962172E+15	0.000615	1493.64374	19.53237	1.10706	0	0
3.442831	6.011768	3.34273	52.537188	-0.348681	52.690701	-0.348681	9.372263E+15	0.000655	1379.931229	19.419172	1.103944	0	0
6.919437	6.009475	3.861193	52.499046	-0.0414	52.517358	-0.0414	9.248314E+15	0.00068	1329.520534	19.310474	1.101105	0	0
10.755202	5.994039	4.619499	52.412432	0.306309	52.275537	0.306309	8.971945E+15	0.000699	1296.086524	19.242198	1.099613	0	0
14.145047	5.989005	4.201225	52.294986	0.666659	51.99287	0.666659	8.608286E+15	0.000716	1272.995268	19.203969	1.098874	0	0
17.862165	5.986526	3.639446	52.17705	1.0041	51.7157	1.0041	8.255609E+15	0.000733	1250.621206	19.171215	1.097923	0	0
21.503757	5.978895	3.174256	52.051927	1.333039	51.430548	1.333039	7.89472E+15	0.000751	1228.973754	19.156884	1.095745	0	0
25.136246	5.973126	2.650805	51.923659	1.634851	51.150415	1.634851	7.53852E+15	0.000766	1211.057718	19.155096	1.092549	0	0
28.687777	5.969699	2.098952	51.79731	1.917743	50.877349	1.917743	7.200839E+15	0.000782	1192.22191	19.158928	1.088272	0	0
32.301252	5.964377	1.552378	51.662264	2.177614	50.601962	2.177614	6.853918E+15	0.000795	1179.78546	19.127645	1.083532	0	0
35.887232	5.945921	1.109241	51.538202	2.404122	50.351711	2.404122	6.547565E+15	0.000807	1167.683006	19.047024	1.079558	0	0
36.956285	5.931735	1.021427	51.412017	2.618953	50.101884	2.618953	6.247714E+15	0.000819	1156.210648	18.983017	1.075993	0	0
38.00269	5.905311	0.973654	51.293224	2.824916	49.862167	2.824916	5.975923E+15	0.000834	1139.780918	18.987915	1.07256	0	0
39.066801	5.871268	0.915159	51.164833	3.024973	49.611727	3.024973	5.693269E+15	0.000848	1125.794	19.026354	1.068467	0	0
40.112513	5.821552	0.868911	51.036729	3.207022	49.368251	3.207022	5.422375E+15	0.00086	1114.25058	19.029541	1.06341	0	0
41.1707	5.755642	0.81671	50.9123	3.379176	49.131843	3.379176	5.169564E+15	0.000873	1100.712879	18.985039	1.057918	0	0
42.215856	5.662924	0.771265	50.790484	3.536616	48.904106	3.536616	4.931602E+15	0.000886	1088.189723	18.93719	1.05228	0	0
43.268846	5.538692	0.721359	50.668873	3.683242	48.680408	3.683242	4.703167E+15	0.000898	1076.574826	18.922252	1.046629	0	0
44.302116	5.358471	0.686395	50.542688	3.823773	48.452632	3.823773	4.475487E+15	0.00091	1066.093131	18.925776	1.041058	0	0
45.31867	5.124929	0.648038	50.426508	3.946903	48.244704	3.946903	4.274022E+15	0.00092	1056.077395	18.897313	1.036344	0	0
46.319942	4.800261	0.620801	50.302079	4.067243	48.026773	4.067243	4.066668E+15	0.00093	1047.820958	18.878873	1.031208	0	0
47.278583	4.380903	0.603388	50.180508	4.178134	47.816088	4.178134	3.872227E+15	0.000939	1040.000708	18.856829	1.025623	0	0
48.227225	3.85311	0.587766	50.063634	4.280804	47.614441	4.280804	3.692661E+15	0.000949	1031.536669	18.88713	1.019154	0	0
49.12182	3.228126	0.583332	49.93651	4.381535	47.399991	4.381535	3.50529E+15	0.000956	1025.525167	18.886596	1.013265	0	0
49.964997	2.536655	0.589142	49.820575	4.470811	47.204741	4.470811	3.341406E+15	0.000964	1018.624919	18.862654	1.007575	0	0
50.754886	1.799661	0.618229	49.701413	4.556576	47.006453	4.556576	3.179702E+15	0.000972	1012.486211	18.81564	1.002056	0	0
51.448701	1.077674	0.639176	49.582293	4.636528	46.810602	4.636528	3.024672E+15	0.000978	1007.41693	18.809638	0.996696	0	0
42.794568	5.596702	0.746653	49.4684	4.709456	46.624519	4.709456	2.882445E+15	0.000984	1002.393659	18.853314	0.991084	0	0
52.338084	0	0	49.34977	4.780448	46.432786	4.780448	2.740346E+15	0.000989	998.177069	18.85878	0.985552	0	0
0	0	0	49.236571	4.844022	46.251562	4.844022	2.610326E+15	0.000994	994.922957	18.843191	0.979822	0	0
0	0	0	49.120921	4.906926	46.066897	4.906926	2.482937E+15	0.000999	990.674143	18.810618	0.974171	0	0
0	0	0	49.003679	4.965224	45.882337	4.965224	2.359236E+15	0.001002	988.599432	18.813645	0.968243	0	0
0	0	0	48.891828	5.019799	45.706246	5.019799	2.246169E+15	0.001007	985.07488	18.826118	0.962553	0	0
0	0	0	48.773443	5.072562	45.522363	5.072562	2.131588E+15	0.001009	983.665453	18.826566	0.95747	0	0
0	0	0	48.664817	5.120869	45.353123	5.120869	2.030911E+15	0.001013	980.026451	18.808146	0.952373	0	0
0	0	0	48.547739	5.168009	45.173302	5.168009	1.927022E+15	0.001015	978.921221	18.787671	0.94696	0	0
0	0	0	48.437889	5.210348	45.005294	5.210348	1.833765E+15	0.001017	977.698639	18.815566	0.941428	0	0
0	0	0	48.326078	5.250795	44.835538	5.250795	1.742898E+15	0.001018	977.333384	18.834753	0.935896	0	0
0	0	0	48.212226	5.289226	44.664035	5.289226	1.654433E+15	0.001018	978.143177	18.809439	0.930601	0	0
0	0	0	48.101967	5.325	44.498478	5.325	1.572536E+15	0.001018	978.620282	18.766531	0.925452	0	0
0	0	0	47.989748	5.358797	44.331329	5.358797	1.492863E+15	0.001016	980.580181	18.76122	0.919801	0	0
0	0	0	47.877406	5.390731	44.164902	5.390731	1.416694E+15	0.001014	983.196497	18.779431	0.914705	0	0
0	0	0	47.768658	5.420609	44.004152	5.420609	1.346262E+15	0.001012	985.242538	18.793243	0.909199	0	0
0	0	0	47.656358	5.450338	43.838575	5.450338	1.276814E+15	0.00101	986.955988	18.767403	0.90438	0	0
0	0	0	47.543363	5.478201	43.673063	5.478201	1.210183E+15	0.001008	989.962527	18.746079	0.89902	0	0
0	0	0	47.433431	5.503922	43.512704	5.503922	1.148366E+15	0.001005	993.275603	18.735135	0.893567	0	0
0	0	0	47.320109	5.529066	43.348068	5.529066	1.087631E+15	0.001001	997.120686	18.75784	0.888273	0	0
0	0	0	47.213444	5.552029	43.193336	5.552029	1.03313E+15	0.000998	1000.052221	18.756337	0.883348	0	0
0	0	0	47.10339	5.574144	43.034565	5.574144	9.79503E+14	0.000994	1004.327054	18.727018	0.878542	0	0
0	0	0	46.992028	5.595215	42.874605	5.595215	9.278285E+14	0.000989	1009.461018	18.706914	0.873498	0	0
0	0	0	46.885445	5.614287	42.722086	5.614287	8.807143E+14	0.000984	1015.00092	18.716368	0.868336	0	0
0	0	0	46.774206	5.633386	42.563277	5.633386	8.338884E+14	0.000979	1020.716646	18.746404	0.863253	0	0
0	0	0	46.666397	5.651507	42.409442	5.651507	7.907009E+14	0.000975	1025.127975	18.713667	0.858407	0	0
0	0	0	46.557241	5.668099	42.254804	5.668099	7.490837E+14	0.000968	1032.454176	18.671917	0.853509	0	0
0	0	0	46.446615	5.684522	42.098187	5.684522	7.089822E+14	0.000962	1038.926947	18.652892	0.848466	0	0
0	0	0	46.340603	5.699199	41.948739	5.699199	6.724321E+14	0.000955	1046.4639	18.671062	0.843501	0	0
0	0	0	46.236633	5.71316	41.802344	5.71316	6.38297E+14	0.000949	1053.371787	18.681088	0.838616	0	0
0	0	0	46.124455	5.727116	41.645084	5.727116	6.032863E+14	0.000941	1062.608965	18.628618	0.834061	0	0
0	0	0	46.023752	5.739577	41.503821	5.739577	5.733974E+14	0.000935	1069.23594	18.606492	0.829334	0	0
0	0	0	45.911329	5.752384	41.346837	5.752384	5.416754E+14	0.000927	1078.794013	18.608384	0.824436	0	0
0	0	0	45.804827	5.763863	41.198501	5.763863	5.131555E+14	0.000918	1088.544496	18.630098	0.819577	0	0
0	0	0	45.697794	5.774879	41.049713	5.774879	4.859266E+14	0.00091	1098.645901	18.614268	0.814996	0	0
0	0	0	45.591007	5.785672	40.901301	5.785672	4.601275E+14	0.000903	1107.579568	18.565342	0.810613	0	0
0	0	0	45.481115	5.795667	40.749355	5.795667	4.349394E+14	0.000893	1120.120128	18.542161	0.805767	0	0
0	0	0	45.376655	5.804838	40.605082	5.804838	4.122169E+14	0.000883	1131.904253	18.552125	0.800948	0	0
0	0	0	45.26656	5.814473	40.452939	5.814473	3.894962E+14	0.000875	1142.366403	18.562601	0.796419	0	0
0	0	0	45.160916	5.823054	40.307396	5.823054	3.688233E+14	0.000866	1154.138898	18.518364	0.792089	0	0
0	0	0	45.050739	5.831297	40.156098	5.831297	3.483849E+14	0.000856	1168.695967	18.485327	0.787441	0	0
0	0	0	44.942358	5.839161	40.007379	5.839161	3.293435E+14	0.000845	1182.620003	18.480092	0.782794	0	0
0	0	0	44.839532	5.846578	39.866235	5.846578	3.122061E+14	0.000837	1194.161054	18.495835	0.778146	0	0
0	0	0	44.72817	5.85399	39.713815	5.85399	2.946162E+14	0.000827	1208.930113	18.472989	0.773974	0	0
0	0	0	44.620239	5.860596	39.566504	5.860596	2.784836E+14	0.000816	1225.65938	18.424233	0.769723	0	0
0	0	0	44.514758	5.866925	39.422575	5.866925	2.635446E+14	0.000806	1241.177585	18.411512	0.76534	0	0
0	0	0	44.408175	5.8736	39.276824	5.8736	2.492393E+14	0.000799	1252.229579	18.42758	0.7606	0	0
0	0	0	44.298202	5.879632	39.12711	5.879632	2.352698E+14	0.000788	1268.965878	18.412365	0.756427	0	0
0	0	0	44.193211	5.88499	38.984468	5.88499	2.226449E+14	0.000777	1286.831508	18.37242	0.752189	0	0
0	0	0	44.08042	5.890807	38.831108	5.890807	2.098168E+14	0.000767	1303.204526	18.334437	0.747727	0	0
0	0	0	43.978533	5.895644	38.692887	5.895644	1.988502E+14	0.000757	1320.402338	18.331272	0.743475	0	0
0	0	0	43.868887	5.900586	38.54432	5.900586	1.876734E+14	0.000746	1339.860397	18.335119	0.739013	0	0
0	0	0	43.759976	5.905347	38.396824	5.905347	1.771801E+14	0.000736	1358.806613	18.294366	0.735105	0	0
0	0	0	43.655271	5.909768	38.255117	5.909768	1.676342E+14	0.000726	1376.914514	18.250102	0.73084	0	0
0	0	0	43.542929	5.914003	38.103487	5.914003	1.579523E+14	0.000714	1401.047175	18.225861	0.726628	0	0
0	0	0	43.432915	5.918241	37.954865	5.918241	1.490032E+14	0.000704	1421.255115	18.246749	0.722113	0	0
0	0	0	43.323963	5.922042	37.807998	5.922042	1.406316E+14	0.000692	1445.116424	18.224639	0.718139	0	0
0	0	0	43.211581	5.9257	37.656706	5.9257	1.324808E+14	0.000679	1471.955013	18.168968	0.714178	0	0
0	0	0	43.102466	5.92932	37.509707	5.92932	1.250122E+14	0.000669	1494.802209	18.138096	0.709979	0	0
0	0	0	42.990124	5.932696	37.35865	5.932696	1.17756E+14	0.000657	1522.475063	18.140307	0.705715	0	0
0	0	0	42.876231	5.936067	37.205515	5.936067	1.108235E+14	0.000645	1549.334725	18.175165	0.70145	0	0
0	0	0	42.763277	5.938993	37.054004	5.938993	1.04346E+14	0.000632	1582.494728	18.108198	0.697529	0	0
0	0	0	42.652161	5.941817	36.904975	5.941817	9.833888E+13	0.000619	1614.599027	18.056727	0.693502	0	0
0	0	0	42.537655	5.944737	36.751356	5.944737	9.25059E+13	0.000608	1645.453764	18.03091	0.689396	0	0
0	0	0	42.42809	5.947516	36.604347	5.947516	8.724525E+13	0.000598	1673.066041	18.045844	0.685263	0	0
0	0	0	42.300803	5.950335	36.433921	5.950335	8.150429E+13	0.000584	1713.155646	18.01059	0.681527	0	0
0	0	0	42.182336	5.952763	36.275466	5.952763	7.649781E+13	0.00057	1753.954107	17.952505	0.677685	0	0
0	0	0	42.066196	5.955058	36.120179	5.955058	7.188562E+13	0.000557	1794.710244	17.925786	0.673816	0	0
0	0	0	41.950711	5.957619	35.965457	5.957619	6.757277E+13	0.000548	1824.059393	17.924164	0.669803	0	0
0	0	0	41.837716	5.95961	35.814563	5.95961	6.360148E+13	0.000535	1867.597539	17.915755	0.666066	0	0
0	0	0	41.710183	5.962038	35.64404	5.962038	5.939677E+13	0.000524	1907.884104	17.843552	0.662607	0	0
0	0	0	41.595473	5.963893	35.490973	5.963893	5.585113E+13	0.000512	1954.373685	17.818695	0.658791	0	0
0	0	0	41.476843	5.965934	35.332523	5.965934	5.240529E+13	0.000501	1995.318713	17.819766	0.654962	0	0
0	0	0	41.356252	5.967668	35.171782	5.967668	4.911896E+13	0.000488	2049.453177	17.822003	0.651226	0	0
0	0	0	41.240195	5.969477	35.016916	5.969477	4.614978E+13	0.000478	2093.176042	17.763841	0.647952	0	0
0	0	0	41.116787	5.971193	34.852435	5.971193	4.31881E+13	0.000466	2147.411389	17.720685	0.644334	0	0
0	0	0	40.998238	5.972897	34.69435	5.972897	4.052124E+13	0.000456	2194.195106	17.722168	0.640611	0	0
0	0	0	40.873768	5.974544	34.528498	5.974544	3.789736E+13	0.000445	2248.422163	17.728419	0.636637	0	0
0	0	0	40.750442	5.976031	34.364302	5.976031	3.546442E+13	0.000433	2308.428617	17.695015	0.63327	0	0
0	0	0	40.625073	5.977541	34.19737	5.977541	3.315055E+13	0.000422	2367.190627	17.624909	0.62985	0	0
0	0	0	40.494478	5.978846	34.023746	5.978846	3.089996E+13	0.000409	2444.674191	17.600554	0.62622	0	0
0	0	0	40.369722	5.980221	33.857728	5.980221	2.889231E+13	0.000399	2507.53986	17.607549	0.622589	0	0
0	0	0	40.237657	5.981506	33.682151	5.981506	2.690849E+13	0.000387	2585.050977	17.573563	0.619262	0	0
0	0	0	40.110818	5.982533	33.513734	5.982533	2.513112E+13	0.000374	2676.017014	17.517617	0.615842	0	0
0	0	0	39.978508	5.983751	33.337873	5.983751	2.340168E+13	0.000363	2756.731149	17.481529	0.612211	0	0
0	0	0	39.848606	5.985018	33.165119	5.985018	2.181924E+13	0.000354	2826.171474	17.486101	0.608699	0	0
0	0	0	39.713233	5.98605	32.985393	5.98605	2.028359E+13	0.000342	2925.758271	17.469192	0.605306	0	0
0	0	0	39.577778	5.986985	32.805655	5.986985	1.885492E+13	0.000329	3036.018191	17.402862	0.602164	0	0
0	0	0	39.439955	5.988246	32.622406	5.988246	1.750428E+13	0.000322	3108.281718	17.359123	0.59885	0	0
0	0	0	39.302294	5.989278	32.439618	5.989278	1.625162E+13	0.000312	3205.152365	17.360027	0.595153	0	0
0	0	0	39.163001	5.989944	32.25508	5.989944	1.507513E+13	0.000298	3355.907823	17.34065	0.591879	0	0
0	0	0	39.021788	5.991014	32.067533	5.991014	1.396919E+13	0.00029	3449.504266	17.274343	0.588842	0	0
0	0	0	38.879595	5.991666	31.879164	5.991666	1.293739E+13	0.000277	3611.315094	17.216192	0.585554	0	0
0	0	0	38.735197	5.99262	31.68752	5.99262	1.196744E+13	0.000268	3724.803577	17.234232	0.581857	0	0
0	0	0	38.587532	5.993384	31.491775	5.993384	1.10506E+13	0.000258	3878.335021	17.210989	0.578781	0	0
0	0	0	38.437212	5.994027	31.29266	5.994027	1.018929E+13	0.000246	4064.260311	17.160685	0.575639	0	0
0	0	0	38.287995	5.994861	31.094762	5.994861	9.40063E+12	0.000238	4205.959407	17.083697	0.57251	0	0
0	0	0	38.130938	5.995378	30.886885	5.995378	8.636301E+12	0.000225	4443.507247	17.082478	0.569103	0	0
0	0	0	37.976045	5.996323	30.681337	5.996323	7.943331E+12	0.000219	4563.811854	17.084039	0.565908	0	0
0	0	0	37.818701	5.996897	30.472993	5.996897	7.296251E+12	0.000209	4791.793143	17.006757	0.562938	0	0
0	0	0	37.657315	5.99742	30.259366	5.99742	6.687219E+12	0.000198	5052.313437	16.947801	0.559782	0	0
0	0	0	37.492621	5.998221	30.04102	5.998221	6.118043E+12	0.000191	5227.894845	16.922607	0.556508	0	0
0	0	0	37.326824	5.998673	29.821642	5.998673	5.593943E+12	0.000181	5536.168916	16.93055	0.553167	0	0
0	0	0	37.159027	5.999258	29.599447	5.999258	5.109185E+12	0.000172	5804.137623	16.865551	0.550461	0	0
0	0	0	36.984124	5.999672	29.36808	5.999672	4.64853E+12	0.000162	6179.164546	16.800726	0.547384	0	0
0	0	0	36.811834	6.000325	29.139849	6.000325	4.235362E+12	0.000155	6435.21305	16.787366	0.544242	0	0
0	0	0	36.633052	6.001149	28.902815	6.001149	3.845384E+12	0.000151	6605.799712	16.789888	0.540862	0	0
0	0	0	36.447041	6.001319	28.657075	6.001319	3.477689E+12	0.000139	7194.306973	16.721409	0.538261	0	0
0	0	0	36.261071	6.001837	28.41093	6.001837	3.145208E+12	0.000132	7584.778265	16.633566	0.535317	0	0
0	0	0	36.071426	6.002347	28.159934	6.002347	2.838858E+12	0.000125	7999.969487	16.635473	0.531911	0	0
0	0	0	35.873328	6.002565	27.898156	6.002565	2.550659E+12	0.000115	8711.375916	16.622586	0.529151	0	0
0	0	0	35.674535	6.003256	27.634825	6.003256	2.290849E+12	0.000111	9021.122535	16.564209	0.526312	0	0
0	0	0	35.473946	6.003594	27.369582	6.003594	2.055499E+12	0.000103	9684.01211	16.48488	0.523606	0	0
0	0	0	35.266333	6.004124	27.0948	6.004124	1.837334E+12	9.817889E-5	10185.489204	16.487102	0.520265	0	0
0	0	0	35.056637	6.004354	26.81767	6.004354	1.640473E+12	9.014239E-5	11093.559502	16.475368	0.517414	0	0
0	0	0	34.843552	6.004799	26.535761	6.004799	1.462019E+12	8.501052E-5	11763.249812	16.41862	0.514694	0	0
0	0	0	34.626546	6.005157	26.248788	6.005157	1.300216E+12	7.931156E-5	12608.50283	16.324222	0.512	0	0
0	0	0	34.407743	6.005294	25.959745	6.005294	1.155195E+12	7.182021E-5	13923.657558	16.317495	0.508964	0	0
0	0	0	34.182693	6.005636	25.662161	6.005636	1.022887E+12	6.678586E-5	14973.229706	16.303233	0.506151	0	0
0	0	0	33.95168	6.005924	25.356774	6.005924	9.028167E+11	6.154735E-5	16247.653741	16.231357	0.503643	0	0
0	0	0	33.719769	6.00646	25.049836	6.00646	7.964522E+11	5.915806E-5	16903.866299	16.156814	0.500778	0	0
0	0	0	33.481774	6.006739	24.735227	6.006739	7.003108E+11	5.455211E-5	18331.096697	16.136687	0.498018	0	0
0	0	0	33.240593	6.007148	24.416214	6.007148	6.147145E+11	5.158044E-5	19387.192277	16.154141	0.495035	0	0
0	0	0	32.996268	6.00708	24.093744	6.00708	5.386633E+11	4.463159E-5	22405.654996	16.047751	0.492711	0	0
0	0	0	32.736465	6.007363	23.750319	6.007363	4.68088E+11	4.094275E-5	24424.34614	15.992571	0.489925	0	0
0	0	0	32.486055	6.007737	23.41915	6.007737	4.088292E+11	3.859293E-5	25911.478438	15.969021	0.487218	0	0
0	0	0	32.223844	6.007911	23.072693	6.007911	3.548015E+11	3.478045E-5	28751.784397	15.956674	0.484538	0	0
0	0	0	31.967676	6.008183	22.73406	6.008183	3.089209E+11	3.221315E-5	31043.220755	15.873267	0.482228	0	0
0	0	0	31.706689	6.008316	22.389274	6.008316	2.682734E+11	2.887124E-5	34636.548363	15.813634	0.479468	0	0
0	0	0	31.443783	6.008487	22.04189	6.008487	2.327325E+11	2.612948E-5	38270.953774	15.825096	0.476603	0	0
0	0	0	31.178549	6.008783	21.69123	6.008783	2.016461E+11	2.446956E-5	40867.109339	15.785064	0.474266	0	0
0	0	0	30.907599	6.009033	21.333087	6.009033	1.741727E+11	2.267942E-5	44092.829376	15.696028	0.47189	0	0
0	0	0	30.639792	6.009123	20.979346	6.009123	1.506983E+11	2.015393E-5	49618.112892	15.624329	0.469275	0	0
0	0	0	30.366024	6.009438	20.617365	6.009438	1.299681E+11	1.919725E-5	52090.799915	15.638125	0.466503	0	0
0	0	0	30.090826	6.009289	20.254247	6.009289	1.12003E+11	1.5764E-5	63435.662507	15.604296	0.464126	0	0
0	0	0	29.813954	6.009781	19.887863	6.009781	9.643372E+10	1.607659E-5	62202.244386	15.519184	0.461776	0	0
0	0	0	29.535244	6.00983	19.519778	6.00983	8.294627E+10	1.408518E-5	70996.591963	15.475753	0.459281	0	0
0	0	0	29.255554	6.010057	19.150098	6.010057	7.13074E+10	1.325776E-5	75427.549088	15.464854	0.456574	0	0
0	0	0	28.972843	6.010145	18.776656	6.010145	6.12016E+10	1.181267E-5	84654.837302	15.406525	0.454409	0	0
0	0	0	28.684659	6.010398	18.395704	6.010398	5.237285E+10	1.135537E-5	88064.040113	15.315901	0.452046	0	0
0	0	0	28.397455	6.01032	18.016609	6.01032	4.484145E+10	9.366607E-6	106762.241695	15.290681	0.449405	0	0
0	0	0	28.109639	6.010433	17.636375	6.010433	3.838038E+10	8.469114E-6	118076.112032	15.258764	0.447081	0	0
0	0	0	27.819087	6.010805	17.252071	6.010805	3.280171E+10	8.873299E-6	112697.662526	15.185053	0.444929	0	0
0	0	0	27.528412	6.01068	16.868474	6.01068	2.803205E+10	7.048158E-6	141881.041114	15.124575	0.442619	0	0
0	0	0	27.240514	6.01074	16.488216	6.01074	2.399192E+10	6.245135E-6	160124.635773	15.114883	0.439833	0	0
0	0	0	26.947511	6.011019	16.100822	6.011019	2.04775E+10	6.368161E-6	157031.199054	15.075165	0.437549	0	0
0	0	0	26.651323	6.010801	15.710117	6.010801	1.744781E+10	4.709238E-6	212348.576394	14.978288	0.435515	0	0
0	0	0	26.35485	6.011066	15.318155	6.011066	1.486407E+10	4.780933E-6	209164.204332	14.934085	0.433126	0	0
0	0	0	26.054701	6.011318	14.921356	6.011318	1.263781E+10	4.969752E-6	201217.264697	14.940145	0.43063	0	0
0	0	0	25.756104	6.011113	14.527451	6.011113	1.0754E+10	3.580957E-6	279254.976482	14.875834	0.428425	0	0
0	0	0	25.455261	6.01122	14.13	6.01122	9.139891E+9	3.3062E-6	302462.028189	14.766861	0.426392	0	0
0	0	0	25.157562	6.011537	13.736297	6.011537	7.781265E+9	3.79559E-6	263463.672433	14.729275	0.42387	0	0
0	0	0	24.855535	6.01126	13.338008	6.01126	6.609112E+9	2.471496E-6	404613.280243	14.717588	0.42156	0	0
0	0	0	24.552731	6.011538	12.93763	6.011538	5.611176E+9	2.738311E-6	365188.625191	14.640893	0.419447	0	0
0	0	0	24.245844	6.011855	12.531773	6.011855	4.753417E+9	3.560712E-6	280842.693897	14.540998	0.417454	0	0
0	0	0	23.939243	6.01177	12.127077	6.01177	4.027403E+9	2.63581E-6	379390.008957	14.549395	0.414562	0	0
0	0	0	23.631049	6.011756	11.720136	6.011756	3.40934E+9	2.189114E-6	456805.739092	14.496127	0.412635	0	0
0	0	0	23.307501	6.011796	11.292814	6.011796	2.862271E+9	1.949895E-6	512848.214465	14.411555	0.410601	0	0
0	0	0	22.992447	6.011902	10.876574	6.011902	2.414044E+9	1.963011E-6	509421.529187	14.353397	0.408317	0	0
0	0	0	22.676494	6.011869	10.459426	6.011869	2.035021E+9	1.560666E-6	640752.164482	14.3313	0.405901	0	0
0	0	0	22.36291	6.011883	10.045312	6.011883	1.717705E+9	1.348218E-6	741720.07899	14.259298	0.404053	0	0
0	0	0	22.050837	6.012068	9.632837	6.012068	1.451052E+9	1.69209E-6	590985.142683	14.187384	0.401835	0	0
0	0	0	21.733373	6.011896	9.213983	6.011896	1.222227E+9	9.824317E-7	1017882.492401	14.163366	0.399537	0	0
0	0	0	21.414848	6.012194	8.792746	6.012194	1.028896E+9	1.789991E-6	558662.055029	14.10734	0.397425	0	0
0	0	0	21.096649	6.012141	8.372672	6.012141	8.66299E+8	1.248817E-6	800757.764069	14.02035	0.395444	0	0
0	0	0	20.776776	6.01218	7.950191	6.01218	7.287374E+8	1.205708E-6	829388.542537	13.951932	0.393305	0	0
0	0	0	20.455637	6.012121	7.526251	6.012121	6.126002E+8	8.298677E-7	1205011.312117	13.958932	0.390929	0	0
0	0	0	20.135356	6.012214	7.103116	6.012214	5.152102E+8	9.721809E-7	1028615.112319	13.872831	0.389014	0	0
0	0	0	19.809235	6.012372	6.672121	6.012372	4.319375E+8	2.496553E-6	400552.233096	13.769897	0.386915	0	0
0	0	0	19.482215	6.012346	6.240343	6.012346	3.619481E+8	1.557013E-6	642255.565048	13.758458	0.384723	0	0
0	0	0	19.149356	6.012379	5.800722	6.012379	3.023437E+8	1.9126E-6	522848.51165	13.73116	0.382492	0	0
0	0	0	18.819274	6.01222	5.365196	6.01222	2.52934E+8	4.911764E-7	2035928.329925	13.652436	0.380815	0	0
0	0	0	18.485803	6.011956	4.925439	6.011956	2.112117E+8	1.903206E-7	5254292.694502	13.575343	0.378663	0	0
0	0	0	18.147798	6.012359	4.478186	6.012359	1.7594E+8	8.682751E-7	1151708.746988	13.570553	0.376274	0	0
0	0	0	17.812203	6.012141	4.035526	6.012141	1.467495E+8	2.116515E-7	4724747.237976	13.476253	0.374755	0	0
0	0	0	17.470278	6.0123	3.583644	6.0123	1.21984E+8	3.625701E-7	2758087.61652	13.396456	0.372616	0	0
0	0	0	17.120635	6.01228	3.12198	6.01228	1.009757E+8	2.649974E-7	3773622.328626	13.37644	0.370451	0	0
0	0	0	16.768992	6.012392	2.657364	6.012392	8.349516E+7	6.511284E-7	1535795.282786	13.321756	0.36855	0	0
0	0	0	16.414775	6.012313	2.1898	6.012313	6.894483E+7	2.248149E-7	4448104.470575	13.208144	0.36682	0	0
0	0	0	16.056761	6.012478	1.71664	6.012478	5.681336E+7	-8.726725E-7	-1145905.240564	13.169781	0.364589	0	0
0	0	0	15.696337	6.0123	1.24112	6.0123	4.675559E+7	1.389864E-7	7194947.056446	13.152313	0.362476	0	0
0	0	0	15.330809	6.012604	0.757695	6.012604	3.837234E+7	-1.103739E-7	-9060112.109392	13.040317	0.360971	0	0
0	0	0	14.959972	6.012591	0.268024	6.012591	3.140195E+7	-9.877319E-8	-1.01242E+7	12.976372	0.358885	0	0
0	0	0	14.58256	6.012452	-0.230019	6.012452	2.560658E+7	-4.543437E-6	-220097.676916	12.957858	0.356958	0	0
0	0	0	14.201595	6.012485	-0.733175	6.012485	2.08407E+7	-2.605323E-7	-3838295.473241	12.888394	0.355307	0	0
0	0	0	13.810381	6.012445	-1.249686	6.012445	1.686812E+7	1.827568E-6	547175.17508	12.781058	0.353551	0	0
0	0	0	13.418431	6.012399	-1.767149	6.012399	1.364735E+7	1.204281E-7	8303708.529826	12.778506	0.351254	0	0
0	0	0	13.028687	6.0123	-2.281563	6.0123	1.105472E+7	3.286337E-8	3.042901E+7	12.718828	0.349564	0	0
0	0	0	12.640372	6.01265	-2.795241	6.01265	8961545.5	-1.983652E-8	-5.041206E+7	12.601359	0.3479	0	0
0	0	0	12.242991	6.012346	-3.31921	6.012346	7229189	3.112188E-8	3.213174E+7	12.566221	0.345841	0	0
0	0	0	11.850674	6.012624	-3.837998	6.012624	5847700	-1.490663E-8	-6.708425E+7	12.548522	0.343966	0	0
0	0	0	11.454314	6.01271	-4.361632	6.01271	4719885	-8.059778E-9	-1.240729E+8	12.450699	0.342329	0	0
0	0	0	11.058648	6.012657	-4.883984	6.012657	3811016	-8.166862E-9	-1.22446E+8	12.376331	0.340454	0	0
0	0	0	10.662819	6.012306	-5.405755	6.012306	3076888.5	9.570153E-9	1.044915E+8	12.367846	0.338407	0	0
0	0	0	10.266786	6.012399	-5.928974	6.012399	2483904.5	2.191995E-8	4.562054E+7	12.243497	0.337153	0	0
0	0	0	9.869037	6.012531	-6.454569	6.012531	2003342.5	-1.088185E-8	-9.189616E+7	12.18667	0.33512	0	0
0	0	0	9.472596	6.012591	-6.978246	6.012591	1616897	-5.085589E-9	-1.966341E+8	12.151575	0.333205	0	0
0	0	0	9.078931	6.012359	-7.497455	6.012359	1306957.5	6.452797E-9	1.549716E+8	12.067339	0.331608	0	0
0	0	0	8.688125	6.012525	-8.013983	6.012525	1058063.5	-6.25225E-9	-1.599424E+8	11.959744	0.330023	0	0
0	0	0	8.300137	6.012577	-8.526482	6.012577	857874	-2.976705E-9	-3.359419E+8	11.950097	0.32799	0	0
0	0	0	7.912352	6.012564	-9.038527	6.012564	695638	-2.691532E-9	-3.715357E+8	11.899191	0.326538	0	0
0	0	0	7.527304	6.01269	-9.547353	6.01269	564917.5	-1.04421E-9	-9.576617E+8	11.788363	0.324927	0	0
0	0	0	7.144339	6.01263	-10.052904	6.01263	459278.5	-1.127998E-9	-8.865266E+8	11.770992	0.322894	0	0
0	0	0	6.764109	6.012478	-10.554572	6.012478	373946.5	-5.741192E-9	-1.741799E+8	11.693247	0.321442	0	0
0	0	0	6.387963	6.012597	-11.051629	6.012597	305141.5	-9.168678E-10	-1.09067E+9	11.576615	0.319897	0	0
0	0	0	6.015452	6.012743	-11.543968	6.012743	249486.5	-3.78029E-10	-2.6453E+9	11.533272	0.317916	0	0
0	0	0	5.645187	6.012756	-12.032959	6.012756	204230	-2.961107E-10	-3.377115E+9	11.518264	0.316213	0	0
0	0	0	5.275166	6.012498	-12.520823	6.012498	167205	-1.523556E-9	-6.56359E+8	11.395448	0.314959	0	0
0	0	0	4.901552	6.012895	-13.015374	6.012895	136626.5	-1.363544E-10	-7.333828E+9	11.360105	0.31315	0	0
0	0	0	4.52802	6.012862	-13.508543	6.012862	111645.5	-1.203542E-10	-8.30881E+9	11.341503	0.311434	0	0
0	0	0	4.169148	6.012829	-13.982351	6.012829	91958	-1.077691E-10	-9.279097E+9	11.198034	0.310206	0	0
0	0	0	3.810603	6.012763	-14.455626	6.012763	75755.5	-1.075188E-10	-9.300699E+9	11.178475	0.308318	0	0
0	0	0	3.461205	6.012783	-14.917082	6.012783	62717	-8.371291E-11	-1.194559E+10	11.123654	0.306826	0	0
0	0	0	3.116136	6.012716	-15.372558	6.012716	52044.5	-8.667101E-11	-1.153788E+10	11.014062	0.305255	0	0
0	0	0	2.773517	6.012571	-15.82455	6.012571	43245	-1.582179E-10	-6.320396E+9	10.966975	0.303551	0	0
0	0	0	2.44176	6.01269	-16.263016	6.01269	36145	-6.681144E-11	-1.49675E+10	10.931546	0.301888	0	0
0	0	0	2.119682	6.01267	-16.688271	6.01267	30369.5	-6.118101E-11	-1.634494E+10	10.796659	0.300818	0	0
0	0	0	1.813979	6.012802	-17.09238	6.012802	25743.5	-3.243055E-11	-3.083512E+10	10.77573	0.298891	0	0
0	0	0	1.530165	6.012809	-17.46719	6.012809	22082	-2.73064E-11	-3.662145E+10	10.728048	0.297491	0	0
0	0	0	1.277101	6.012611	-17.800744	6.012611	19258.5	-5.311951E-11	-1.882548E+10	10.612237	0.296145	0	0
0	0	0	1.056747	6.012571	-18.091603	6.012571	17096	-6.254813E-11	-1.598769E+10	10.598691	0.294217	0	0
0	0	0	0.867714	6.012743	-18.341776	6.012743	15435	-2.338754E-11	-4.27578E+10	10.507676	0.2932	0	0
0	0	0	0.712821	6.012683	-18.546129	6.012683	14195.5	-2.698101E-11	-3.706311E+10	10.396963	0.291695	0	0
0	0	0	0.579163	6.012677	-18.722608	6.012677	13206	-2.583038E-11	-3.871411E+10	10.388888	0.289952	0	0
0	0	0	0.468822	6.012657	-18.868254	6.012657	12441	-2.666046E-11	-3.750873E+10	10.317395	0.288711	0	0
0	0	0	0.382616	6.012518	-18.981645	6.012518	11875	-7.693103E-11	-1.299866E+10	10.216869	0.287285	0	0
0	0	0	0.313398	6.012842	-19.074094	6.012842	11438.5	-1.295371E-11	-7.719796E+10	10.190901	0.285661	0	0
0	0	0	0.261617	6.012749	-19.142174	6.012749	11123	-1.648249E-11	-6.067046E+10	10.089603	0.28446	0	0
0	0	0	0.213308	6.012809	-19.206162	6.012809	10836	-1.33997E-11	-7.462853E+10	10.000229	0.282862	0	0
0	0	0	0.181414	6.012657	-19.247787	6.012657	10651	-2.282458E-11	-4.381242E+10	9.966269	0.281278	0	0
0	0	0	0.142375	6.012769	-19.299704	6.012769	10428.5	-1.44951E-11	-6.898882E+10	9.851135	0.280275	0	0
0	0	0	0.125877	6.012789	-19.321554	6.012789	10336	-1.352769E-11	-7.392244E+10	9.807287	0.278598	0	0
0	0	0	0.095167	6.012789	-19.362107	6.012789	10166	-1.33052E-11	-7.51586E+10	9.76794	0.277159	0	0
0	0	0	0.072095	6.012703	-19.392297	6.012703	10039.5	-1.759027E-11	-5.684962E+10	9.663915	0.275931	0	0
0	0	0	0.063233	6.01269	-19.403956	6.01269	9992	-1.84695E-11	-5.414333E+10	9.59517	0.274333	0	0
0	0	0	0.055229	6.012683	-19.414505	6.012683	9948.5	-1.890885E-11	-5.288529E+10	9.557147	0.27296	0	0
0	0	0	0.043142	6.012663	-19.430402	6.012663	9884	-2.05268E-11	-4.871681E+10	9.409177	0.271838	0	0
0	0	0	0.031748	6.01269	-19.445534	6.01269	9823	-1.815711E-11	-5.507484E+10	9.397239	0.270095	0	0
0	0	0	0.016925	6.012723	-19.465216	6.012723	9744.5	-1.583559E-11	-6.314888E+10	9.311541	0.269012	0	0
0	0	0	0.005531	6.012723	-19.480262	6.012723	9685	-1.57389E-11	-6.353683E+10	9.228968	0.26752	0	0
0	0	0	-0.002432	6.012571	-19.490284	6.012571	9643.5	-3.52821E-11	-2.834298E+10	9.220798	0.266108	0	0
0	0	0	-0.007047	6.012796	-19.497107	6.012796	9619	-1.234894E-11	-8.09786E+10	9.085942	0.265012	0	0
0	0	0	-0.010967	6.012683	-19.501919	6.012683	9599	-1.824456E-11	-5.481085E+10	9.069047	0.263269	0	0
0	0	0	-0.013376	6.012783	-19.505422	6.012783	9586.5	-1.279579E-11	-7.815069E+10	8.953124	0.262371	0	0
0	0	0	-0.017256	6.01273	-19.510374	6.01273	9566	-1.51787E-11	-6.588177E+10	8.872886	0.260787	0	0
0	0	0	-0.02236	6.012869	-19.517565	6.012869	9540	-1.012189E-11	-9.879582E+10	8.832656	0.25944	0	0
0	0	0	-0.028282	6.012663	-19.52472	6.012663	9509.5	-1.974905E-11	-5.063536E+10	8.741897	0.258278	0	0
0	0	0	-0.035959	6.012597	-19.534643	6.012597	9470	-2.845478E-11	-3.514348E+10	8.682682	0.256918	0	0
0	0	0	-0.043636	6.012697	-19.545103	6.012697	9431	-1.696617E-11	-5.894083E+10	8.636548	0.255611	0	0
0	0	0	-0.053192	6.01265	-19.557572	6.01265	9382.5	-2.076807E-11	-4.815084E+10	8.518209	0.254595	0	0
0	0	0	-0.059644	6.012875	-19.566822	6.012875	9349.5	-9.765685E-12	-1.023994E+11	8.486776	0.252931	0	0
0	0	0	-0.067321	6.012842	-19.576853	6.012842	9311	-1.054439E-11	-9.483717E+10	8.391709	0.251862	0	0
0	0	0	-0.070588	6.012783	-19.580974	6.012783	9294.5	-1.240604E-11	-8.06059E+10	8.312327	0.250502	0	0
0	0	0	-0.074223	6.012756	-19.585687	6.012756	9276.5	-1.344989E-11	-7.435006E+10	8.259347	0.249182	0	0
0	0	0	-0.078388	6.01263	-19.59078	6.01263	9255.5	-2.273169E-11	-4.399145E+10	8.130428	0.248257	0	0
0	0	0	-0.079531	6.012968	-19.593385	6.012968	9249.5	-7.935573E-12	-1.260148E+11	8.101612	0.246739	0	0
0	0	0	-0.081328	6.012895	-19.595521	6.012895	9240.5	-9.222099E-12	-1.084352E+11	7.992766	0.245894	0	0
0	0	0	-0.082758	6.012749	-19.596936	6.012749	9233.5	-1.368255E-11	-7.308577E+10	7.956285	0.244296	0	0
0	0	0	-0.083738	6.012769	-19.598295	6.012769	9228.5	-1.282716E-11	-7.795957E+10	7.901174	0.243333	0	0
0	0	0	-0.083738	6.012749	-19.598231	6.012749	9228.5	-1.367514E-11	-7.312537E+10	7.785744	0.242158	0	0
0	0	0	-0.085453	6.01273	-19.600431	6.01273	9220	-1.462969E-11	-6.835413E+10	7.772614	0.240758	0	0
0	0	0	-0.085575	6.012888	-19.601108	6.012888	9219.5	-9.339754E-12	-1.070692E+11	7.63846	0.239873	0	0
0	0	0	-0.086188	6.012644	-19.601123	6.012644	9216.5	-2.1095E-11	-4.74046E+10	7.617413	0.238263	0	0
0	0	0	-0.086678	6.012829	-19.602371	6.012829	9214	-1.079824E-11	-9.260769E+10	7.501898	0.23747	0	0
0	0	0	-0.088066	6.012783	-19.604054	6.012783	9207	-1.228925E-11	-8.137195E+10	7.428752	0.236018	0	0
0	0	0	-0.087617	6.01265	-19.603032	6.01265	9209	-2.038403E-11	-4.905802E+10	7.372823	0.235028	0	0
0	0	0	-0.088189	6.012796	-19.604259	6.012796	9206.5	-1.181937E-11	-8.460687E+10	7.262666	0.233958	0	0
0	0	0	-0.08778	6.012789	-19.603698	6.012789	9208.5	-1.205203E-11	-8.29736E+10	7.233806	0.232572	0	0
0	0	0	-0.087985	6.012882	-19.604268	6.012882	9207.5	-9.470264E-12	-1.055937E+11	7.127341	0.23174	0	0
0	0	0	-0.08823	6.012855	-19.604506	6.012855	9206.5	-1.008633E-11	-9.914414E+10	7.108849	0.230196	0	0
0	0	0	-0.088434	6.012551	-19.603788	6.012551	9205	-4.024693E-11	-2.484662E+10	6.998869	0.229496	0	0
0	0	0	-0.088638	6.012677	-19.604466	6.012677	9204	-1.800263E-11	-5.554743E+10	6.968266	0.228044	0	0
0	0	0	-0.089332	6.012935	-19.60622	6.012935	9200.5	-8.431387E-12	-1.186044E+11	6.87968	0.227278	0	0
0	0	0	-0.088107	6.012862	-19.604366	6.012862	9207	-9.925173E-12	-1.007539E+11	6.826458	0.225957	0	0
0	0	0	-0.088475	6.012835	-19.604765	6.012835	9205	-1.060291E-11	-9.431375E+10	6.743582	0.224994	0	0
0	0	0	-0.088311	6.012683	-19.604056	6.012683	9206	-1.74976E-11	-5.71507E+10	6.663765	0.223858	0	0
0	0	0	-0.087535	6.012637	-19.602881	6.012637	9210	-2.18229E-11	-4.582342E+10	6.606256	0.222842	0	0
0	0	0	-0.087413	6.012564	-19.602483	6.012564	9210.5	-3.56368E-11	-2.806088E+10	6.495141	0.221864	0	0
0	0	0	-0.08729	6.012703	-19.602772	6.012703	9211	-1.613865E-11	-6.196307E+10	6.462418	0.220571	0	0
0	0	0	-0.087985	6.012683	-19.603624	6.012683	9207.5	-1.750045E-11	-5.714139E+10	6.321286	0.219712	0	0
0	0	0	-0.087086	6.012816	-19.602867	6.012816	9212	-1.118578E-11	-8.939922E+10	6.332705	0.218405	0	0
0	0	0	-0.087372	6.01271	-19.602901	6.01271	9210.5	-1.572797E-11	-6.358098E+10	6.184656	0.217864	0	0
0	0	0	-0.086923	6.012624	-19.602029	6.012624	9212.5	-2.348378E-11	-4.258258E+10	6.194648	0.21624	0	0
0	0	0	-0.086923	6.012829	-19.602694	6.012829	9212.5	-1.079648E-11	-9.262277E+10	6.055233	0.215791	0	0
0	0	0	-0.08778	6.012723	-19.603483	6.012723	9208.5	-1.496455E-11	-6.682459E+10	6.036493	0.21426	0	0
0	0	0	-0.087617	6.012822	-19.60359	6.012822	9209	-1.09838E-11	-9.104316E+10	5.918273	0.213665	0	0
0	0	0	-0.088066	6.013001	-19.604763	6.013001	9207	-7.425429E-12	-1.346724E+11	5.850391	0.212398	0	0
0	0	0	-0.088148	6.012723	-19.603969	6.012723	9206.5	-1.49613E-11	-6.683911E+10	5.770975	0.211553	0	0
0	0	0	-0.088148	6.012591	-19.603539	6.012591	9206.5	-2.895691E-11	-3.453408E+10	5.718056	0.210219	0	0
0	0	0	-0.088434	6.012637	-19.604067	6.012637	9205	-2.181106E-11	-4.584831E+10	5.621454	0.209612	0	0
0	0	0	-0.088352	6.012551	-19.60368	6.012551	9205.5	-4.024912E-11	-2.484527E+10	5.571889	0.208384	0	0
0	0	0	-0.089986	6.012439	-19.605472	6.012439	9197.5	3.817861E-10	2.619268E+9	5.495197	0.207513	0	0
0	0	0	-0.090353	6.012663	-19.606688	6.012663	9195.5	-1.909694E-11	-5.236441E+10	5.45214	0.206311	0	0
0	0	0	-0.091374	6.012869	-19.608701	6.012869	9190.5	-9.751068E-12	-1.025529E+11	5.351188	0.205506	0	0
0	0	0	-0.092191	6.012842	-19.609694	6.012842	9186.5	-1.04034E-11	-9.612245E+10	5.303984	0.20445	0	0
0	0	0	-0.092191	6.012783	-19.609501	6.012783	9186.5	-1.226188E-11	-8.155353E+10	5.202122	0.203605	0	0
0	0	0	-0.091905	6.012597	-19.608522	6.012597	9188	-2.760744E-11	-3.622211E+10	5.159236	0.202377	0	0
0	0	0	-0.092967	6.012955	-19.611084	6.012955	9182.5	-8.084377E-12	-1.236954E+11	5.049259	0.201717	0	0
0	0	0	-0.092885	6.012796	-19.61046	6.012796	9183	-1.17892E-11	-8.482339E+10	5.01991	0.200634	0	0
0	0	0	-0.094559	6.012809	-19.612714	6.012809	9175	-1.134572E-11	-8.813894E+10	4.92285	0.19971	0	0
0	0	0	-0.093988	6.012809	-19.611959	6.012809	9177.5	-1.134881E-11	-8.811493E+10	4.860191	0.198878	0	0
0	0	0	-0.09509	6.012862	-19.613587	6.012862	9172	-9.887442E-12	-1.011384E+11	4.792457	0.197756	0	0
0	0	0	-0.096479	6.012882	-19.615485	6.012882	9165.5	-9.427066E-12	-1.060775E+11	4.721153	0.196924	0	0
0	0	0	-0.095294	6.01267	-19.613234	6.01267	9171.5	-1.847648E-11	-5.412285E+10	4.645987	0.195894	0	0
0	0	0	-0.094804	6.012677	-19.612608	6.012677	9173.5	-1.794298E-11	-5.573211E+10	4.548689	0.195089	0	0
0	0	0	-0.095131	6.012677	-19.61304	6.012677	9172	-1.794004E-11	-5.574123E+10	4.48369	0.194072	0	0
0	0	0	-0.096274	6.012697	-19.614614	6.012697	9166.5	-1.649034E-11	-6.064157E+10	4.392019	0.193188	0	0
0	0	0	-0.096805	6.012908	-19.616002	6.012908	9163.5	-8.881624E-12	-1.12592E+11	4.322177	0.192303	0	0
0	0	0	-0.09754	6.01263	-19.616071	6.01263	9160	-2.249714E-11	-4.445009E+10	4.236368	0.191392	0	0
0	0	0	-0.096274	6.012445	-19.613798	6.012445	9166.5	9.942078E-10	1.005826E+9	4.150402	0.190494	0	0
0	0	0	-0.098398	6.012783	-19.617698	6.012783	9155.5	-1.222051E-11	-8.182967E+10	4.08722	0.189438	0	0
0	0	0	-0.096683	6.012736	-19.615282	6.012736	9164	-1.420564E-11	-7.039457E+10	4.002071	0.188646	0	0
0	0	0	-0.096356	6.012723	-19.614808	6.012723	9166	-1.489549E-11	-6.713444E+10	3.923026	0.187906	0	0
0	0	0	-0.094723	6.012981	-19.613488	6.012981	9174	-7.674958E-12	-1.302939E+11	3.902702	0.186837	0	0
0	0	0	-0.094192	6.012617	-19.611606	6.012617	9176.5	-2.431368E-11	-4.11291E+10	3.78491	0.186243	0	0
0	0	0	-0.094968	6.012716	-19.612953	6.012716	9172.5	-1.527519E-11	-6.546562E+10	3.753495	0.185055	0	0
0	0	0	-0.095458	6.012776	-19.613793	6.012776	9170.5	-1.248841E-11	-8.007423E+10	3.639693	0.184342	0	0
0	0	0	-0.093416	6.012657	-19.610711	6.012657	9180.5	-1.967337E-11	-5.083014E+10	3.562005	0.183378	0	0
0	0	0	-0.093416	6.012597	-19.610517	6.012597	9180.5	-2.758491E-11	-3.625171E+10	3.48421	0.182506	0	0
0	0	0	-0.092272	6.012802	-19.609673	6.012802	9186.5	-1.157276E-11	-8.640984E+10	3.388358	0.181807	0	0
0	0	0	-0.092027	6.01269	-19.608984	6.01269	9187.5	-1.698243E-11	-5.888437E+10	3.332732	0.180869	0	0
0	0	0	-0.091701	6.012902	-19.60924	6.012902	9189	-9.036587E-12	-1.106612E+11	3.261266	0.180117	0	0
0	0	0	-0.091987	6.012743	-19.609102	6.012743	9187.5	-1.392116E-11	-7.183311E+10	3.201215	0.17914	0	0
0	0	0	-0.091905	6.012677	-19.60878	6.012677	9188	-1.797134E-11	-5.564416E+10	3.079988	0.178559	0	0
0	0	0	-0.091292	6.012763	-19.60825	6.012763	9191	-1.304467E-11	-7.665968E+10	3.051413	0.177463	0	0
0	0	0	-0.090476	6.012723	-19.607043	6.012723	9195	-1.494261E-11	-6.69227E+10	2.962925	0.17671	0	0
0	0	0	-0.090394	6.012571	-19.606441	6.012571	9195.5	-3.364303E-11	-2.972384E+10	2.916411	0.175839	0	0
0	0	0	-0.089414	6.012511	-19.604953	6.012511	9200.5	-6.595897E-11	-1.516094E+10	2.87524	0.175047	0	0
0	0	0	-0.090312	6.012802	-19.607085	6.012802	9196	-1.158472E-11	-8.632057E+10	2.799643	0.174215	0	0
0	0	0	-0.09019	6.012769	-19.606815	6.012769	9196.5	-1.278268E-11	-7.823084E+10	2.774607	0.173423	0	0
0	0	0	-0.091047	6.012816	-19.608098	6.012816	9192	-1.116149E-11	-8.959373E+10	2.727363	0.172749	0	0
0	0	0	-0.090394	6.012611	-19.60657	6.012611	9195.5	-2.536337E-11	-3.942694E+10	2.702508	0.171653	0	0
0	0	0	-0.091129	6.012769	-19.608056	6.012769	9192	-1.277643E-11	-7.826914E+10	2.647094	0.171059	0	0
0	0	0	-0.090271	6.012683	-19.606644	6.012683	9196	-1.747859E-11	-5.721285E+10	2.643975	0.170307	0	0
0	0	0	-0.090271	6.012617	-19.606429	6.012617	9196	-2.436535E-11	-4.104189E+10	2.594255	0.169515	0	0
0	0	0	-0.091374	6.012505	-19.60752	6.012505	9190.5	-7.374973E-11	-1.355937E+10	2.576857	0.168604	0	0
0	0	0	-0.091415	6.012617	-19.607939	6.012617	9190.5	-2.435078E-11	-4.106645E+10	2.533687	0.167904	0	0
0	0	0	-0.091497	6.012425	-19.607424	6.012425	9190	1.707152E-10	5.857709E+9	2.535035	0.167019	0	0
0	0	0	-0.09313	6.012663	-19.610355	6.012663	9182	-1.90689E-11	-5.24414E+10	2.477573	0.166227	0	0
0	0	0	-0.092885	6.01263	-19.609924	6.01263	9183	-2.255363E-11	-4.433876E+10	2.45247	0.165369	0	0
0	0	0	-0.094886	6.012902	-19.613446	6.012902	9173	-9.020853E-12	-1.108543E+11	2.421408	0.164696	0	0
0	0	0	-0.094927	6.012716	-19.612899	6.012716	9173	-1.527603E-11	-6.546205E+10	2.392837	0.164035	0	0
0	0	0	-0.096315	6.012796	-19.61499	6.012796	9166	-1.176738E-11	-8.498071E+10	2.357191	0.163098	0	0
0	0	0	-0.096765	6.012756	-19.615455	6.012756	9164	-1.328678E-11	-7.52628E+10	2.332432	0.162464	0	0
0	0	0	-0.097949	6.012822	-19.617233	6.012822	9158	-1.092297E-11	-9.155017E+10	2.303677	0.161646	0	0
0	0	0	-0.097295	6.012584	-19.615597	6.012584	9161.5	-3.022927E-11	-3.308052E+10	2.246455	0.160959	0	0
0	0	0	-0.098725	6.012783	-19.618129	6.012783	9154	-1.22185E-11	-8.184308E+10	2.239556	0.160206	0	0
0	0	0	-0.099501	6.01273	-19.618982	6.01273	9150.5	-1.451942E-11	-6.887329E+10	2.206262	0.159428	0	0
0	0	0	-0.09946	6.01273	-19.618928	6.01273	9150.5	-1.451942E-11	-6.887329E+10	2.189786	0.158675	0	0
0	0	0	-0.09995	6.012822	-19.619876	6.012822	9148	-1.091105E-11	-9.165024E+10	2.140083	0.157988	0	0
0	0	0	-0.097091	6.012597	-19.615371	6.012597	9162	-2.752932E-11	-3.632491E+10	2.095655	0.157275	0	0
0	0	0	-0.100521	6.012683	-19.62018	6.012683	9145.5	-1.738261E-11	-5.752877E+10	2.104344	0.156483	0	0
0	0	0	-0.100521	6.012789	-19.620523	6.012789	9145.5	-1.196957E-11	-8.354517E+10	2.023459	0.155902	0	0
0	0	0	-0.101134	6.012703	-19.621053	6.012703	9142	-1.601775E-11	-6.243074E+10	2.038535	0.154978	0	0
0	0	0	-0.101542	6.013027	-19.622645	6.013027	9140	-7.033953E-12	-1.421676E+11	1.981875	0.154463	0	0
0	0	0	-0.100807	6.01267	-19.620514	6.01267	9144	-1.842108E-11	-5.428562E+10	1.95485	0.153645	0	0
0	0	0	-0.100195	6.012875	-19.620371	6.012875	9147	-9.554171E-12	-1.046663E+11	1.924518	0.15305	0	0
0	0	0	-0.100603	6.012955	-19.621168	6.012955	9145	-8.051362E-12	-1.242026E+11	1.901525	0.152245	0	0
0	0	0	-0.100236	6.012716	-19.619909	6.012716	9146.5	-1.523189E-11	-6.565172E+10	1.867731	0.151638	0	0
0	0	0	-0.09897	6.01263	-19.617959	6.01263	9153	-2.247995E-11	-4.448409E+10	1.844533	0.150832	0	0
0	0	0	-0.098602	6.012736	-19.617817	6.012736	9155	-1.419169E-11	-7.046377E+10	1.832366	0.150317	0	0
0	0	0	-0.098929	6.012849	-19.618613	6.012849	9153	-1.019379E-11	-9.809895E+10	1.765861	0.149578	0	0
0	0	0	-0.098194	6.012677	-19.617084	6.012677	9157	-1.79107E-11	-5.583254E+10	1.772792	0.148852	0	0
0	0	0	-0.096356	6.012736	-19.614851	6.012736	9166	-1.420874E-11	-7.037921E+10	1.703646	0.148271	0	0
0	0	0	-0.097214	6.01269	-19.615833	6.01269	9161.5	-1.693438E-11	-5.905148E+10	1.715682	0.147518	0	0
0	0	0	-0.096029	6.012604	-19.61399	6.012604	9167.5	-2.636767E-11	-3.792524E+10	1.665448	0.146977	0	0
0	0	0	-0.094927	6.012769	-19.613071	6.012769	9173	-1.275002E-11	-7.843126E+10	1.656125	0.146291	0	0
0	0	0	-0.09509	6.012736	-19.613179	6.012736	9172	-1.421804E-11	-7.033317E+10	1.618399	0.145485	0	0
0	0	0	-0.094028	6.012921	-19.612378	6.012921	9177.5	-8.645958E-12	-1.15661E+11	1.592845	0.14497	0	0
0	0	0	-0.092844	6.012644	-19.609913	6.012644	9183.5	-2.101947E-11	-4.757494E+10	1.570941	0.144257	0	0
0	0	0	-0.09264	6.012604	-19.609514	6.012604	9184	-2.641512E-11	-3.78571E+10	1.523341	0.143663	0	0
0	0	0	-0.092803	6.012531	-19.609494	6.012531	9183.5	-4.988304E-11	-2.00469E+10	1.539808	0.142924	0	0
0	0	0	-0.091456	6.012862	-19.608788	6.012862	9190	-9.906847E-12	-1.009403E+11	1.49319	0.14233	0	0
0	0	0	-0.092477	6.01267	-19.609513	6.01267	9185	-1.850368E-11	-5.40433E+10	1.483485	0.141564	0	0
0	0	0	-0.092068	6.012763	-19.609275	6.012763	9187	-1.303899E-11	-7.669306E+10	1.438377	0.141115	0	0
0	0	0	-0.092803	6.012551	-19.609558	6.012551	9183.5	-4.015293E-11	-2.490479E+10	1.433	0.140415	0	0
0	0	0	-0.092885	6.012683	-19.610095	6.012683	9183	-1.745388E-11	-5.729384E+10	1.382847	0.1399	0	0
0	0	0	-0.091782	6.01267	-19.608596	6.01267	9188.5	-1.851073E-11	-5.402272E+10	1.394101	0.138936	0	0
0	0	0	-0.092313	6.01267	-19.609297	6.01267	9186	-1.85057E-11	-5.403742E+10	1.322316	0.138527	0	0
0	0	0	-0.093008	6.012657	-19.610171	6.012657	9182.5	-1.967765E-11	-5.081907E+10	1.327496	0.137973	0	0
0	0	0	-0.093579	6.012703	-19.611077	6.012703	9180	-1.608433E-11	-6.217231E+10	1.304699	0.137299	0	0
0	0	0	-0.093253	6.01265	-19.610473	6.01265	9181.5	-2.032316E-11	-4.920495E+10	1.279906	0.136626	0	0
0	0	0	-0.094151	6.012683	-19.611767	6.012683	9177	-1.744248E-11	-5.73313E+10	1.257454	0.136045	0	0
0	0	0	-0.094396	6.012769	-19.61237	6.012769	9175.5	-1.275349E-11	-7.840989E+10	1.227833	0.135438	0	0
0	0	0	-0.094273	6.012816	-19.612358	6.012816	9176.5	-1.114267E-11	-8.974507E+10	1.237838	0.134712	0	0
0	0	0	-0.095539	6.012604	-19.613343	6.012604	9170	-2.637486E-11	-3.79149E+10	1.192055	0.13421	0	0
0	0	0	-0.095376	6.012571	-19.61302	6.012571	9170.5	-3.355157E-11	-2.980487E+10	1.178755	0.133589	0	0
0	0	0	-0.09754	6.012829	-19.616715	6.012829	9160	-1.073495E-11	-9.315363E+10	1.142641	0.132982	0	0
0	0	0	-0.098684	6.012802	-19.618139	6.012802	9154.5	-1.153244E-11	-8.671189E+10	1.142689	0.132322	0	0
0	0	0	-0.099215	6.012703	-19.618518	6.012703	9152	-1.603527E-11	-6.236252E+10	1.105742	0.131767	0	0
0	0	0	-0.100399	6.012822	-19.620469	6.012822	9146	-1.090866E-11	-9.167028E+10	1.090909	0.131028	0	0
0	0	0	-0.09946	6.01265	-19.61867	6.01265	9150.5	-2.025454E-11	-4.937165E+10	1.084546	0.130645	0	0
0	0	0	-0.101093	6.012796	-19.6213	6.012796	9142.5	-1.173721E-11	-8.519914E+10	1.06314	0.129958	0	0
0	0	0	-0.101665	6.012921	-19.622463	6.012921	9139.5	-8.610159E-12	-1.161419E+11	1.042006	0.129232	0	0
0	0	0	-0.100848	6.012716	-19.620718	6.012716	9143.5	-1.52269E-11	-6.567326E+10	0.989275	0.12877	0	0
0	0	0	-0.102032	6.012624	-19.621982	6.012624	9137.5	-2.32926E-11	-4.29321E+10	1.032355	0.127952	0	0
0	0	0	-0.102931	6.012902	-19.62407	6.012902	9133.5	-8.982008E-12	-1.113337E+11	0.974099	0.127635	0	0
0	0	0	-0.102604	6.0131	-19.624283	6.0131	9135	-6.244059E-12	-1.601522E+11	0.978044	0.126856	0	0
0	0	0	-0.105463	6.012617	-19.62649	6.012617	9121	-2.416663E-11	-4.137937E+10	0.93229	0.126367	0	0
0	0	0	-0.105422	6.012809	-19.627059	6.012809	9121	-1.127895E-11	-8.866076E+10	0.95499	0.125707	0	0
0	0	0	-0.102441	6.012736	-19.622886	6.012736	9135.5	-1.416146E-11	-7.061418E+10	0.909411	0.125139	0	0
0	0	0	-0.104238	6.012743	-19.62528	6.012743	9127	-1.382949E-11	-7.230927E+10	0.897708	0.124545	0	0
0	0	0	-0.103462	6.012776	-19.624363	6.012776	9130.5	-1.243394E-11	-8.042503E+10	0.873413	0.124004	0	0
0	0	0	-0.103217	6.01263	-19.623567	6.01263	9132	-2.242837E-11	-4.458638E+10	0.85445	0.123529	0	0
0	0	0	-0.103135	6.012822	-19.624082	6.012822	9132.5	-1.089256E-11	-9.18058E+10	0.862246	0.122974	0	0
0	0	0	-0.102931	6.012822	-19.623812	6.012822	9133.5	-1.089375E-11	-9.179574E+10	0.815203	0.12242	0	0
0	0	0	-0.100889	6.012849	-19.621202	6.012849	9143.5	-1.018321E-11	-9.820087E+10	0.841407	0.121839	0	0
0	0	0	-0.099541	6.012564	-19.618499	6.012564	9150	-3.540272E-11	-2.824642E+10	0.795178	0.121363	0	0
0	0	0	-0.099746	6.012657	-19.619069	6.012657	9149	-1.960586E-11	-5.100515E+10	0.803565	0.12069	0	0
0	0	0	-0.100154	6.012723	-19.619823	6.012723	9147	-1.486461E-11	-6.727389E+10	0.772844	0.120307	0	0
0	0	0	-0.09848	6.012663	-19.617419	6.012663	9155.5	-1.901387E-11	-5.259319E+10	0.759947	0.119713	0	0
0	0	0	-0.097826	6.012769	-19.6169	6.012769	9158.5	-1.272986E-11	-7.855543E+10	0.755304	0.119119	0	0
0	0	0	-0.09754	6.01267	-19.6162	6.01267	9160	-1.845332E-11	-5.41908E+10	0.71415	0.118657	0	0
0	0	0	-0.096234	6.012604	-19.61426	6.012604	9166.5	-2.636479E-11	-3.792937E+10	0.72134	0.118155	0	0
0	0	0	-0.096928	6.012882	-19.616078	6.012882	9163	-9.424494E-12	-1.061065E+11	0.69868	0.117706	0	0
0	0	0	-0.095335	6.012816	-19.61376	6.012816	9171	-1.1136E-11	-8.979889E+10	0.695597	0.117125	0	0
0	0	0	-0.094641	6.012637	-19.612264	6.012637	9174.5	-2.173879E-11	-4.600073E+10	0.661705	0.116716	0	0
0	0	0	-0.094396	6.012597	-19.611811	6.012597	9175.5	-2.756988E-11	-3.627146E+10	0.670192	0.11595	0	0
0	0	0	-0.093334	6.012716	-19.610796	6.012716	9181	-1.528935E-11	-6.540501E+10	0.644179	0.11558	0	0
0	0	0	-0.093089	6.012763	-19.610623	6.012763	9182	-1.303189E-11	-7.673482E+10	0.645932	0.114867	0	0
0	0	0	-0.093538	6.012591	-19.610658	6.012591	9180	-2.887356E-11	-3.463377E+10	0.638822	0.114564	0	0
0	0	0	-0.093089	6.012697	-19.610408	6.012697	9182	-1.651822E-11	-6.053921E+10	0.614936	0.114141	0	0
0	0	0	-0.093375	6.01269	-19.610764	6.01269	9180.5	-1.69695E-11	-5.892927E+10	0.595439	0.113283	0	0
0	0	0	-0.094028	6.012531	-19.611111	6.012531	9177.5	-4.985045E-11	-2.006E+10	0.563957	0.112979	0	0
0	0	0	-0.094314	6.012657	-19.611897	6.012657	9176	-1.966372E-11	-5.085507E+10	0.587207	0.112306	0	0
0	0	0	-0.094641	6.012697	-19.612457	6.012697	9174.5	-1.650473E-11	-6.058869E+10	0.552945	0.112055	0	0
0	0	0	-0.093947	6.01271	-19.611583	6.01271	9177.5	-1.567162E-11	-6.38096E+10	0.58499	0.111421	0	0
0	0	0	-0.0946	6.012716	-19.612468	6.012716	9174.5	-1.527852E-11	-6.545135E+10	0.542238	0.111012	0	0
0	0	0	-0.093824	6.012571	-19.610971	6.012571	9178.5	-3.358084E-11	-2.977889E+10	0.551598	0.110458	0	0
0	0	0	-0.095703	6.012921	-19.614589	6.012921	9169	-8.637951E-12	-1.157682E+11	0.535393	0.110062	0	0
0	0	0	-0.095784	6.012829	-19.614397	6.012829	9168.5	-1.074492E-11	-9.306727E+10	0.512682	0.109586	0	0
0	0	0	-0.09656	6.012663	-19.614884	6.012663	9165	-1.90336E-11	-5.253867E+10	0.528614	0.109084	0	0
0	0	0	-0.096846	6.012763	-19.615584	6.012763	9163.5	-1.300564E-11	-7.688974E+10	0.498915	0.108609	0	0
0	0	0	-0.099541	6.012829	-19.619358	6.012829	9150	-1.072324E-11	-9.325544E+10	0.478515	0.108041	0	0
0	0	0	-0.099623	6.012776	-19.619294	6.012776	9150	-1.24605E-11	-8.025363E+10	0.468863	0.107606	0	0
0	0	0	-0.099705	6.012657	-19.619015	6.012657	9149	-1.960586E-11	-5.100515E+10	0.473417	0.107078	0	0
0	0	0	-0.100399	6.012769	-19.620297	6.012769	9146	-1.271249E-11	-7.866279E+10	0.453931	0.106734	0	0
0	0	0	-0.100521	6.012948	-19.621039	6.012948	9145.5	-8.158618E-12	-1.225698E+11	0.455879	0.106246	0	0
0	0	0	-0.102727	6.012749	-19.623306	6.012749	9134.5	-1.353585E-11	-7.387788E+10	0.446332	0.105718	0	0
0	0	0	-0.104973	6.012816	-19.626487	6.012816	9123.5	-1.107832E-11	-9.026641E+10	0.445136	0.105427	0	0
0	0	0	-0.104197	6.012769	-19.625312	6.012769	9127	-1.268608E-11	-7.882655E+10	0.42821	0.104939	0	0
0	0	0	-0.104687	6.012763	-19.625938	6.012763	9125	-1.295099E-11	-7.721415E+10	0.396795	0.10449	0	0
0	0	0	-0.103503	6.012888	-19.624782	6.012888	9130.5	-9.249593E-12	-1.081129E+11	0.415423	0.103975	0	0
0	0	0	-0.103788	6.012822	-19.624945	6.012822	9129	-1.088838E-11	-9.184099E+10	0.407832	0.103473	0	0
0	0	0	-0.104483	6.012683	-19.62541	6.012683	9125.5	-1.734459E-11	-5.765485E+10	0.397733	0.102972	0	0
0	0	0	-0.105013	6.012789	-19.626455	6.012789	9123	-1.194012E-11	-8.375122E+10	0.369698	0.102721	0	0
0	0	0	-0.105177	6.012895	-19.627014	6.012895	9122	-9.103835E-12	-1.098438E+11	0	0	0	0
0	0	0	-0.105994	6.012743	-19.627599	6.012743	9118.5	-1.381661E-11	-7.237667E+10	0	0	0	0
0	0	0	-0.105095	6.012736	-19.626391	6.012736	9122.5	-1.414131E-11	-7.071481E+10	0	0	0	0
0	0	0	-0.104483	6.01269	-19.625432	6.01269	9125.5	-1.686783E-11	-5.928444E+10	0	0	0	0
0	0	0	-0.104115	6.01273	-19.625075	6.01273	9127.5	-1.448292E-11	-6.904684E+10	0	0	0	0
0	0	0	-0.10632	6.012855	-19.628396	6.012855	9116.5	-9.987724E-12	-1.001229E+11	0	0	0	0
0	0	0	-0.10387	6.012849	-19.625138	6.012849	9128.5	-1.01665E-11	-9.836224E+10	0	0	0	0
0	0	0	-0.103258	6.012564	-19.623406	6.012564	9132	-3.533307E-11	-2.830209E+10	0	0	0	0
0	0	0	-0.101992	6.012974	-19.623066	6.012974	9138	-7.741148E-12	-1.291798E+11	0	0	0	0
0	0	0	-0.100399	6.012677	-19.619996	6.012677	9146	-1.788919E-11	-5.589969E+10	0	0	0	0
0	0	0	-0.100726	6.012697	-19.620492	6.012697	9144	-1.644986E-11	-6.079079E+10	0	0	0	0
0	0	0	-0.099256	6.012604	-19.61825	6.012604	9151.5	-2.632165E-11	-3.799154E+10	0	0	0	0
0	0	0	-0.098684	6.012551	-19.617323	6.012551	9154.5	-4.002613E-11	-2.498368E+10	0	0	0	0
0	0	0	-0.09705	6.01267	-19.615553	6.01267	9162.5	-1.845835E-11	-5.417601E+10	0	0	0	0
0	0	0	-0.097459	6.012802	-19.616522	6.012802	9160.5	-1.154E-11	-8.665509E+10	0	0	0	0
0	0	0	-0.096969	6.012683	-19.615488	6.012683	9162.5	-1.741492E-11	-5.742203E+10	0	0	0	0
0	0	0	-0.096274	6.012597	-19.614292	6.012597	9166.5	-2.754284E-11	-3.630707E+10	0	0	0	0
0	0	0	-0.096234	6.012644	-19.614388	6.012644	9166.5	-2.098056E-11	-4.766317E+10	0	0	0	0
0	0	0	-0.096029	6.012683	-19.614248	6.012683	9167.5	-1.742442E-11	-5.739071E+10	0	0	0	0
0	0	0	-0.095376	6.012769	-19.613664	6.012769	9170.5	-1.274654E-11	-7.845264E+10	0	0	0	0
0	0	0	-0.094845	6.01269	-19.612705	6.01269	9173.5	-1.695656E-11	-5.897424E+10	0	0	0	0
0	0	0	-0.094845	6.012776	-19.612984	6.012776	9173.5	-1.24925E-11	-8.004804E+10	0	0	0	0
0	0	0	-0.095662	0	-0.095662	0	9169	0	0	0	0	0	0
0	0	0	-0.094518	0	-0.094518	0	9175	0	0	0	0	0	0
