Vload_(V)	ILoad_(A)	RsLoad (ohm)	SunsVoc_Voltage_(V)	SunsVoc_Current_(A)	Model_Voltage_(V)	Model_Current_(A)	Carrier_Density_(cm-3)	Lifetime_(s)	Inverse_Lifetime_(s-1)	Efficiency_(%)	Intensity_(suns)	Dark_IV_Voltage_(V)	Dark_IV_Current_(A)
2.955025	6.38943	0	65.011093	-0.8008	65.260303	-0.8008	3.834366E+15	0.000224	4442.679718	19.601358	1.111766	0	0
2.982073	6.3872	3.361316	64.947306	-0.525576	65.112485	-0.525576	3.776775E+15	0.000229	4337.928838	19.563668	1.111383	0	0
7.207905	6.371626	6.305054	64.799069	-0.103469	64.832328	-0.103469	3.645861E+15	0.000236	4220.354699	19.585443	1.108874	0	0
12.073103	6.356792	5.990077	64.627719	0.31401	64.524185	0.31401	3.499504E+15	0.000242	4115.331088	19.583853	1.10597	0	0
16.754699	6.351707	5.338819	64.459554	0.710789	64.219426	0.710789	3.360886E+15	0.000248	4006.247916	19.522168	1.104425	0	0
21.557008	6.347649	4.640392	64.283916	1.086735	63.907564	1.086735	3.221239E+15	0.000255	3904.244185	19.482447	1.103897	0	0
26.762234	6.275333	4.351556	64.108155	1.442334	63.596414	1.442334	3.086567E+15	0.000262	3802.306488	19.548003	1.103303	0	0
31.655537	6.270852	3.592264	63.932558	1.777955	63.286663	1.777955	2.956917E+15	0.000269	3700.631567	19.590025	1.102154	0	0
36.562034	6.265381	2.832025	63.75206	2.087182	62.975639	2.087182	2.828574E+15	0.000276	3610.006627	19.553547	1.099698	0	0
41.11034	6.320499	1.819335	63.584262	2.368016	62.684187	2.368016	2.713592E+15	0.000283	3518.05669	19.51241	1.096094	0	0
45.917434	6.295787	1.205672	63.4143	2.620624	62.396703	2.620624	2.601239E+15	0.00029	3440.193148	19.537591	1.09146	0	0
47.321194	6.277508	1.066708	63.249647	2.85828	62.117042	2.85828	2.496216E+15	0.000297	3359.494715	19.538168	1.087961	0	0
48.718286	6.249407	0.949029	63.08091	3.081703	61.834665	3.081703	2.392363E+15	0.000304	3284.150284	19.499654	1.084621	0	0
50.130799	6.206483	0.847553	62.917401	3.288007	61.561766	3.288007	2.295259E+15	0.000311	3210.131269	19.496381	1.081597	0	0
51.555422	6.135441	0.771706	62.754095	3.481212	61.291353	3.481212	2.201636E+15	0.000318	3138.661409	19.535556	1.077966	0	0
52.977534	6.032663	0.70154	62.591361	3.658481	61.025387	3.658481	2.111579E+15	0.000325	3073.525124	19.5453	1.073794	0	0
54.358771	5.883958	0.643529	62.43116	3.825187	60.764238	3.825187	2.025982E+15	0.000332	3008.264377	19.509684	1.06879	0	0
55.736601	5.661911	0.596067	62.269324	3.981354	60.503238	3.981354	1.942501E+15	0.000339	2946.87621	19.496614	1.063007	0	0
57.106997	5.341762	0.55458	62.111532	4.127906	60.248986	4.127906	1.86391E+15	0.000346	2884.58918	19.523112	1.057145	0	0
58.433533	4.901625	0.522284	61.947042	4.265927	59.988337	4.265927	1.784842E+15	0.000353	2828.896916	19.498703	1.052313	0	0
59.729485	4.31749	0.491621	61.789086	4.391501	59.73923	4.391501	1.711578E+15	0.00036	2775.863515	19.477644	1.047573	0	0
60.991424	3.563776	0.46468	61.631702	4.505867	59.494221	4.505867	1.641098E+15	0.000366	2729.669508	19.513565	1.042358	0	0
62.170707	2.671506	0.444174	61.477053	4.614643	59.253513	4.614643	1.574219E+15	0.000372	2681.577429	19.534181	1.037288	0	0
63.215691	1.716242	0.447081	61.32216	4.717272	59.013887	4.717272	1.509528E+15	0.000379	2635.045641	19.510659	1.031822	0	0
64.096002	0.792602	0.458203	61.169391	4.813636	58.778457	4.813636	1.447906E+15	0.000386	2589.111428	19.484155	1.025907	0	0
53.614613	5.975667	0.668575	61.006412	4.903747	58.532129	4.903747	1.384487E+15	0.000391	2553.120437	19.519974	1.019424	0	0
64.770788	0	0	60.855684	4.987393	58.302898	4.987393	1.327905E+15	0.000398	2512.243309	19.526826	1.013549	0	0
0	0	0	60.705977	5.065924	58.076375	5.065924	1.27362E+15	0.000404	2472.796378	19.491765	1.008439	0	0
0	0	0	60.555535	5.139284	57.850521	5.139284	1.220935E+15	0.00041	2436.701812	19.482295	1.002986	0	0
0	0	0	60.400315	5.208354	57.619911	5.208354	1.168483E+15	0.000415	2405.589802	19.529586	0.996979	0	0
0	0	0	60.254488	5.272325	57.40281	5.272325	1.120919E+15	0.000421	2371.991102	19.536431	0.991143	0	0
0	0	0	60.109232	5.332076	57.187838	5.332076	1.075148E+15	0.000427	2340.836228	19.485223	0.985545	0	0
0	0	0	59.964344	5.388951	56.974088	5.388951	1.031046E+15	0.000433	2309.792968	19.494045	0.9793	0	0
0	0	0	59.821783	5.441528	56.764895	5.441528	9.891267E+14	0.000438	2281.272725	19.526517	0.973465	0	0
0	0	0	59.679794	5.491506	56.557181	5.491506	9.487895E+14	0.000444	2252.977695	19.523455	0.96821	0	0
0	0	0	59.538949	5.539826	56.351184	5.539826	9.101346E+14	0.00045	2222.375454	19.486338	0.962955	0	0
0	0	0	59.399615	5.583703	56.149036	5.583703	8.731897E+14	0.000455	2196.86852	19.512518	0.957172	0	0
0	0	0	59.25636	5.624939	55.942866	5.624939	8.365129E+14	0.000459	2175.918522	19.541528	0.951706	0	0
0	0	0	59.12115	5.663561	55.74793	5.663561	8.030801E+14	0.000464	2152.078602	19.512007	0.946359	0	0
0	0	0	58.983776	5.699562	55.551307	5.699562	7.702591E+14	0.000469	2132.571227	19.490231	0.940668	0	0
0	0	0	58.84975	5.734013	55.359426	5.734013	7.393235E+14	0.000474	2110.917032	19.518005	0.934753	0	0
0	0	0	58.713927	5.766223	55.166181	5.766223	7.090386E+14	0.000478	2092.97649	19.546129	0.929525	0	0
0	0	0	58.583659	5.796634	54.98074	5.796634	6.809738E+14	0.000482	2072.947039	19.502672	0.924574	0	0
0	0	0	58.448612	5.825605	54.789699	5.825605	6.528682E+14	0.000486	2056.571782	19.500558	0.918963	0	0
0	0	0	58.31867	5.852933	54.60587	5.852933	6.267508E+14	0.00049	2038.489419	19.535057	0.913444	0	0
0	0	0	58.183664	5.879158	54.415903	5.879158	6.005521E+14	0.000494	2023.47323	19.53456	0.908096	0	0
0	0	0	58.053641	5.90302	54.233527	5.90302	5.761991E+14	0.000497	2010.415719	19.490632	0.903053	0	0
0	0	0	57.926067	5.926465	54.054274	5.926465	5.531213E+14	0.000502	1993.388054	19.498774	0.897098	0	0
0	0	0	57.796288	5.948124	53.873072	5.948124	5.304527E+14	0.000505	1981.368632	19.525514	0.891553	0	0
0	0	0	57.668552	5.968747	53.694918	5.968747	5.08916E+14	0.000508	1968.742041	19.519837	0.886245	0	0
0	0	0	57.535261	5.988624	53.509852	5.988624	4.87241E+14	0.00051	1959.193151	19.489496	0.880964	0	0
0	0	0	57.411608	6.00691	53.338042	6.00691	4.678428E+14	0.000513	1947.366583	19.523507	0.875274	0	0
0	0	0	57.283013	6.024381	53.160193	6.024381	4.483743E+14	0.000516	1939.142664	19.542873	0.869927	0	0
0	0	0	57.156216	6.041232	52.984876	6.041232	4.298629E+14	0.000518	1929.309195	19.507105	0.864936	0	0
0	0	0	57.029173	6.057012	52.809782	6.057012	4.119793E+14	0.00052	1921.850192	19.492158	0.859562	0	0
0	0	0	56.900946	6.072449	52.633204	6.072449	3.945842E+14	0.000523	1913.414669	19.527363	0.854083	0	0
0	0	0	56.776435	6.08661	52.462147	6.08661	3.783055E+14	0.000524	1906.610254	19.524064	0.849145	0	0
0	0	0	56.648086	6.100322	52.286273	6.100322	3.621388E+14	0.000526	1901.558292	19.47687	0.844339	0	0
0	0	0	56.527251	6.113144	52.120601	6.113144	3.474721E+14	0.000528	1893.943926	19.491047	0.83919	0	0
0	0	0	56.401801	6.125297	51.949287	6.125297	3.327973E+14	0.000529	1890.489211	19.528195	0.834054	0	0
0	0	0	56.278311	6.137113	51.780614	6.137113	3.188855E+14	0.000531	1884.718115	19.512241	0.829288	0	0
0	0	0	56.156373	6.148472	51.614151	6.148472	3.05653E+14	0.000532	1877.808721	19.459061	0.824786	0	0
0	0	0	56.034639	6.158883	51.448524	6.158883	2.929284E+14	0.000533	1874.734341	19.506526	0.819504	0	0
0	0	0	55.913191	6.168948	51.283405	6.168948	2.807032E+14	0.000534	1870.980736	19.525518	0.81487	0	0
0	0	0	55.790068	6.178707	51.116226	6.178707	2.687741E+14	0.000535	1867.546094	19.481169	0.810394	0	0
0	0	0	55.673562	6.187527	50.958239	6.187527	2.57904E+14	0.000536	1864.80422	19.462238	0.805984	0	0
0	0	0	55.552318	6.196155	50.794146	6.196155	2.470106E+14	0.000536	1863.848828	19.50098	0.800981	0	0
0	0	0	55.434749	6.204153	50.635215	6.204153	2.368432E+14	0.000537	1863.428346	19.509666	0.796703	0	0
0	0	0	55.317548	6.211976	50.476808	6.211976	2.270836E+14	0.000537	1861.458072	19.457186	0.792385	0	0
0	0	0	55.193813	6.21942	50.310114	6.21942	2.171748E+14	0.000536	1864.750436	19.477518	0.787566	0	0
0	0	0	55.080982	6.22638	50.157895	6.22638	2.084819E+14	0.000537	1862.987112	19.502916	0.782932	0	0
0	0	0	54.958268	6.233194	49.99286	6.233194	1.993869E+14	0.000536	1866.56605	19.463429	0.778733	0	0
0	0	0	54.842619	6.23978	49.83712	6.23978	1.911474E+14	0.000536	1864.953479	19.440372	0.774324	0	0
0	0	0	54.725826	6.245861	49.680227	6.245861	1.831429E+14	0.000535	1867.376946	19.480472	0.769505	0	0
0	0	0	54.604256	6.251806	49.517155	6.251806	1.751378E+14	0.000534	1871.874018	19.485853	0.765253	0	0
0	0	0	54.490812	6.257261	49.364996	6.257261	1.679587E+14	0.000533	1874.516641	19.429696	0.76124	0	0
0	0	0	54.368547	6.262834	49.201193	6.262834	1.605253E+14	0.000532	1878.622273	19.441526	0.756579	0	0
0	0	0	54.251836	6.267979	49.044914	6.267979	1.537138E+14	0.000531	1882.143707	19.47092	0.752169	0	0
0	0	0	54.135043	6.273205	48.888403	6.273205	1.471661E+14	0.000532	1881.297537	19.444767	0.747878	0	0
0	0	0	54.013268	6.278224	48.725516	6.278224	1.406154E+14	0.000531	1883.92175	19.398778	0.743785	0	0
0	0	0	53.901009	6.282084	48.575952	6.282084	1.348177E+14	0.000527	1896.732984	19.426343	0.73923	0	0
0	0	0	53.779561	6.286754	48.413679	6.286754	1.287969E+14	0.000527	1899.023037	19.45953	0.735045	0	0
0	0	0	53.661053	6.29082	48.255704	6.29082	1.231649E+14	0.000524	1907.227839	19.416218	0.730939	0	0
0	0	0	53.544873	6.295076	48.100552	6.295076	1.178682E+14	0.000524	1906.914053	19.386996	0.726674	0	0
0	0	0	53.421996	6.298629	47.937231	6.298629	1.124994E+14	0.00052	1922.69335	19.426998	0.722053	0	0
0	0	0	53.311124	6.302187	47.789523	6.302187	1.078534E+14	0.000519	1926.925582	19.410319	0.718171	0	0
0	0	0	53.189023	6.305818	47.627063	6.305818	1.029466E+14	0.000517	1934.749302	19.37582	0.714131	0	0
0	0	0	53.069576	6.309227	47.46822	6.309227	9.835119E+13	0.000515	1942.582211	19.396586	0.709603	0	0
0	0	0	52.953641	6.312425	47.314109	6.312425	9.407727E+13	0.000513	1949.872972	19.421637	0.705285	0	0
0	0	0	52.82913	6.315329	47.149035	6.315329	8.968382E+13	0.000508	1968.236219	19.373347	0.70147	0	0
0	0	0	52.712909	6.31822	46.994758	6.31822	8.575957E+13	0.000506	1978.006074	19.352595	0.697271	0	0
0	0	0	52.589623	6.320912	46.831408	6.320912	8.17759E+13	0.000501	1995.951917	19.401605	0.692861	0	0
0	0	0	52.467971	6.323671	46.670097	6.323671	7.801863E+13	0.000498	2007.831247	19.370748	0.689217	0	0
0	0	0	52.347054	6.326593	46.509563	6.326593	7.444807E+13	0.000497	2010.628674	19.325236	0.685428	0	0
0	0	0	52.222666	6.328848	46.345082	6.328848	7.09387E+13	0.000492	2034.369888	19.334215	0.681467	0	0
0	0	0	52.098032	6.331202	46.180161	6.331202	6.758202E+13	0.000487	2052.439678	19.382931	0.677308	0	0
0	0	0	51.976421	6.333403	46.019303	6.333403	6.445431E+13	0.000483	2070.70678	19.342598	0.673862	0	0
0	0	0	51.854728	6.335409	45.858496	6.335409	6.146433E+13	0.000478	2093.679777	19.305093	0.670126	0	0
0	0	0	51.726787	6.337764	45.689173	6.337764	5.846529E+13	0.000475	2105.120633	19.347884	0.665993	0	0
0	0	0	51.592884	6.339839	45.512303	6.339839	5.547809E+13	0.00047	2129.379257	19.344171	0.662521	0	0
0	0	0	51.463595	6.341565	45.34177	6.341565	5.273434E+13	0.000462	2162.211732	19.295157	0.659048	0	0
0	0	0	51.336757	6.343626	45.17409	6.343626	5.017065E+13	0.00046	2174.818371	19.299523	0.65518	0	0
0	0	0	51.211348	6.345278	45.008653	6.345278	4.775499E+13	0.000454	2202.426111	19.324679	0.651245	0	0
0	0	0	51.074096	6.347067	44.827589	6.347067	4.524079E+13	0.000448	2230.636352	19.273315	0.648143	0	0
0	0	0	50.94591	6.348509	44.658689	6.348509	4.300931E+13	0.000441	2266.471045	19.263672	0.644208	0	0
0	0	0	50.811598	6.350222	44.481498	6.350222	4.078634E+13	0.000437	2289.984749	19.303893	0.640247	0	0
0	0	0	50.681248	6.351626	44.309771	6.351626	3.873632E+13	0.00043	2324.842169	19.293829	0.636669	0	0
0	0	0	50.545589	6.353013	44.131106	6.353013	3.670977E+13	0.000423	2363.152971	19.239198	0.633368	0	0
0	0	0	50.408133	6.354388	43.950087	6.354388	3.476224E+13	0.000416	2401.340332	19.269776	0.62946	0	0
0	0	0	50.270881	6.355955	43.76912	6.355955	3.291866E+13	0.000413	2422.428566	19.293354	0.62583	0	0
0	0	0	50.127381	6.356989	43.580515	6.356989	3.109367E+13	0.000402	2485.367763	19.238974	0.622582	0	0
0	0	0	49.983065	6.358331	43.390509	6.358331	2.935851E+13	0.000396	2523.38711	19.202126	0.618911	0	0
0	0	0	49.829315	6.359565	43.188266	6.359565	2.761455E+13	0.000388	2576.243022	19.262085	0.615003	0	0
0	0	0	49.680384	6.360631	42.992482	6.360631	2.602252E+13	0.000379	2636.304151	19.245072	0.611874	0	0
0	0	0	49.523776	6.361885	42.786447	6.361885	2.444586E+13	0.000373	2684.16191	19.191375	0.608679	0	0
0	0	0	49.365125	6.362862	42.57802	6.362862	2.294465E+13	0.000363	2758.323797	19.219327	0.604797	0	0
0	0	0	49.203004	6.3638	42.365081	6.3638	2.150453E+13	0.000352	2839.113593	19.222425	0.601457	0	0
0	0	0	49.031695	6.364912	42.139928	6.364912	2.007968E+13	0.000344	2908.68271	19.176293	0.598433	0	0
0	0	0	48.858915	6.365903	41.912966	6.365903	1.873711E+13	0.000334	2991.103853	19.159467	0.594921	0	0
0	0	0	48.675028	6.366648	41.671736	6.366648	1.740564E+13	0.000321	3117.909149	19.211874	0.59133	0	0
0	0	0	48.488405	6.367619	41.426664	6.367619	1.615009E+13	0.000311	3217.052359	19.170978	0.588373	0	0
0	0	0	48.295779	6.368332	41.174016	6.368332	1.494818E+13	0.000297	3362.183532	19.123206	0.585164	0	0
0	0	0	48.090166	6.369348	40.904032	6.369348	1.376293E+13	0.000288	3475.791028	19.151319	0.5816	0	0
0	0	0	47.877939	6.369876	40.625933	6.369876	1.263724E+13	0.000271	3686.001754	19.165215	0.578404	0	0
0	0	0	47.657748	6.370894	40.336848	6.370894	1.156584E+13	0.000262	3817.821466	19.109229	0.57546	0	0
0	0	0	47.421508	6.37168	40.027023	6.37168	1.051647E+13	0.000249	4020.611936	19.100149	0.572159	0	0
0	0	0	47.176243	6.372355	39.705509	6.372355	9.527029E+12	0.000234	4269.397459	19.135967	0.568713	0	0
0	0	0	46.917258	6.373092	39.365963	6.373092	8.582559E+12	0.000221	4534.631033	19.099589	0.565901	0	0
0	0	0	46.641938	6.373512	39.005415	6.373512	7.680479E+12	0.000203	4936.918639	19.07147	0.562719	0	0
0	0	0	46.351222	6.374319	38.624254	6.374319	6.830223E+12	0.00019	5270.15965	19.096853	0.559498	0	0
0	0	0	46.046785	6.375403	38.224786	6.375403	6.040166E+12	0.000181	5532.017475	19.072414	0.556606	0	0
0	0	0	45.716254	6.375866	37.791928	6.375866	5.285166E+12	0.000164	6113.335877	19.005905	0.55386	0	0
0	0	0	45.361302	6.375933	37.327617	6.375933	4.578837E+12	0.000142	7021.896252	19.043057	0.550374	0	0
0	0	0	44.982502	6.377303	36.830446	6.377303	3.928593E+12	0.000136	7353.23518	19.075299	0.547391	0	0
0	0	0	44.580425	6.377537	36.304253	6.377537	3.338901E+12	0.000118	8485.202065	19.014818	0.544869	0	0
0	0	0	44.152907	6.378268	35.74412	6.378268	2.808498E+12	0.000106	9467.331433	18.991725	0.541621	0	0
0	0	0	43.708033	6.378614	35.161771	6.378614	2.345687E+12	9.104079E-5	10984.0878	19.040192	0.538452	0	0
0	0	0	43.235472	6.379134	34.542955	6.379134	1.937206E+12	7.898549E-5	12660.552416	19.002633	0.535864	0	0
0	0	0	42.744371	6.37971	33.899787	6.37971	1.587818E+12	6.857991E-5	14581.530677	18.945562	0.533092	0	0
0	0	0	42.226726	6.380269	33.221895	6.380269	1.287474E+12	5.899734E-5	16949.915454	19.001668	0.529553	0	0
0	0	0	41.685315	6.380604	32.513207	6.380604	1.033899E+12	4.917424E-5	20335.851695	18.987687	0.526873	0	0
0	0	0	41.128263	6.381134	31.783756	6.381134	8.249957E+11	4.174799E-5	23953.249475	18.923185	0.524219	0	0
0	0	0	40.54626	6.381608	31.021721	6.381608	6.516613E+11	3.497477E-5	28592.042403	18.924587	0.521328	0	0
0	0	0	39.953884	6.382046	30.246145	6.382046	5.125737E+11	2.914174E-5	34315.042916	18.985967	0.518186	0	0
0	0	0	39.353342	6.382505	29.459826	6.382505	4.018322E+11	2.436169E-5	41048.050763	18.914485	0.515875	0	0
0	0	0	38.740548	6.382707	28.657863	6.382707	3.134511E+11	1.95717E-5	51094.184116	18.888777	0.512904	0	0
0	0	0	38.107785	6.382931	27.829726	6.382931	2.425347E+11	1.566705E-5	63828.237482	18.919541	0.509894	0	0
0	0	0	37.474777	6.383362	27.000916	6.383362	1.876422E+11	1.298188E-5	77030.464582	18.88821	0.507306	0	0
0	0	0	36.836664	6.383656	26.16563	6.383656	1.448721E+11	1.053332E-5	94936.847194	18.854808	0.504534	0	0
0	0	0	36.192018	6.383961	25.321759	6.383961	1.115542E+11	8.563821E-6	116770.304801	18.868143	0.501431	0	0
0	0	0	35.53704	6.384623	24.463735	6.384623	8.553939E+10	7.470726E-6	133855.793735	18.883517	0.498632	0	0
0	0	0	34.880347	6.38451	23.604794	6.38451	6.554545E+10	5.592451E-6	178812.464085	18.802001	0.496348	0	0
0	0	0	34.228268	6.384662	22.751419	6.384662	5.031878E+10	4.430393E-6	225713.618945	18.822592	0.493179	0	0
0	0	0	33.567328	6.384961	21.886173	6.384961	3.849076E+10	3.615686E-6	276572.676566	18.857985	0.490433	0	0
0	0	0	32.895158	6.38502	21.006662	6.38502	2.930925E+10	2.790148E-6	358403.93362	18.784947	0.487911	0	0
0	0	0	32.210614	6.38531	20.11052	6.38531	2.220617E+10	2.263053E-6	441880.973224	18.753719	0.485178	0	0
0	0	0	31.533911	6.385692	19.224442	6.385692	1.687806E+10	1.895537E-6	527555.000035	18.791933	0.482115	0	0
0	0	0	30.85194	6.385679	18.33222	6.385679	1.280099E+10	1.432762E-6	697952.422007	18.766009	0.479831	0	0
0	0	0	30.170295	6.385835	17.44009	6.385835	9.710063E+9	1.133863E-6	881941.047367	18.721297	0.477124	0	0
0	0	0	29.489631	6.386131	16.548948	6.386131	7.368392E+9	9.376262E-7	1066523.055337	18.773591	0.474088	0	0
0	0	0	28.804965	6.386223	15.65297	6.386223	5.58237E+9	7.30725E-7	1368503.875599	18.735045	0.471817	0	0
0	0	0	28.118788	6.386575	14.754465	6.386575	4.22667E+9	6.214661E-7	1609098.25718	18.661891	0.469255	0	0
0	0	0	27.429384	6.386441	13.852748	6.386441	3.196023E+9	4.489733E-7	2227304.161446	18.693403	0.46643	0	0
0	0	0	26.736183	6.386899	12.944795	6.386899	2.412975E+9	4.002034E-7	2498729.348059	18.725437	0.463736	0	0
0	0	0	26.034366	6.386864	12.026618	6.386864	1.815425E+9	2.969954E-7	3367055.674907	18.641242	0.461743	0	0
0	0	0	25.33022	6.386948	11.105131	6.386948	1.364564E+9	2.30839E-7	4332023.240119	18.634118	0.459023	0	0
0	0	0	24.630853	6.387215	10.189476	6.387215	1.027664E+9	1.948294E-7	5132694.525381	18.667435	0.456277	0	0
0	0	0	23.926095	6.387328	9.267106	6.387328	7.722515E+8	1.542489E-7	6483029.960676	18.619993	0.454217	0	0
0	0	0	23.209413	6.387518	8.328946	6.387518	5.775198E+8	1.268101E-7	7885806.578322	18.59499	0.451616	0	0
0	0	0	22.496529	6.387307	7.396689	6.387307	4.325574E+8	8.554496E-8	1.168976E+7	18.642668	0.449055	0	0
0	0	0	21.796508	6.387926	6.479288	6.387926	3.256759E+8	9.090237E-8	1.100081E+7	18.602455	0.446784	0	0
0	0	0	21.100162	6.387743	5.568603	6.387743	2.455696E+8	6.111662E-8	1.636216E+7	18.522555	0.444605	0	0
0	0	0	20.411249	6.388115	4.666286	6.388115	1.857258E+8	5.932919E-8	1.685511E+7	18.586083	0.441833	0	0
0	0	0	19.730177	6.388038	3.775328	6.388038	1.409128E+8	4.251267E-8	2.35224E+7	18.558611	0.439839	0	0
0	0	0	19.052657	6.38808	2.88872	6.38808	1.070666E+8	3.331154E-8	3.001963E+7	18.517537	0.437489	0	0
0	0	0	18.386163	6.388249	2.016213	6.388249	8.171451E+7	2.905756E-8	3.441445E+7	18.526217	0.434993	0	0
0	0	0	17.732818	6.388312	1.161174	6.388312	6.269886E+7	2.355838E-8	4.244774E+7	18.537096	0.432683	0	0
0	0	0	17.087355	6.388467	0.316203	6.388467	4.826228E+7	2.104777E-8	4.751096E+7	18.45175	0.430821	0	0
0	0	0	16.452591	6.388453	-0.514329	6.388453	3.731126E+7	1.60377E-8	6.235309E+7	18.476116	0.428075	0	0
0	0	0	15.837919	6.388565	-1.318911	6.388565	2.908102E+7	1.412715E-8	7.078567E+7	18.50305	0.425751	0	0
0	0	0	15.242848	6.388467	-2.097279	6.388467	2.284709E+7	9.963978E-9	1.003615E+8	18.415481	0.423863	0	0
0	0	0	14.661172	6.388783	-2.859253	6.388783	1.804723E+7	1.172381E-8	8.529648E+7	18.397406	0.421526	0	0
0	0	0	14.09387	6.388748	-3.601462	6.388748	1.433908E+7	8.834399E-9	1.131939E+8	18.435946	0.418873	0	0
0	0	0	13.537757	6.388692	-4.328969	6.388692	1.144464E+7	6.513488E-9	1.535276E+8	18.399534	0.41676	0	0
0	0	0	13.003655	6.388776	-5.02807	6.388776	9216339.875	5.922695E-9	1.688421E+8	18.341551	0.4147	0	0
0	0	0	12.493157	6.388917	-5.696449	6.388917	7493263.875	6.136129E-9	1.629692E+8	18.409072	0.412047	0	0
0	0	0	11.995645	6.388783	-6.347056	6.388783	6124492.625	3.978604E-9	2.513444E+8	18.344769	0.410277	0	0
0	0	0	11.520225	6.388889	-6.969441	6.388889	5050789.125	3.920944E-9	2.550406E+8	18.294239	0.408007	0	0
0	0	0	11.062284	6.38879	-7.568366	6.38879	4194940.875	2.7551E-9	3.629632E+8	18.341616	0.405524	0	0
0	0	0	10.623209	6.388952	-8.143365	6.388952	3510867.5	3.086652E-9	3.239756E+8	18.316084	0.403451	0	0
0	0	0	10.200632	6.389156	-8.696907	6.389156	2958066.625	4.538431E-9	2.203404E+8	18.256865	0.401577	0	0
0	0	0	9.79296	6.388924	-9.229656	6.388924	2507413.625	2.08184E-9	4.803442E+8	18.295005	0.398923	0	0
0	0	0	9.4044	6.389156	-9.738779	6.389156	2141949	3.2863E-9	3.042936E+8	18.278437	0.396956	0	0
0	0	0	9.03144	6.388952	-10.226185	6.388952	1841361.25	1.618872E-9	6.17714E+8	18.183296	0.395094	0	0
0	0	0	8.674201	6.389022	-10.693843	6.389022	1593078.5	1.642404E-9	6.088638E+8	18.21773	0.392691	0	0
0	0	0	8.334931	6.3891	-11.138013	6.3891	1388350.625	1.766902E-9	5.659624E+8	18.239184	0.390473	0	0
0	0	0	8.008442	6.389128	-11.565309	6.389128	1216218.875	1.692089E-9	5.909853E+8	18.143631	0.388743	0	0
0	0	0	7.691632	6.388931	-11.97925	6.388931	1069617.375	9.005983E-10	1.110373E+9	18.152819	0.386459	0	0
0	0	0	7.388094	6.389346	-12.377711	6.389346	945762.375	4.737799E-9	2.110685E+8	18.179943	0.384122	0	0
0	0	0	7.096194	6.389086	-12.758857	6.389086	840204.375	1.025581E-9	9.750573E+8	18.10107	0.38263	0	0
0	0	0	6.816708	6.389177	-13.12485	6.389177	750194.125	1.247121E-9	8.018466E+8	18.129432	0.380109	0	0
0	0	0	6.549923	6.389128	-13.473785	6.389128	673284.5	9.367211E-10	1.067554E+9	18.147036	0.378102	0	0
0	0	0	6.291059	6.389142	-13.812553	6.389142	606203.625	8.84615E-10	1.130435E+9	18.069791	0.376597	0	0
0	0	0	6.047592	6.389536	-14.132374	6.389536	549223.75	-2.174802E-9	-4.59812E+8	18.049258	0.374286	0	0
0	0	0	5.805104	6.389409	-14.449273	6.389409	497797.25	1.017982E-8	9.823357E+7	18.102713	0.372094	0	0
0	0	0	5.575317	6.389437	-14.750043	6.389437	453515.375	-2.507509E-8	-3.988022E+7	18.013844	0.370616	0	0
0	0	0	5.353165	6.389297	-15.040283	6.389297	414453.875	1.308056E-9	7.644931E+8	17.999496	0.368556	0	0
0	0	0	5.134567	6.389205	-15.326029	6.389205	379302.625	7.095686E-10	1.409307E+9	18.069959	0.366113	0	0
0	0	0	4.924585	6.389163	-15.600655	6.389163	348347.5	5.485495E-10	1.82299E+9	17.963149	0.364687	0	0
0	0	0	4.708315	6.389514	-15.884779	6.389514	319104	-1.577382E-9	-6.339617E+8	17.935889	0.362575	0	0
0	0	0	4.512422	6.389261	-16.140291	6.389261	294740.375	7.357833E-10	1.359096E+9	17.963242	0.360608	0	0
0	0	0	4.325594	6.389479	-16.385463	6.389479	273239.5	-2.304528E-9	-4.339284E+8	17.916372	0.358931	0	0
0	0	0	4.141217	6.389662	-16.627318	6.389662	253558.875	-4.577042E-10	-2.184817E+9	17.867447	0.357149	0	0
0	0	0	3.958188	6.389585	-16.866565	6.389585	235424.375	-6.36684E-10	-1.570638E+9	17.938848	0.354785	0	0
0	0	0	3.785531	6.389156	-17.09109	6.389156	219508	3.367821E-10	2.969279E+9	17.863285	0.35332	0	0
0	0	0	3.621857	6.389395	-17.30604	6.389395	205414.5	2.493086E-9	4.011093E+8	17.798266	0.351445	0	0
0	0	0	3.459655	6.389268	-17.517869	6.389268	192340.5	5.011037E-10	1.995595E+9	17.885731	0.349121	0	0
0	0	0	3.305537	6.389669	-17.720852	6.389669	180690	-3.165965E-10	-3.158595E+9	17.805664	0.347827	0	0
0	0	0	3.151257	6.38955	-17.922338	6.38955	169733.875	-5.934064E-10	-1.685186E+9	17.781135	0.345952	0	0
0	0	0	3.006042	6.389522	-18.112262	6.389522	160029.25	-7.305723E-10	-1.36879E+9	17.82889	0.343708	0	0
0	0	0	2.85462	6.389732	-18.3111	6.389732	150500.375	-2.086092E-10	-4.793653E+9	17.760131	0.342361	0	0
0	0	0	2.715653	6.389458	-18.492033	6.389458	142255.25	-2.081995E-9	-4.803084E+8	17.692371	0.340513	0	0
0	0	0	2.577013	6.389711	-18.674287	6.389711	134479.75	-2.003552E-10	-4.991135E+9	17.737384	0.33848	0	0
0	0	0	2.448214	6.389493	-18.842098	6.389493	127637.5	-8.393904E-10	-1.191341E+9	17.695405	0.33712	0	0
0	0	0	2.315495	6.389507	-19.01581	6.389507	120951	-6.518404E-10	-1.534118E+9	17.661915	0.335298	0	0
0	0	0	2.189024	6.389662	-19.181818	6.389662	114905.5	-2.074182E-10	-4.821178E+9	17.711	0.333251	0	0
0	0	0	2.067944	6.389599	-19.340043	6.389599	109400.875	-2.712913E-10	-3.686075E+9	17.626779	0.331904	0	0
0	0	0	1.94527	6.389768	-19.50113	6.389768	104092.875	-1.29279E-10	-7.735207E+9	17.580283	0.330122	0	0
0	0	0	1.825415	6.389866	-19.658296	6.389866	99155.625	-9.537557E-11	-1.048486E+10	17.629184	0.328181	0	0
0	0	0	1.710256	6.389444	-19.807565	6.389444	94632.5	-2.716743E-9	-3.680878E+8	17.580349	0.326834	0	0
0	0	0	1.594974	6.389676	-19.959196	6.389676	90311.25	-1.537283E-10	-6.504984E+9	17.531404	0.325171	0	0
0	0	0	1.483899	6.389634	-20.104399	6.389634	86334.375	-1.772805E-10	-5.64078E+9	17.581298	0.323111	0	0
0	0	0	1.370373	6.389782	-20.25345	6.389782	82450.625	-9.831078E-11	-1.017182E+10	17.496426	0.322029	0	0
0	0	0	1.266771	6.389718	-20.388803	6.389718	79059.125	-1.149193E-10	-8.701756E+9	17.467543	0.320207	0	0
0	0	0	1.15545	6.389704	-20.534421	6.389704	75570.25	-1.154696E-10	-8.660285E+9	17.505705	0.318253	0	0
0	0	0	1.05295	6.389824	-20.668952	6.389824	72494.125	-7.719094E-11	-1.295489E+10	17.452817	0.316972	0	0
0	0	0	0.947755	6.389557	-20.805694	6.389557	69467.375	-2.29432E-10	-4.35859E+9	17.412215	0.315295	0	0
0	0	0	0.844643	6.389775	-20.941362	6.389775	66623.125	-8.105727E-11	-1.233696E+10	17.478611	0.313407	0	0
0	0	0	0.743246	6.389634	-21.073563	6.389634	63939.75	-1.31295E-10	-7.616439E+9	17.397315	0.312285	0	0
0	0	0	0.642665	6.389683	-21.205344	6.389683	61384.75	-1.015934E-10	-9.84316E+9	17.343693	0.310568	0	0
0	0	0	0.543146	6.389866	-21.336193	6.389866	58957.375	-5.670978E-11	-1.763364E+10	17.400249	0.308812	0	0
0	0	0	0.443219	6.389711	-21.466421	6.389711	56616.5	-8.435034E-11	-1.185532E+10	17.283932	0.307703	0	0
0	0	0	0.349132	6.389669	-21.589393	6.389669	54497.5	-9.548794E-11	-1.047253E+10	17.314954	0.305802	0	0
0	0	0	0.257535	6.38955	-21.708838	6.38955	52510.75	-1.835827E-10	-5.447135E+9	17.344731	0.304139	0	0
0	0	0	0.171901	6.389761	-21.821619	6.389761	50718.875	-6.432868E-11	-1.554516E+10	17.251478	0.302884	0	0
0	0	0	0.097782	6.389761	-21.918605	6.389761	49217.5	-6.242443E-11	-1.601937E+10	17.211647	0.301234	0	0
0	0	0	0.034281	6.389627	-22.001237	6.389627	47966.5	-1.020029E-10	-9.803645E+9	17.266534	0.299385	0	0
0	0	0	-0.007862	6.389634	-22.056407	6.389634	47153.875	-9.682656E-11	-1.032775E+10	17.161267	0.298461	0	0
0	0	0	-0.049311	6.389711	-22.110912	6.389711	46368.125	-6.908175E-11	-1.44756E+10	17.191078	0.296468	0	0
0	0	0	-0.067892	6.389803	-22.135541	6.389803	46020.125	-5.177122E-11	-1.931575E+10	17.219506	0.29516	0	0
0	0	0	-0.077652	6.389971	-22.148895	6.389971	45838.375	-3.551068E-11	-2.816054E+10	17.092616	0.294051	0	0
0	0	0	-0.089943	6.389768	-22.164275	6.389768	45610.5	-5.664634E-11	-1.765339E+10	17.142317	0.291939	0	0
0	0	0	-0.105461	6.38969	-22.184313	6.38969	45324.375	-7.299004E-11	-1.37005E+10	17.107554	0.290724	0	0
0	0	0	-0.121673	6.390112	-22.206985	6.390112	45027.5	-2.769616E-11	-3.610609E+10	17.03098	0.289246	0	0
0	0	0	-0.129432	6.3895	-22.215024	6.3895	44886	-2.659022E-10	-3.760782E+9	17.066235	0.287635	0	0
0	0	0	-0.135558	6.389655	-22.223574	6.389655	44774.75	-8.334323E-11	-1.199858E+10	17.060159	0.286248	0	0
0	0	0	-0.138866	6.389739	-22.228194	6.389739	44714.75	-6.057323E-11	-1.650894E+10	16.970596	0.285126	0	0
0	0	0	-0.139805	6.389915	-22.23003	6.389915	44697.75	-3.863713E-11	-2.588184E+10	17.035163	0.283212	0	0
0	0	0	-0.141112	6.389901	-22.231692	6.389901	44674	-3.976796E-11	-2.514587E+10	16.95029	0.282063	0	0
0	0	0	-0.141969	6.389697	-22.232109	6.389697	44658.5	-7.002912E-11	-1.427977E+10	16.887343	0.280611	0	0
0	0	0	-0.144093	6.389704	-22.234912	6.389704	44620	-6.817835E-11	-1.466741E+10	16.95252	0.278855	0	0
0	0	0	-0.144583	6.389746	-22.235699	6.389746	44611.25	-5.909245E-11	-1.692264E+10	16.857717	0.277931	0	0
0	0	0	-0.146094	6.389873	-22.238114	6.389873	44583.875	-4.220439E-11	-2.369422E+10	16.827787	0.276241	0	0
0	0	0	-0.146829	6.389613	-22.238176	6.389613	44570.625	-1.020499E-10	-9.799126E+9	16.896746	0.27459	0	0
0	0	0	-0.148503	6.389613	-22.240367	6.389613	44540.375	-1.019807E-10	-9.805781E+9	16.788324	0.27364	0	0
0	0	0	-0.149034	6.389824	-22.241791	6.389824	44530.75	-4.741585E-11	-2.109E+10	16.78384	0.27191	0	0
0	0	0	-0.150341	6.389922	-22.243841	6.389922	44507.25	-3.792348E-11	-2.636889E+10	16.815802	0.270484	0	0
0	0	0	-0.151688	6.389824	-22.245264	6.389824	44482.875	-4.736487E-11	-2.111269E+10	16.678528	0.269533	0	0
0	0	0	-0.152219	6.389782	-22.245813	6.389782	44473.25	-5.30281E-11	-1.885793E+10	16.742209	0.267672	0	0
0	0	0	-0.15226	6.389838	-22.246061	6.389838	44472.625	-4.572331E-11	-2.187068E+10	16.716978	0.266682	0	0
0	0	0	-0.153853	6.389831	-22.248121	6.389831	44443.875	-4.649427E-11	-2.150803E+10	16.648454	0.265335	0	0
0	0	0	-0.154669	6.389887	-22.249384	6.389887	44429.125	-4.07654E-11	-2.453061E+10	16.687661	0.263645	0	0
0	0	0	-0.155649	6.389761	-22.250229	6.389761	44411.5	-5.63288E-11	-1.775291E+10	16.624665	0.262602	0	0
0	0	0	-0.156793	6.389838	-22.251993	6.389838	44390.875	-4.563926E-11	-2.191096E+10	16.556504	0.261308	0	0
0	0	0	-0.156099	6.389845	-22.251108	6.389845	44403.375	-4.48794E-11	-2.228194E+10	16.596359	0.259605	0	0
0	0	0	-0.157977	6.390112	-22.25449	6.390112	44369.625	-2.729151E-11	-3.664144E+10	16.536067	0.25876	0	0
0	0	0	-0.158916	6.389887	-22.254941	6.389887	44352.75	-4.069532E-11	-2.457285E+10	16.51537	0.257255	0	0
0	0	0	-0.157365	6.390028	-22.253397	6.390028	44380.625	-3.114852E-11	-3.210425E+10	16.556259	0.255855	0	0
0	0	0	-0.159774	6.389852	-22.255942	6.389852	44337.25	-4.406668E-11	-2.269288E+10	16.440207	0.254931	0	0
0	0	0	-0.159406	6.389936	-22.255753	6.389936	44343.875	-3.673587E-11	-2.722135E+10	16.469325	0.253228	0	0
0	0	0	-0.161652	6.389761	-22.258084	6.389761	44303.5	-5.619182E-11	-1.779618E+10	16.438374	0.252172	0	0
0	0	0	-0.160101	6.390049	-22.25705	6.390049	44331.375	-3.005422E-11	-3.32732E+10	16.333376	0.251128	0	0
0	0	0	-0.159325	6.389817	-22.255233	6.389817	44345.375	-4.807573E-11	-2.080052E+10	16.42362	0.24932	0	0
0	0	0	-0.160142	6.389775	-22.256155	6.389775	44330.75	-5.393517E-11	-1.854078E+10	16.353176	0.248461	0	0
0	0	0	-0.160632	6.389648	-22.256359	6.389648	44321.875	-8.51547E-11	-1.174333E+10	16.308519	0.24722	0	0
0	0	0	-0.159529	6.389866	-22.25567	6.389866	44341.75	-4.265133E-11	-2.344593E+10	16.344391	0.245768	0	0
0	0	0	-0.16104	6.389845	-22.257574	6.389845	44314.5	-4.478957E-11	-2.232663E+10	16.249081	0.244831	0	0
0	0	0	-0.159406	6.389817	-22.255339	6.389817	44343.875	-4.807411E-11	-2.080122E+10	16.251232	0.243299	0	0
0	0	0	-0.160182	6.389261	-22.254434	6.389261	44329.875	1.106641E-10	9.036352E+9	16.248758	0.24219	0	0
0	0	0	-0.157569	6.389746	-22.252692	6.389746	44377	-5.878216E-11	-1.701196E+10	16.118008	0.241464	0	0
0	0	0	-0.157405	6.389725	-22.252405	6.389725	44379.875	-6.297698E-11	-1.587882E+10	16.203986	0.239708	0	0
0	0	0	-0.157855	6.389789	-22.253212	6.389789	44371.75	-5.187131E-11	-1.927848E+10	16.128863	0.23881	0	0
0	0	0	-0.157487	6.389922	-22.253193	6.389922	44378.375	-3.781367E-11	-2.644546E+10	16.083614	0.237793	0	0
0	0	0	-0.156711	6.389711	-22.251448	6.389711	44392.375	-6.613817E-11	-1.511986E+10	16.145995	0.23613	0	0
0	0	0	-0.157814	6.389859	-22.253401	6.389859	44372.5	-4.337968E-11	-2.305227E+10	16.038663	0.235443	0	0
0	0	0	-0.158386	6.389824	-22.254028	6.389824	44362.25	-4.723643E-11	-2.11701E+10	16.023961	0.233991	0	0
0	0	0	-0.156915	6.389732	-22.251788	6.389732	44388.75	-6.152742E-11	-1.625292E+10	16.034599	0.232803	0	0
0	0	0	-0.156466	6.38995	-22.251954	6.38995	44396.75	-3.57867E-11	-2.794334E+10	15.947667	0.231879	0	0
0	0	0	-0.156425	6.389978	-22.251998	6.389978	44397.5	-3.395394E-11	-2.945166E+10	15.969331	0.230519	0	0
0	0	0	-0.15761	6.389824	-22.253013	6.389824	44376.25	-4.725134E-11	-2.116342E+10	15.944132	0.229594	0	0
0	0	0	-0.157283	6.38969	-22.252123	6.38969	44382.125	-7.147265E-11	-1.399137E+10	15.854554	0.228565	0	0
0	0	0	-0.159978	6.389859	-22.256233	6.389859	44333.625	-4.334168E-11	-2.307248E+10	15.938529	0.226954	0	0
0	0	0	-0.15761	6.389796	-22.252915	6.389796	44376.25	-5.088047E-11	-1.965391E+10	15.79884	0.226399	0	0
0	0	0	-0.157405	6.389676	-22.252235	6.389676	44379.875	-7.554366E-11	-1.323738E+10	15.816538	0.224881	0	0
0	0	0	-0.158386	6.389754	-22.253785	6.389754	44362.25	-5.748739E-11	-1.739512E+10	15.807398	0.22401	0	0
0	0	0	-0.158386	6.389613	-22.253299	6.389613	44362.25	-1.015728E-10	-9.845154E+9	15.689874	0.223033	0	0
0	0	0	-0.157977	6.389669	-22.252959	6.389669	44369.625	-7.774235E-11	-1.2863E+10	15.762395	0.22158	0	0
0	0	0	-0.158386	6.389739	-22.253736	6.389739	44362.25	-6.009571E-11	-1.664012E+10	15.674264	0.220828	0	0
0	0	0	-0.162061	6.389775	-22.258667	6.389775	44296.25	-5.389319E-11	-1.855522E+10	15.676666	0.219521	0	0
0	0	0	-0.161326	6.390028	-22.25858	6.390028	44309.375	-3.109851E-11	-3.215588E+10	15.698948	0.218491	0	0
0	0	0	-0.161489	6.389676	-22.257579	6.389676	44306.5	-7.541876E-11	-1.32593E+10	15.581896	0.21754	0	0
0	0	0	-0.160591	6.389704	-22.2565	6.389704	44322.625	-6.772397E-11	-1.476582E+10	15.597869	0.216312	0	0
0	0	0	-0.16153	6.389859	-22.258264	6.389859	44305.75	-4.331443E-11	-2.3087E+10	15.56079	0.215375	0	0
0	0	0	-0.162102	6.389866	-22.259036	6.389866	44295.5	-4.260685E-11	-2.347041E+10	15.503874	0.214305	0	0
0	0	0	-0.163776	6.389768	-22.260887	6.389768	44265.375	-5.497575E-11	-1.818984E+10	15.535455	0.213051	0	0
0	0	0	-0.163898	6.389803	-22.261169	6.389803	44263.25	-4.979479E-11	-2.008242E+10	15.426943	0.212457	0	0
0	0	0	-0.163449	6.389739	-22.260362	6.389739	44271.25	-5.997244E-11	-1.667433E+10	15.467875	0.211018	0	0
0	0	0	-0.165205	6.389894	-22.263195	6.389894	44239.75	-3.997736E-11	-2.501416E+10	15.438772	0.210186	0	0
0	0	0	-0.163613	6.389648	-22.26026	6.389648	44268.375	-8.505191E-11	-1.175753E+10	15.352062	0.209315	0	0
0	0	0	-0.164552	6.389803	-22.262024	6.389803	44251.5	-4.978157E-11	-2.008776E+10	15.433384	0.207809	0	0
0	0	0	-0.164879	6.389908	-22.262816	6.389908	44245.625	-3.880809E-11	-2.576782E+10	15.299045	0.207347	0	0
0	0	0	-0.16447	6.389782	-22.261844	6.389782	44253	-5.276548E-11	-1.895178E+10	15.302746	0.205855	0	0
0	0	0	-0.166022	6.389845	-22.264093	6.389845	44225.125	-4.469923E-11	-2.237175E+10	15.271243	0.205182	0	0
0	0	0	-0.168145	6.389831	-22.266823	6.389831	44187	-4.622555E-11	-2.163306E+10	15.178893	0.204363	0	0
0	0	0	-0.16639	6.389796	-22.264404	6.389796	44218.5	-5.06996E-11	-1.972402E+10	15.240098	0.203056	0	0
0	0	0	-0.166675	6.389676	-22.264365	6.389676	44213.375	-7.526024E-11	-1.328723E+10	15.17417	0.202304	0	0
0	0	0	-0.166226	6.389993	-22.264871	6.389993	44221.375	-3.297461E-11	-3.032636E+10	15.167999	0.200957	0	0
0	0	0	-0.166063	6.389908	-22.264366	6.389908	44224.375	-3.878945E-11	-2.57802E+10	15.173351	0.200125	0	0
0	0	0	-0.166226	6.389915	-22.264604	6.389915	44221.375	-3.822535E-11	-2.616065E+10	15.061145	0.199307	0	0
0	0	0	-0.163613	6.390021	-22.261548	6.390021	44268.375	-3.143926E-11	-3.180736E+10	15.121551	0.198039	0	0
0	0	0	-0.164307	6.389761	-22.261557	6.389761	44255.875	-5.613141E-11	-1.781534E+10	15.02007	0.19759	0	0
0	0	0	-0.163817	6.389824	-22.261135	6.389824	44264.625	-4.713248E-11	-2.121679E+10	14.99238	0.196217	0	0
0	0	0	-0.164021	6.389824	-22.261402	6.389824	44261	-4.712862E-11	-2.121853E+10	14.973785	0.195412	0	0
0	0	0	-0.163163	6.390014	-22.260936	6.390014	44276.375	-3.182344E-11	-3.142338E+10	14.843452	0.194646	0	0
0	0	0	-0.162306	6.390028	-22.259863	6.390028	44291.75	-3.108614E-11	-3.216867E+10	14.949685	0.193273	0	0
0	0	0	-0.161285	6.389676	-22.257311	6.389676	44310.125	-7.542493E-11	-1.325822E+10	14.80131	0.19285	0	0
0	0	0	-0.162878	6.389894	-22.260149	6.389894	44281.5	-4.001509E-11	-2.499057E+10	14.872655	0.19153	0	0
0	0	0	-0.163776	6.389936	-22.26147	6.389936	44265.375	-3.667084E-11	-2.726962E+10	14.830464	0.190896	0	0
0	0	0	-0.160387	6.389852	-22.256744	6.389852	44326.25	-4.405575E-11	-2.269851E+10	14.759909	0.189893	0	0
0	0	0	-0.159815	6.389817	-22.255874	6.389817	44336.5	-4.806611E-11	-2.080468E+10	14.821543	0.188784	0	0
0	0	0	-0.158916	6.389859	-22.254844	6.389859	44352.75	-4.336038E-11	-2.306253E+10	14.684195	0.188216	0	0
0	0	0	-0.159856	6.389704	-22.255538	6.389704	44335.875	-6.774422E-11	-1.476141E+10	14.725903	0.186856	0	0
0	0	0	-0.158141	6.389803	-22.253634	6.389803	44366.625	-4.991108E-11	-2.003563E+10	14.625629	0.186539	0	0
0	0	0	-0.158263	6.389739	-22.253576	6.389739	44364.5	-6.009876E-11	-1.663928E+10	14.594562	0.185338	0	0
0	0	0	-0.159937	6.389789	-22.255937	6.389789	44334.375	-5.182761E-11	-1.929473E+10	14.612856	0.184427	0	0
0	0	0	-0.158957	6.389993	-22.255359	6.389993	44352	-3.307201E-11	-3.023705E+10	14.512483	0.183674	0	0
0	0	0	-0.158876	6.389732	-22.254353	6.389732	44353.5	-6.147856E-11	-1.626583E+10	14.575685	0.182446	0	0
0	0	0	-0.159733	6.38962	-22.255086	6.38962	44338	-9.77685E-11	-1.022824E+10	14.480978	0.18205	0	0
0	0	0	-0.158018	6.389775	-22.253377	6.389775	44368.875	-5.398155E-11	-1.852485E+10	14.47494	0.180994	0	0
0	0	0	-0.157487	6.389866	-22.252998	6.389866	44378.375	-4.268656E-11	-2.342658E+10	14.490124	0.180096	0	0
0	0	0	-0.16006	6.389894	-22.256462	6.389894	44332.125	-4.006084E-11	-2.496203E+10	14.365055	0.179436	0	0
0	0	0	-0.159121	6.389768	-22.254795	6.389768	44349	-5.507961E-11	-1.815554E+10	14.42049	0.178314	0	0
0	0	0	-0.160305	6.389444	-22.255227	6.389444	44327.75	-1.272576E-9	-7.858074E+8	14.276393	0.177812	0	0
0	0	0	-0.161979	6.38995	-22.259168	6.38995	44297.625	-3.57068E-11	-2.800587E+10	14.322543	0.176624	0	0
0	0	0	-0.161244	6.389711	-22.257379	6.389711	44310.875	-6.601675E-11	-1.514767E+10	14.241713	0.17603	0	0
0	0	0	-0.160999	6.389669	-22.256913	6.389669	44315.25	-7.764708E-11	-1.287878E+10	14.212221	0.17504	0	0
0	0	0	-0.162551	6.389782	-22.259333	6.389782	44287.375	-5.280647E-11	-1.893707E+10	14.21002	0.174261	0	0
0	0	0	-0.162633	6.389754	-22.259342	6.389754	44286	-5.738858E-11	-1.742507E+10	14.113225	0.173482	0	0
0	0	0	-0.164919	6.389641	-22.261946	6.389641	44244.875	-8.783278E-11	-1.138527E+10	14.199498	0.172333	0	0
0	0	0	-0.164715	6.389746	-22.262043	6.389746	44248.5	-5.861195E-11	-1.706137E+10	14.028518	0.172003	0	0
0	0	0	-0.165654	6.389782	-22.263394	6.389782	44231.75	-5.274014E-11	-1.896089E+10	14.138206	0.170669	0	0
0	0	0	-0.165246	6.389725	-22.262665	6.389725	44239	-6.277708E-11	-1.592938E+10	14.003451	0.170379	0	0
0	0	0	-0.165042	6.389634	-22.262082	6.389634	44242.625	-9.084855E-11	-1.100733E+10	14.018846	0.169191	0	0
0	0	0	-0.167574	6.389943	-22.266464	6.389943	44197.25	-3.611339E-11	-2.769056E+10	14.000797	0.168531	0	0
0	0	0	-0.16688	6.390203	-22.266455	6.390203	44209.75	-2.398177E-11	-4.169835E+10	13.883475	0.167897	0	0
0	0	0	-0.164797	6.389768	-22.262223	6.389768	44247.125	-5.495309E-11	-1.819734E+10	13.97134	0.166761	0	0
0	0	0	-0.166185	6.389775	-22.264064	6.389775	44222.25	-5.380316E-11	-1.858627E+10	13.778903	0.166524	0	0
0	0	0	-0.167165	6.389704	-22.265103	6.389704	44204.625	-6.754367E-11	-1.480524E+10	13.86454	0.165283	0	0
0	0	0	-0.166839	6.389915	-22.265405	6.389915	44210.5	-3.821595E-11	-2.616709E+10	13.736852	0.1649	0	0
0	0	0	-0.16786	6.389739	-22.266133	6.389739	44192.125	-5.986525E-11	-1.670418E+10	13.786392	0.163632	0	0
0	0	0	-0.165899	6.389704	-22.263447	6.389704	44227.375	-6.757843E-11	-1.479762E+10	13.691944	0.163355	0	0
0	0	0	-0.167819	6.389803	-22.266299	6.389803	44192.875	-4.971562E-11	-2.01144E+10	13.680935	0.162087	0	0
0	0	0	-0.168472	6.390035	-22.267956	6.390035	44181.125	-3.064827E-11	-3.262827E+10	13.653156	0.161612	0	0
0	0	0	-0.16741	6.389606	-22.265084	6.389606	44200.25	-1.052371E-10	-9.502356E+9	13.590515	0.160794	0	0
0	0	0	-0.16643	6.389746	-22.264287	6.389746	44217.75	-5.857122E-11	-1.707323E+10	13.620139	0.159843	0	0
0	0	0	-0.166757	6.389585	-22.264156	6.389585	44211.875	-1.19567E-10	-8.363511E+9	13.486082	0.1595	0	0
0	0	0	-0.166104	6.389803	-22.264054	6.389803	44223.625	-4.975021E-11	-2.010042E+10	13.569861	0.158232	0	0
0	0	0	-0.164634	6.38995	-22.262641	6.38995	44250	-3.566841E-11	-2.803601E+10	13.442461	0.158061	0	0
0	0	0	-0.165818	6.389986	-22.264312	6.389986	44228.75	-3.339716E-11	-2.994267E+10	13.50116	0.156833	0	0
0	0	0	-0.165001	6.389725	-22.262344	6.389725	44243.375	-6.278328E-11	-1.592781E+10	13.426281	0.156344	0	0
0	0	0	-0.164225	6.390126	-22.262715	6.390126	44257.375	-2.667296E-11	-3.749116E+10	13.391736	0.155433	0	0
0	0	0	-0.162592	6.389606	-22.258778	6.389606	44286.625	-1.054427E-10	-9.483823E+9	13.350944	0.154879	0	0
0	0	0	-0.165695	6.389789	-22.263471	6.389789	44231	-5.170677E-11	-1.933983E+10	13.292108	0.154113	0	0
0	0	0	-0.161285	6.389845	-22.257895	6.389845	44310.125	-4.478515E-11	-2.232883E+10	13.293248	0.153373	0	0
0	0	0	-0.161489	6.389732	-22.257773	6.389732	44306.5	-6.141342E-11	-1.628309E+10	13.191424	0.15274	0	0
0	0	0	-0.16104	6.389866	-22.257647	6.389866	44314.5	-4.262512E-11	-2.346034E+10	13.246212	0.151789	0	0
0	0	0	-0.16202	6.389782	-22.258638	6.389782	44296.875	-5.28178E-11	-1.893301E+10	13.113184	0.151446	0	0
0	0	0	-0.16055	6.389796	-22.256763	6.389796	44323.375	-5.081985E-11	-1.967735E+10	13.173537	0.150284	0	0
0	0	0	-0.160468	6.389613	-22.256024	6.389613	44324.75	-1.01487E-10	-9.853483E+9	13.031272	0.15006	0	0
0	0	0	-0.160142	6.389859	-22.256447	6.389859	44330.75	-4.333887E-11	-2.307398E+10	13.08514	0.148871	0	0
0	0	0	-0.159325	6.389803	-22.255184	6.389803	44345.375	-4.988718E-11	-2.004523E+10	12.96141	0.148568	0	0
0	0	0	-0.157895	6.390084	-22.254286	6.390084	44371.125	-2.846529E-11	-3.513051E+10	12.989527	0.147551	0	0
0	0	0	-0.158753	6.389775	-22.254339	6.389775	44355.625	-5.396543E-11	-1.853038E+10	12.933284	0.147023	0	0
0	0	0	-0.16055	6.389697	-22.256422	6.389697	44323.375	-6.950361E-11	-1.438774E+10	12.88937	0.146191	0	0
0	0	0	-0.160672	6.389824	-22.25702	6.389824	44321.125	-4.719264E-11	-2.118974E+10	12.868152	0.145689	0	0
0	0	0	-0.160101	6.389648	-22.255664	6.389648	44331.375	-8.517295E-11	-1.174082E+10	12.798666	0.14491	0	0
0	0	0	-0.161162	6.389648	-22.257054	6.389648	44312.375	-8.513645E-11	-1.174585E+10	12.822139	0.14425	0	0
0	0	0	-0.160958	6.389746	-22.257127	6.389746	44316	-5.870136E-11	-1.703538E+10	12.725536	0.143524	0	0
0	0	0	-0.161081	6.389641	-22.256923	6.389641	44313.875	-8.796976E-11	-1.136754E+10	12.774151	0.142719	0	0
0	0	0	-0.161816	6.389831	-22.258541	6.389831	44300.625	-4.634441E-11	-2.157757E+10	12.626821	0.142402	0	0
0	0	0	-0.161612	6.389585	-22.257423	6.389585	44304.25	-1.198168E-10	-8.346073E+9	12.705913	0.141346	0	0
0	0	0	-0.163041	6.38969	-22.259658	6.38969	44278.625	-7.130597E-11	-1.402407E+10	12.554412	0.141095	0	0
0	0	0	-0.164184	6.389683	-22.26113	6.389683	44258.125	-7.324837E-11	-1.365218E+10	12.642631	0.139814	0	0
0	0	0	-0.163694	6.389739	-22.260683	6.389739	44266.875	-5.996651E-11	-1.667597E+10	12.480425	0.139814	0	0
0	0	0	-0.16594	6.38988	-22.264108	6.38988	44226.625	-4.121286E-11	-2.426427E+10	12.541226	0.138758	0	0
0	0	0	-0.164348	6.389873	-22.262	6.389873	44255.125	-4.189319E-11	-2.387023E+10	12.402207	0.13856	0	0
0	0	0	-0.165409	6.39	-22.263827	6.39	44236.125	-3.257878E-11	-3.069482E+10	12.444878	0.137503	0	0
0	0	0	-0.166635	6.389901	-22.265089	6.389901	44214.125	-3.935859E-11	-2.540742E+10	12.333342	0.137173	0	0
0	0	0	-0.166594	6.389859	-22.26489	6.389859	44214.875	-4.322559E-11	-2.313445E+10	12.377974	0.13613	0	0
0	0	0	-0.16839	6.38995	-22.267557	6.38995	44182.625	-3.561411E-11	-2.807876E+10	12.282828	0.135906	0	0
0	0	0	-0.168799	6.389704	-22.267241	6.389704	44175.375	-6.749898E-11	-1.481504E+10	12.31157	0.134929	0	0
0	0	0	-0.167165	6.389634	-22.26486	6.389634	44204.625	-9.077052E-11	-1.101679E+10	12.239892	0.134493	0	0
0	0	0	-0.166716	6.389796	-22.264832	6.389796	44212.625	-5.069286E-11	-1.972664E+10	12.198138	0.133793	0	0
0	0	0	-0.166471	6.389754	-22.264365	6.389754	44217.125	-5.729933E-11	-1.745221E+10	12.172064	0.133186	0	0
0	0	0	-0.165981	6.389669	-22.263432	6.389669	44225.875	-7.749048E-11	-1.290481E+10	12.099396	0.13242	0	0
0	0	0	-0.166635	6.389922	-22.265162	6.389922	44214.125	-3.767372E-11	-2.654371E+10	12.065473	0.132037	0	0
0	0	0	-0.167819	6.389578	-22.265521	6.389578	44192.875	-1.251852E-10	-7.988162E+9	11.986373	0.131404	0	0
0	0	0	-0.167982	6.389782	-22.26644	6.389782	44190	-5.269036E-11	-1.89788E+10	11.978526	0.13073	0	0
0	0	0	-0.168023	6.389796	-22.266542	6.389796	44189.25	-5.066606E-11	-1.973708E+10	11.950539	0.129912	0	0
0	0	0	-0.167002	6.389796	-22.265206	6.389796	44207.625	-5.068713E-11	-1.972887E+10	11.927338	0.129423	0	0
0	0	0	-0.167084	6.389831	-22.265434	6.389831	44206.125	-4.624555E-11	-2.16237E+10	11.903258	0.128723	0	0
0	0	0	-0.167002	6.389908	-22.265595	6.389908	44207.625	-3.877476E-11	-2.578997E+10	11.834304	0.128275	0	0
0	0	0	-0.165736	6.389922	-22.263987	6.389922	44230.25	-3.768745E-11	-2.653403E+10	11.825817	0.127456	0	0
0	0	0	-0.166716	6.389704	-22.264516	6.389704	44212.625	-6.75559E-11	-1.480256E+10	11.734479	0.1271	0	0
0	0	0	-0.165818	6.389789	-22.263632	6.389789	44228.75	-5.170414E-11	-1.934081E+10	11.72247	0.126228	0	0
0	0	0	-0.165695	6.389669	-22.263058	6.389669	44231	-7.749946E-11	-1.290332E+10	11.651446	0.125977	0	0
0	0	0	-0.165083	6.389711	-22.262402	6.389711	44242	-6.591413E-11	-1.517125E+10	11.659037	0.125106	0	0
0	0	0	-0.164021	6.389704	-22.260989	6.389704	44261	-6.762981E-11	-1.478638E+10	11.561177	0.124881	0	0
0	0	0	-0.163082	6.389739	-22.259881	6.389739	44277.875	-5.998141E-11	-1.667183E+10	11.587101	0.123891	0	0
0	0	0	-0.161448	6.389697	-22.257598	6.389697	44307.25	-6.947833E-11	-1.439298E+10	11.466194	0.123746	0	0
0	0	0	-0.161407	6.389634	-22.257326	6.389634	44307.875	-9.098253E-11	-1.099112E+10	11.494639	0.122716	0	0
0	0	0	-0.162265	6.389922	-22.259445	6.389922	44292.5	-3.77405E-11	-2.649674E+10	11.366656	0.122637	0	0
0	0	0	-0.161857	6.389676	-22.258059	6.389676	44299.875	-7.540748E-11	-1.326128E+10	11.417831	0.121647	0	0
0	0	0	-0.161122	6.389943	-22.258021	6.389943	44313	-3.620797E-11	-2.761823E+10	11.294256	0.121435	0	0
0	0	0	-0.161897	6.389761	-22.258405	6.389761	44299.125	-5.618627E-11	-1.779794E+10	11.350049	0.120472	0	0
0	0	0	-0.159651	6.389768	-22.25549	6.389768	44339.5	-5.506781E-11	-1.815943E+10	11.18621	0.120274	0	0
0	0	0	-0.159937	6.38988	-22.256253	6.38988	44334.375	-4.131327E-11	-2.42053E+10	11.208007	0.119547	0	0
0	0	0	-0.159202	6.38988	-22.255291	6.38988	44347.625	-4.132562E-11	-2.419806E+10	11.112023	0.119099	0	0
0	0	0	-0.159815	6.389704	-22.255485	6.389704	44336.5	-6.774517E-11	-1.47612E+10	11.112718	0.118491	0	0
0	0	0	-0.162102	6.389697	-22.258453	6.389697	44295.5	-6.94599E-11	-1.43968E+10	11.059616	0.117976	0	0
0	0	0	-0.159692	6.389697	-22.2553	6.389697	44338.75	-6.952772E-11	-1.438275E+10	11.033006	0.117356	0	0
0	0	0	-0.160836	6.389648	-22.256626	6.389648	44318.125	-8.514749E-11	-1.174433E+10	10.972138	0.116762	0	0
0	0	0	-0.160836	6.389634	-22.256578	6.389634	44318.125	-9.100358E-11	-1.098858E+10	10.915613	0.116458	0	0
0	0	0	-0.160468	6.389697	-22.256316	6.389697	44324.75	-6.950577E-11	-1.438729E+10	10.875065	0.115745	0	0
0	0	0	-0.162428	6.389817	-22.259294	6.389817	44289.625	-4.801529E-11	-2.08267E+10	10.824665	0.115415	0	0
0	0	0	-0.161612	6.389866	-22.258395	6.389866	44304.25	-4.261526E-11	-2.346577E+10	10.825326	0.114675	0	0
0	0	0	-0.161162	6.389957	-22.258123	6.389957	44312.375	-3.524295E-11	-2.837447E+10	10.755748	0.114411	0	0
0	0	0	-0.163572	6.389873	-22.260984	6.389873	44269.125	-4.190644E-11	-2.386268E+10	10.751952	0.113593	0	0
0	0	0	-0.164307	6.389585	-22.26095	6.389585	44255.875	-1.19686E-10	-8.355196E+9	10.656943	0.113434	0	0
0	0	0	-0.164143	6.389943	-22.261976	6.389943	44258.75	-3.616364E-11	-2.765209E+10	10.665328	0.112576	0	0
0	0	0	-0.167655	6.38995	-22.266596	6.38995	44195.875	-3.562479E-11	-2.807034E+10	10.588911	0.112312	0	0
0	0	0	-0.165205	6.38969	-22.26249	6.38969	44239.75	-7.124337E-11	-1.403639E+10	10.60205	0.111678	0	0
0	0	0	-0.165532	6.389852	-22.263476	6.389852	44233.875	-4.396394E-11	-2.274592E+10	10.531777	0.111256	0	0
0	0	0	-0.167002	6.389936	-22.265692	6.389936	44207.625	-3.6623E-11	-2.730525E+10	10.502163	0.110847	0	0
0	0	0	-0.168064	6.389796	-22.266595	6.389796	44188.5	-5.06652E-11	-1.973741E+10	10.440664	0.110252	0	0
0	0	0	-0.16839	6.389754	-22.266877	6.389754	44182.625	-5.725462E-11	-1.746584E+10	10.389788	0.109804	0	0
0	0	0	-0.167737	6.38981	-22.266216	6.38981	44194.375	-4.879798E-11	-2.049265E+10	10.354571	0.109025	0	0
0	0	0	-0.166349	6.389634	-22.263792	6.389634	44219.25	-9.080055E-11	-1.101315E+10	10.259394	0.108879	0	0
0	0	0	-0.168676	6.389768	-22.267299	6.389768	44177.5	-5.486662E-11	-1.822602E+10	10.238683	0.108166	0	0
0	0	0	-0.168186	6.389641	-22.26622	6.389641	44186.375	-8.771665E-11	-1.140034E+10	10.124179	0.107889	0	0
0	0	0	-0.168554	6.38969	-22.266872	6.38969	44179.75	-7.114674E-11	-1.405546E+10	10.128411	0.107335	0	0
0	0	0	-0.167778	6.389725	-22.265978	6.389725	44193.625	-6.271269E-11	-1.594574E+10	10.086727	0.106714	0	0
0	0	0	-0.168513	6.389697	-22.266842	6.389697	44180.5	-6.927957E-11	-1.443427E+10	10.020871	0.106437	0	0
0	0	0	-0.169085	6.389796	-22.267931	6.389796	44170.25	-5.064428E-11	-1.974557E+10	10.014644	0.105684	0	0
0	0	0	-0.169779	6.389838	-22.268985	6.389838	44157.875	-4.539971E-11	-2.202657E+10	9.907354	0.105631	0	0
0	0	0	-0.169207	6.389929	-22.268553	6.389929	44168	-3.710495E-11	-2.695058E+10	9.950549	0.104707	0	0
0	0	0	-0.168105	6.389557	-22.265822	6.389557	44187.75	-1.459402E-10	-6.852121E+9	9.804821	0.104694	0	0
0	0	0	-0.167329	6.389859	-22.265852	6.389859	44201.625	-4.321263E-11	-2.314138E+10	9.882241	0.103849	0	0
0	0	0	-0.167451	6.389627	-22.26521	6.389627	44199.5	-9.399219E-11	-1.063918E+10	9.806757	0.103479	0	0
0	0	0	-0.167574	6.389789	-22.265929	6.389789	44197.25	-5.166731E-11	-1.93546E+10	9.771658	0.103057	0	0
0	0	0	-0.16933	6.389964	-22.268835	6.389964	44165.875	-3.466473E-11	-2.884776E+10	9.760165	0.102436	0	0
0	0	0	-0.165859	6.389922	-22.264147	6.389922	44228	-3.768554E-11	-2.653538E+10	9.65533	0.102251	0	0
0	0	0	-0.166308	6.389901	-22.264662	6.389901	44220	-3.936382E-11	-2.540404E+10	9.651788	0.101631	0	0
0	0	0	-0.165818	6.389803	-22.26368	6.389803	44228.75	-4.975598E-11	-2.009809E+10	9.450187	0.101406	0	0
0	0	0	-0.164593	6.389704	-22.261737	6.389704	44250.75	-6.761415E-11	-1.47898E+10	9.510416	0.100799	0	0
0	0	0	-0.164715	6.389817	-22.262286	6.389817	44248.5	-4.797071E-11	-2.084605E+10	0	0	0	0
0	0	0	-0.16398	6.389803	-22.261276	6.389803	44261.75	-4.97931E-11	-2.00831E+10	0	0	0	0
0	0	0	-0.162714	6.389655	-22.259109	6.389655	44284.5	-8.243068E-11	-1.213141E+10	0	0	0	0
0	0	0	-0.164838	6.389782	-22.262325	6.389782	44246.375	-5.275758E-11	-1.895462E+10	0	0	0	0
0	0	0	-0.161203	6.389796	-22.257618	6.389796	44311.625	-5.080637E-11	-1.968257E+10	0	0	0	0
0	0	0	-0.161407	6.389789	-22.257861	6.389789	44307.875	-5.179663E-11	-1.930627E+10	0	0	0	0
0	0	0	-0.161857	6.389676	-22.258059	6.389676	44299.875	-7.540748E-11	-1.326128E+10	0	0	0	0
0	0	0	-0.161734	6.389971	-22.25892	6.389971	44302.125	-3.432056E-11	-2.913705E+10	0	0	0	0
0	0	0	-0.160754	6.389873	-22.257297	6.389873	44319.625	-4.195424E-11	-2.383549E+10	0	0	0	0
0	0	0	-0.160754	6.389859	-22.257249	6.389859	44319.625	-4.332799E-11	-2.307977E+10	0	0	0	0
0	0	0	-0.160958	6.389838	-22.257443	6.389838	44316	-4.556228E-11	-2.194798E+10	0	0	0	0
0	0	0	-0.160591	6.389929	-22.257278	6.389929	44322.625	-3.723485E-11	-2.685656E+10	0	0	0	0
0	0	0	-0.162142	6.390042	-22.259698	6.390042	44294.75	-3.037423E-11	-3.292264E+10	0	0	0	0
0	0	0	-0.16202	6.389775	-22.258614	6.389775	44296.875	-5.389395E-11	-1.855496E+10	0	0	0	0
0	0	0	-0.162347	6.389725	-22.258871	6.389725	44291.125	-6.285104E-11	-1.591064E+10	0	0	0	0
0	0	0	-0.161571	6.389739	-22.257904	6.389739	44305	-6.001816E-11	-1.666162E+10	0	0	0	0
0	0	0	-0.163204	6.389838	-22.260382	6.389838	44275.625	-4.552077E-11	-2.196799E+10	0	0	0	0
0	0	0	-0.162796	6.389697	-22.259361	6.389697	44283	-6.94403E-11	-1.440086E+10	0	0	0	0
0	0	0	-0.164307	6.389831	-22.2618	6.389831	44255.875	-4.62976E-11	-2.159939E+10	0	0	0	0
0	0	0	-0.164307	6.389761	-22.261557	6.389761	44255.875	-5.613141E-11	-1.781534E+10	0	0	0	0
0	0	0	-0.164266	6.38988	-22.261917	6.38988	44256.625	-4.124082E-11	-2.424782E+10	0	0	0	0
0	0	0	-0.166063	0	-0.166063	0	44224.375	0	0	0	0	0	0
0	0	0	-0.165042	0	-0.165042	0	44242.625	0	0	0	0	0	0
