Vload_(V)	ILoad_(A)	RsLoad (ohm)	SunsVoc_Voltage_(V)	SunsVoc_Current_(A)	Model_Voltage_(V)	Model_Current_(A)	Carrier_Density_(cm-3)	Lifetime_(s)	Inverse_Lifetime_(s-1)	Efficiency_(%)	Intensity_(suns)	Dark_IV_Voltage_(V)	Dark_IV_Current_(A)
2.65063	6.021202	0	51.978599	-0.188426	52.066993	-0.188426	7.689413E+15	0.000551	1717.215718	19.453273	1.113907	0	0
2.647772	6.024889	-0.464291	52.563134	-0.479132	52.769566	-0.479132	9.457376E+15	0.000647	1396.627652	19.548966	1.112481	0	0
3.25884	6.023976	-0.563803	52.696833	-0.36236	52.849782	-0.36236	9.90634E+15	0.00069	1285.672663	19.529288	1.113867	0	0
6.703498	6.022392	-1.132461	52.673924	-0.058315	52.698626	-0.058315	9.828161E+15	0.000719	1230.212949	19.394677	1.113432	0	0
10.772829	6.000316	4.685988	52.584124	0.297491	52.45636	0.297491	9.526706E+15	0.00074	1199.942027	19.567697	1.112481	0	0
14.198264	5.995793	4.231758	52.479787	0.648178	52.196985	0.648178	9.18625E+15	0.000761	1174.755843	19.346887	1.112956	0	0
17.826215	5.994093	3.66465	52.356542	1.003556	51.910589	1.003556	8.797315E+15	0.00078	1153.686823	19.478519	1.110619	0	0
21.496084	5.991518	3.103569	52.230193	1.335204	51.62582	1.335204	8.413003E+15	0.000799	1134.618858	19.430797	1.110184	0	0
25.43448	5.913031	3.108735	52.106091	1.629931	51.355066	1.629931	8.049293E+15	0.000815	1118.82517	19.32755	1.10852	0	0
28.768371	5.989585	1.924096	51.982356	1.898344	51.092274	1.898344	7.699823E+15	0.000831	1105.259124	19.481846	1.106579	0	0
32.35526	5.980933	1.452985	51.860908	2.146313	50.837493	2.146313	7.369202E+15	0.000846	1091.889717	19.23005	1.106777	0	0
35.959617	5.950623	1.128387	51.73554	2.381899	50.580239	2.381899	7.040389E+15	0.000861	1079.738318	19.362173	1.104282	0	0
37.028052	5.934115	1.047846	51.606741	2.600975	50.323247	2.600975	6.715374E+15	0.000873	1070.064423	19.234701	1.104836	0	0
38.07748	5.905284	1.002354	51.48174	2.80756	50.073324	2.80756	6.411954E+15	0.000888	1058.428399	19.168435	1.103014	0	0
39.153632	5.867523	0.946381	51.359598	3.002916	49.829165	3.002916	6.126547E+15	0.000903	1045.174176	19.284662	1.102262	0	0
40.212038	5.809731	0.908767	51.237783	3.189056	49.587048	3.189056	5.852475E+15	0.000919	1030.990095	19.054182	1.102896	0	0
41.272861	5.73988	0.854372	51.105227	3.369009	49.332103	3.369009	5.565862E+15	0.000934	1019.760714	19.232486	1.100915	0	0
42.330286	5.645109	0.801863	50.981819	3.529331	49.095799	3.529331	5.309577E+15	0.000948	1008.214526	19.097756	1.102143	0	0
43.376742	5.511763	0.757126	50.859227	3.674462	48.866157	3.674462	5.064746E+15	0.00096	999.014224	19.091343	1.101034	0	0
44.412455	5.333545	0.714874	50.740393	3.806116	48.646297	3.806116	4.836421E+15	0.000971	990.747036	19.206298	1.100678	0	0
45.436873	5.102687	0.671458	50.619762	3.932516	48.42506	3.932516	4.613438E+15	0.000983	982.416853	19.021405	1.100678	0	0
46.434221	4.789999	0.638049	50.500682	4.049009	48.209397	4.049009	4.401756E+15	0.000993	975.035814	19.225446	1.098935	0	0
47.409386	4.3804	0.613994	50.382338	4.158054	47.997126	4.158054	4.199432E+15	0.001003	968.078193	19.080467	1.099766	0	0
48.354474	3.879774	0.592668	50.25897	4.263341	47.778924	4.263341	3.996811E+15	0.001011	962.17827	19.132666	1.097469	0	0
49.273595	3.267473	0.576396	50.144301	4.35903	47.575863	4.35903	3.815837E+15	0.001021	955.044164	19.204712	1.097073	0	0
50.11997	2.59127	0.574741	50.020893	4.454203	47.360385	4.454203	3.628753E+15	0.00103	948.881903	19.043823	1.096281	0	0
50.922733	1.857196	0.591019	49.898097	4.540692	47.149421	4.540692	3.450263E+15	0.001037	944.847282	19.24311	1.0943	0	0
51.621641	1.143764	0.585417	49.782489	4.62066	46.950428	4.62066	3.288991E+15	0.001045	939.292892	19.061151	1.094657	0	0
42.880013	5.578252	0.779974	49.661164	4.696595	46.745251	4.696595	3.126589E+15	0.00105	936.148267	19.152278	1.091884	0	0
52.500599	0	0	49.548536	4.765126	46.554936	4.765126	2.981914E+15	0.001056	932.158051	19.190179	1.090894	0	0
0	0	0	49.427374	4.834283	46.351975	4.834283	2.832615E+15	0.001062	928.625648	19.035075	1.089825	0	0
0	0	0	49.311153	4.896505	46.15891	4.896505	2.695388E+15	0.001066	925.946843	19.224882	1.08721	0	0
0	0	0	49.195014	4.956053	45.966747	4.956053	2.563926E+15	0.001071	922.979678	19.012248	1.086814	0	0
0	0	0	49.074138	5.013017	45.76909	5.013017	2.432929E+15	0.001073	921.71697	19.124104	1.083883	0	0
0	0	0	48.963389	5.064339	45.587781	5.064339	2.317959E+15	0.001078	919.055283	19.091606	1.08321	0	0
0	0	0	48.842676	5.116578	45.391807	5.116578	2.19797E+15	0.001081	917.185528	18.979298	1.081467	0	0
0	0	0	48.728823	5.162821	45.208279	5.162821	2.089725E+15	0.001083	916.135893	19.138961	1.079724	0	0
0	0	0	48.614644	5.206981	45.02506	5.206981	1.985813E+15	0.001085	915.167546	18.920816	1.079487	0	0
0	0	0	48.497402	5.248707	44.83876	5.248707	1.883791E+15	0.001085	915.947467	19.063634	1.076952	0	0
0	0	0	48.384898	5.287154	44.660508	5.287154	1.790198E+15	0.001085	916.433911	18.99438	1.076714	0	0
0	0	0	48.269575	5.323881	44.479114	5.323881	1.698491E+15	0.001084	918.12526	18.933739	1.074971	0	0
0	0	0	48.156907	5.358622	44.30218	5.358622	1.612888E+15	0.001083	919.157894	19.09088	1.073466	0	0
0	0	0	48.043055	5.391053	44.12481	5.391053	1.530255E+15	0.00108	921.814944	18.891997	1.073149	0	0
0	0	0	47.930019	5.421831	43.949276	5.421831	1.451927E+15	0.001078	924.48859	19.079792	1.070614	0	0
0	0	0	47.816657	5.45076	43.774216	5.45076	1.376956E+15	0.001074	928.138874	18.963432	1.070812	0	0
0	0	0	47.706234	5.478145	43.603877	5.478145	1.307254E+15	0.001071	931.013655	18.959761	1.068475	0	0
0	0	0	47.591769	5.504745	43.428235	5.504745	1.238336E+15	0.001067	934.988649	19.084103	1.066812	0	0
0	0	0	47.479591	5.529683	43.25658	5.529683	1.173969E+15	0.001062	938.898721	18.90801	1.065584	0	0
0	0	0	47.365004	5.553418	43.082199	5.553418	1.111337E+15	0.001057	944.167465	19.112909	1.062574	0	0
0	0	0	47.254378	5.575814	42.913913	5.575814	1.053746E+15	0.001052	948.311455	18.962769	1.062178	0	0
0	0	0	47.144119	5.596688	42.747001	5.596688	9.990474E+14	0.001047	953.550918	18.992193	1.059445	0	0
0	0	0	47.0319	5.61716	42.577424	5.61716	9.460372E+14	0.001042	958.600317	19.06539	1.0579	0	0
0	0	0	46.921641	5.635387	42.412027	5.635387	8.964633E+14	0.001034	966.138299	18.887484	1.056553	0	0
0	0	0	46.81322	5.652913	42.249451	5.652913	8.500445E+14	0.001027	972.756498	19.085922	1.053622	0	0
0	0	0	46.699939	5.670626	42.07981	5.670626	8.039115E+14	0.00102	979.243008	18.901752	1.053226	0	0
0	0	0	46.593723	5.686628	41.921007	5.686628	7.627622E+14	0.001014	985.073312	18.979878	1.050097	0	0
0	0	0	46.479585	5.702456	41.751246	5.702456	7.207204E+14	0.001006	993.326835	19.003387	1.049146	0	0
0	0	0	46.369857	5.716909	41.588461	5.716909	6.82339E+14	0.000998	1001.725445	18.854896	1.047522	0	0
0	0	0	46.263069	5.730038	41.430627	5.730038	6.468198E+14	0.000988	1011.225092	19.048181	1.045106	0	0
0	0	0	46.153954	5.743688	41.268964	5.743688	6.123146E+14	0.000982	1018.208378	18.85997	1.044354	0	0
0	0	0	46.04443	5.755977	41.107711	5.755977	5.79419E+14	0.000972	1028.436152	18.978803	1.041502	0	0
0	0	0	45.937112	5.767772	40.949747	5.767772	5.488011E+14	0.000963	1037.588487	18.964102	1.040868	0	0
0	0	0	45.824362	5.779155	40.78449	5.779155	5.182783E+14	0.000953	1049.405877	18.851919	1.039165	0	0
0	0	0	45.72031	5.789751	40.631752	5.789751	4.915386E+14	0.000945	1058.102477	19.037921	1.036907	0	0
0	0	0	45.607111	5.800147	40.466426	5.800147	4.639333E+14	0.000934	1070.756669	18.829965	1.03659	0	0
0	0	0	45.498853	5.809702	40.308519	5.809702	4.389144E+14	0.000923	1082.912324	18.991831	1.033619	0	0
0	0	0	45.390065	5.818974	40.149998	5.818974	4.150692E+14	0.000913	1094.962759	18.930923	1.033065	0	0
0	0	0	45.279724	5.828062	39.989367	5.828062	3.921487E+14	0.000903	1106.913684	18.880571	1.030847	0	0
0	0	0	45.170119	5.836237	39.830456	5.836237	3.705816E+14	0.000891	1121.782173	19.033776	1.029064	0	0
0	0	0	45.061208	5.844567	39.672245	5.844567	3.502793E+14	0.000882	1133.377256	18.829947	1.028153	0	0
0	0	0	44.947845	5.852319	39.508296	5.852319	3.30283E+14	0.00087	1149.271055	19.022521	1.025183	0	0
0	0	0	44.844161	5.859432	39.358222	5.859432	3.129588E+14	0.000861	1161.829649	18.916814	1.024509	0	0
0	0	0	44.731085	5.866399	39.195188	5.866399	2.950641E+14	0.000848	1179.237624	18.918993	1.021737	0	0
0	0	0	44.624501	5.872981	39.041407	5.872981	2.791041E+14	0.000838	1193.676009	19.047619	1.019637	0	0
0	0	0	44.513916	5.879376	38.882172	5.879376	2.634285E+14	0.000826	1210.163094	18.847194	1.018449	0	0
0	0	0	44.405495	5.885415	38.726185	5.885415	2.488895E+14	0.000815	1226.32558	19.044128	1.015162	0	0
0	0	0	44.294419	5.891314	38.566571	5.891314	2.348031E+14	0.000804	1243.44193	18.890214	1.014647	0	0
0	0	0	44.188571	5.896509	38.414804	5.896509	2.221024E+14	0.000792	1261.973951	18.919225	1.012112	0	0
0	0	0	44.072758	5.902018	38.248842	5.902018	2.08972E+14	0.00078	1282.020557	18.988873	1.010329	0	0
0	0	0	43.970258	5.90682	38.101962	5.90682	1.979845E+14	0.00077	1298.661263	18.828452	1.008666	0	0
0	0	0	43.856896	5.911519	37.940052	5.911519	1.86489E+14	0.000756	1322.083742	19.022706	1.005854	0	0
0	0	0	43.74774	5.916325	37.783801	5.916325	1.760376E+14	0.000747	1339.214972	18.843559	1.005457	0	0
0	0	0	43.637154	5.920367	37.626273	5.920367	1.660345E+14	0.000732	1365.182331	18.932248	1.002645	0	0
0	0	0	43.527508	5.92481	37.46958	5.92481	1.566668E+14	0.000723	1383.062319	18.955659	1.001338	0	0
0	0	0	43.412798	5.928863	37.306195	5.928863	1.474214E+14	0.00071	1408.009005	18.822739	0.999833	0	0
0	0	0	43.305643	5.932738	37.153424	5.932738	1.3927E+14	0.0007	1427.880116	19.026519	0.997179	0	0
0	0	0	43.188932	5.936247	36.98771	5.936247	1.308953E+14	0.000685	1458.970762	18.827738	0.996466	0	0
0	0	0	43.082634	5.939576	36.836595	5.939576	1.237001E+14	0.000674	1483.348691	18.968408	0.993496	0	0
0	0	0	42.965719	5.943192	36.670381	5.943192	1.162354E+14	0.000663	1508.675783	18.931836	0.992624	0	0
0	0	0	42.854439	5.946054	36.512745	5.946054	1.095437E+14	0.000648	1542.111086	18.83953	0.990327	0	0
0	0	0	42.739403	5.948939	36.349823	5.948939	1.030255E+14	0.000634	1576.726564	19.013491	0.988069	0	0
0	0	0	42.625346	5.95192	36.188116	5.95192	9.694117E+13	0.000622	1606.576923	18.8133	0.987317	0	0
0	0	0	42.512229	5.954527	36.028076	5.954527	9.125782E+13	0.000609	1642.405084	18.994897	0.98395	0	0
0	0	0	42.396089	5.957253	35.863667	5.957253	8.576537E+13	0.000597	1676.137502	18.90758	0.983237	0	0
0	0	0	42.269578	5.960256	35.68449	5.960256	8.015407E+13	0.000585	1709.263208	18.875769	0.98094	0	0
0	0	0	42.150294	5.962625	35.51602	5.962625	7.519684E+13	0.000571	1751.126809	19.011299	0.978682	0	0
0	0	0	42.03097	5.964819	35.34765	5.964819	7.054192E+13	0.000557	1796.748239	18.803024	0.977652	0	0
0	0	0	41.917117	5.967294	35.186541	5.967294	6.636709E+13	0.000548	1825.947561	18.997336	0.974523	0	0
0	0	0	41.797262	5.96932	35.017555	5.96932	6.22367E+13	0.000534	1873.970659	18.862874	0.973731	0	0
0	0	0	41.672833	5.97152	34.841975	5.97152	5.821842E+13	0.000521	1918.33387	18.891915	0.970839	0	0
0	0	0	41.554897	5.973561	34.675577	5.973561	5.464791E+13	0.00051	1959.72418	18.980397	0.969096	0	0
0	0	0	41.431856	5.975514	34.502147	5.975514	5.115452E+13	0.000498	2007.743436	18.802799	0.967829	0	0
0	0	0	41.316166	5.977359	34.339039	5.977359	4.807254E+13	0.000488	2050.201896	19.001873	0.965056	0	0
0	0	0	41.191655	5.97912	34.163727	5.97912	4.496152E+13	0.000475	2103.997193	18.811518	0.964898	0	0
0	0	0	41.068451	5.980858	33.990233	5.980858	4.20803E+13	0.000464	2155.230618	18.897257	0.962006	0	0
0	0	0	40.94586	5.982401	33.817796	5.982401	3.939575E+13	0.000452	2214.047193	18.943567	0.960501	0	0
0	0	0	40.818858	5.983812	33.639353	5.983812	3.679425E+13	0.000438	2284.384236	18.809769	0.958877	0	0
0	0	0	40.695613	5.98529	33.466036	5.98529	3.443333E+13	0.000427	2344.510418	19.017847	0.956184	0	0
0	0	0	40.565181	5.986876	33.282558	5.986876	3.209883E+13	0.000416	2403.908426	18.802276	0.956025	0	0
0	0	0	40.437036	5.988092	33.10269	5.988092	2.995887E+13	0.000403	2484.381262	18.939451	0.952857	0	0
0	0	0	40.305664	5.98964	32.917902	5.98964	2.791251E+13	0.000393	2541.861876	18.908796	0.951985	0	0
0	0	0	40.175396	5.990725	32.735197	5.990725	2.602091E+13	0.00038	2632.960706	18.826932	0.949846	0	0
0	0	0	40.043167	5.992238	32.549209	5.992238	2.42315E+13	0.000372	2687.005605	19.007404	0.947391	0	0
0	0	0	39.909795	5.993243	32.362241	5.993243	2.255087E+13	0.000359	2787.016849	18.799663	0.946836	0	0
0	0	0	39.777607	5.994278	32.176868	5.994278	2.09999E+13	0.000347	2882.08997	18.973163	0.943786	0	0
0	0	0	39.639007	5.995247	31.982634	5.995247	1.948784E+13	0.000334	2994.009918	18.895075	0.943113	0	0
0	0	0	39.502082	5.996425	31.790444	5.996425	1.810074E+13	0.000325	3077.138264	18.849668	0.940855	0	0
0	0	0	39.360052	5.997154	31.591705	5.997154	1.676592E+13	0.00031	3224.337737	18.992731	0.938796	0	0
0	0	0	39.219656	5.998464	31.394469	5.998464	1.554303E+13	0.000304	3288.47918	18.801382	0.937647	0	0
0	0	0	39.075176	5.999336	31.192098	5.999336	1.437746E+13	0.000293	3418.787852	18.995918	0.934676	0	0
0	0	0	38.931799	6.000115	30.991369	6.000115	1.330705E+13	0.000281	3562.157995	18.853384	0.934399	0	0
0	0	0	38.782337	6.00102	30.781982	6.00102	1.227584E+13	0.000271	3695.750556	18.890124	0.931428	0	0
0	0	0	38.635162	6.001806	30.575922	6.001806	1.13384E+13	0.00026	3845.38272	18.981575	0.930042	0	0
0	0	0	38.480351	6.002417	30.359447	6.002417	1.042937E+13	0.000247	4048.871334	18.793479	0.928893	0	0
0	0	0	38.327091	6.003604	30.144335	6.003604	9.601169E+12	0.000243	4120.204295	19.005671	0.926081	0	0
0	0	0	38.168032	6.004017	29.922185	6.004017	8.811029E+12	0.000228	4384.457758	18.835258	0.925447	0	0
0	0	0	38.006483	6.004815	29.696022	6.004815	8.074976E+12	0.000219	4561.893369	18.923207	0.922833	0	0
0	0	0	37.845668	6.005801	29.470604	6.005801	7.403291E+12	0.000214	4676.266032	18.961387	0.921407	0	0
0	0	0	37.682608	6.006247	29.242795	6.006247	6.779199E+12	0.000202	4959.08618	18.815233	0.92006	0	0
0	0	0	37.515586	6.006787	29.009324	6.006787	6.194407E+12	0.000191	5231.247174	19.019182	0.917367	0	0
0	0	0	37.341337	6.007377	28.765698	6.007377	5.637967E+12	0.000181	5512.053995	18.808285	0.917169	0	0
0	0	0	37.170517	6.008045	28.526728	6.008045	5.140997E+12	0.000174	5753.125851	18.948761	0.913961	0	0
0	0	0	36.991775	6.008668	28.276768	6.008668	4.667785E+12	0.000166	6036.145976	18.909065	0.913406	0	0
0	0	0	36.813891	6.009348	28.027905	6.009348	4.240071E+12	0.000159	6284.526945	18.831688	0.911307	0	0
0	0	0	36.628493	6.009657	27.769103	6.009657	3.835924E+12	0.000148	6765.734111	19.001894	0.909247	0	0
0	0	0	36.439787	6.010373	27.505078	6.010373	3.464085E+12	0.000142	7027.066111	18.787703	0.908693	0	0
0	0	0	36.249489	6.011	27.238949	6.011	3.125585E+12	0.000136	7337.054712	18.965317	0.905643	0	0
0	0	0	36.058088	6.011155	26.971983	6.011155	2.818469E+12	0.000125	8013.443292	18.874296	0.905049	0	0
0	0	0	35.859867	6.011792	26.694772	6.011792	2.532172E+12	0.00012	8353.442027	18.850221	0.902553	0	0
0	0	0	35.660135	6.012148	26.415873	6.012148	2.27309E+12	0.000112	8954.019446	18.98761	0.900612	0	0
0	0	0	35.458402	6.012554	26.134097	6.012554	2.038305E+12	0.000105	9537.25101	18.784596	0.899741	0	0
0	0	0	35.254138	6.013038	25.84866	6.013038	1.825265E+12	9.946365E-5	10053.92387	18.998682	0.896652	0	0
0	0	0	35.047341	6.013236	25.560133	6.013236	1.632252E+12	9.115481E-5	10970.34814	18.837936	0.896414	0	0
0	0	0	34.836012	6.013558	25.265085	6.013558	1.456073E+12	8.473661E-5	11801.27524	18.873318	0.893681	0	0
0	0	0	34.624805	6.014327	24.969482	6.014327	1.298993E+12	8.404907E-5	11897.812286	18.955301	0.892017	0	0
0	0	0	34.4127	6.014451	24.673649	6.014451	1.158294E+12	7.632584E-5	13101.722596	18.780969	0.890631	0	0
0	0	0	34.199165	6.014726	24.375573	6.014726	1.032035E+12	7.089812E-5	14104.74681	19.000596	0.8877	0	0
0	0	0	33.981302	6.014862	24.071688	6.014862	9.173879E+11	6.436684E-5	15535.948841	18.811592	0.887621	0	0
0	0	0	33.760539	6.015081	23.763618	6.015081	8.141985E+11	5.916948E-5	16900.604148	18.904153	0.884808	0	0
0	0	0	33.539491	6.015338	23.455079	6.015338	7.225033E+11	5.480812E-5	18245.471031	18.914738	0.883897	0	0
0	0	0	33.31734	6.015925	23.144437	6.015925	6.40752E+11	5.401942E-5	18511.861233	18.79809	0.882155	0	0
0	0	0	33.093188	6.016287	22.831374	6.016287	5.676358E+11	5.137577E-5	19464.426814	18.991625	0.87958	0	0
0	0	0	32.857602	6.01639	22.502806	6.01639	4.99764E+11	4.620424E-5	21643.034427	18.777274	0.879263	0	0
0	0	0	32.624874	6.016452	22.178292	6.016452	4.406874E+11	4.127314E-5	24228.830597	18.936569	0.875976	0	0
0	0	0	32.392269	6.01691	21.853252	6.01691	3.886197E+11	4.028239E-5	24824.744617	18.869921	0.87558	0	0
0	0	0	32.155212	6.017003	21.522639	6.017003	3.418799E+11	3.622172E-5	27607.743167	18.807661	0.873361	0	0
0	0	0	31.921423	6.017221	21.196355	6.017221	3.012929E+11	3.366705E-5	29702.630295	18.972413	0.871341	0	0
0	0	0	31.682896	6.017299	20.863712	6.017299	2.648452E+11	3.018596E-5	33127.987148	18.760593	0.870708	0	0
0	0	0	31.441266	6.01737	20.526752	6.01737	2.324161E+11	2.698054E-5	37063.750478	18.963983	0.867301	0	0
0	0	0	31.194368	6.017732	20.181915	6.017732	2.033778E+11	2.607254E-5	38354.532779	18.837969	0.866945	0	0
0	0	0	30.944244	6.018	19.83274	6.018	1.776574E+11	2.46864E-5	40508.133672	18.844932	0.864529	0	0
0	0	0	30.687586	6.018123	19.474721	6.018123	1.546425E+11	2.23439E-5	44754.935921	18.944656	0.863103	0	0
0	0	0	30.429866	6.018285	19.115143	6.018285	1.345318E+11	2.051779E-5	48738.191344	18.758323	0.862113	0	0
0	0	0	30.162713	6.018268	18.742749	6.018268	1.164411E+11	1.765615E-5	56637.487831	18.969276	0.858785	0	0
0	0	0	29.88482	6.018662	18.354596	6.018662	1.001996E+11	1.754733E-5	56988.711278	18.798628	0.858429	0	0
0	0	0	29.602803	6.018717	17.961334	6.018717	8.60315E+10	1.540215E-5	64925.997978	18.86324	0.855696	0	0
0	0	0	29.316906	6.019057	17.562105	6.019057	7.371197E+10	1.528969E-5	65403.535736	18.892393	0.854666	0	0
0	0	0	29.025578	6.019033	17.15601	6.019033	6.29714E+10	1.291534E-5	77427.332433	18.742106	0.85324	0	0
0	0	0	28.722325	6.019055	16.7332	6.019055	5.345017E+10	1.107443E-5	90298.095702	18.936401	0.850943	0	0
0	0	0	28.420053	6.019268	16.31137	6.019268	4.539258E+10	1.044448E-5	95744.399617	18.744871	0.850269	0	0
0	0	0	28.124559	6.01931	15.899332	6.01931	3.869119E+10	9.09573E-6	109941.693519	18.887713	0.84722	0	0
0	0	0	27.8327	6.01937	15.49232	6.01937	3.304399E+10	8.025571E-6	124601.722384	18.852997	0.846467	0	0
0	0	0	27.543904	6.019484	15.089466	6.019484	2.826779E+10	7.319023E-6	136630.25854	18.759354	0.844605	0	0
0	0	0	27.256047	6.01965	14.687807	6.01965	2.419423E+10	6.935757E-6	144180.377617	18.932964	0.842189	0	0
0	0	0	26.961043	6.019803	14.276206	6.019803	2.062784E+10	6.560313E-6	152431.756202	18.700695	0.84207	0	0
0	0	0	26.666489	6.01985	13.865452	6.01985	1.759144E+10	5.789077E-6	172739.117984	18.884086	0.838981	0	0
0	0	0	26.362175	6.01989	13.441102	6.01989	1.492304E+10	5.062014E-6	197549.840437	18.790771	0.838506	0	0
0	0	0	26.049407	6.019944	13.004938	6.019944	1.26017E+10	4.456484E-6	224392.128358	18.778332	0.835891	0	0
0	0	0	25.74007	6.020083	12.573365	6.020083	1.066119E+10	4.24067E-6	235811.801934	18.908629	0.834109	0	0
0	0	0	25.4418	6.02021	12.157246	6.02021	9.073624E+9	4.068243E-6	245806.364137	18.697717	0.833436	0	0
0	0	0	25.152268	6.020223	11.753556	6.020223	7.75903E+9	3.52683E-6	283540.729068	18.899604	0.830505	0	0
0	0	0	24.863635	6.020263	11.351059	6.020263	6.638118E+9	3.145783E-6	317885.929914	18.741397	0.830267	0	0
0	0	0	24.575084	6.020171	10.948974	6.020171	5.679389E+9	2.449853E-6	408187.710471	18.792663	0.827653	0	0
0	0	0	24.287553	6.02029	10.547832	6.02029	4.86181E+9	2.37178E-6	421624.288039	18.856839	0.826504	0	0
0	0	0	23.997083	6.020389	10.142632	6.020389	4.155316E+9	2.275421E-6	439479.175609	18.703185	0.824761	0	0
0	0	0	23.70747	6.020429	9.738763	6.020429	3.553133E+9	2.046084E-6	488738.567982	18.90336	0.822345	0	0
0	0	0	23.411527	6.020304	9.326454	6.020304	3.02784E+9	1.499471E-6	666901.858963	18.702039	0.821989	0	0
0	0	0	23.11195	6.020429	8.90849	6.020429	2.575141E+9	1.483283E-6	674180.0447	18.823757	0.818741	0	0
0	0	0	22.813516	6.020449	8.492366	6.020449	2.19148E+9	1.295763E-6	771746.30029	18.79455	0.818503	0	0
0	0	0	22.52427	6.020754	8.08837	6.020754	1.874266E+9	1.862938E-6	536786.402138	18.696434	0.816443	0	0
0	0	0	22.227838	6.020662	7.675302	6.020662	1.596752E+9	1.314789E-6	760578.32599	18.88443	0.814304	0	0
0	0	0	21.934631	6.020556	7.266767	6.020556	1.362703E+9	9.380912E-7	1065994.477682	18.668945	0.813869	0	0
0	0	0	21.630725	6.020509	6.843174	6.020509	1.156254E+9	7.427166E-7	1346408.527121	18.847705	0.810819	0	0
0	0	0	21.331515	6.020754	6.425408	6.020754	9.835751E+8	9.78006E-7	1022488.591509	18.750855	0.810542	0	0
0	0	0	21.02863	6.020741	6.003153	6.020741	8.350242E+8	8.064636E-7	1239981.499383	18.699889	0.808522	0	0
0	0	0	20.722764	6.020887	5.576342	6.020887	7.077677E+8	1.00006E-6	999939.935474	18.85184	0.80662	0	0
0	0	0	20.41551	6.020814	5.148144	6.020814	5.994548E+8	6.878462E-7	1453813.451904	18.640285	0.805907	0	0
0	0	0	20.103845	6.020748	4.713783	6.020748	5.065084E+8	4.963925E-7	2014534.751798	18.853336	0.802897	0	0
0	0	0	19.788872	6.020887	4.274284	6.020887	4.27209E+8	6.037426E-7	1656335.119123	18.69047	0.802897	0	0
0	0	0	19.468223	6.020947	3.827072	6.020947	3.592208E+8	6.263246E-7	1596616.216334	18.744001	0.800006	0	0
0	0	0	19.142266	6.0209	3.372733	6.0209	3.01187E+8	4.443875E-7	2250288.425749	18.792345	0.799095	0	0
0	0	0	18.814593	6.02094	2.915777	6.02094	2.522948E+8	4.287957E-7	2332112.958256	18.62449	0.797748	0	0
0	0	0	18.483653	6.021232	2.453594	6.021232	2.109665E+8	-3.153095E-6	-317148.719326	18.837401	0.795015	0	0
0	0	0	18.147364	6.020715	1.98611	6.020715	1.758987E+8	1.606839E-7	6223398.813726	18.640504	0.794936	0	0
0	0	0	17.810258	6.021119	1.515018	6.021119	1.465953E+8	7.871594E-7	1270390.778982	18.765678	0.792005	0	0
0	0	0	17.464862	6.020947	1.033922	6.020947	1.216273E+8	2.121069E-7	4714603.961811	18.761817	0.791173	0	0
0	0	0	17.115056	6.021099	0.545792	6.021099	1.006716E+8	4.360203E-7	2293471.224485	18.649809	0.789351	0	0
0	0	0	16.757736	6.021099	0.047601	6.021099	8.298867E+7	3.594477E-7	2782045.575896	18.813567	0.787648	0	0
0	0	0	16.402539	6.020788	-0.446757	6.020788	6.84903E+7	7.358089E-8	1.359049E+7	18.598353	0.786974	0	0
0	0	0	16.040849	6.021079	-0.951855	6.021079	5.632679E+7	2.04422E-7	4891842.43194	18.770016	0.784162	0	0
0	0	0	15.67724	6.021291	-1.459417	6.021291	4.627541E+7	-2.302004E-7	-4344041.508153	18.681332	0.783647	0	0
0	0	0	15.310487	6.021192	-1.970479	6.021192	3.795311E+7	1.697352E-6	589152.921442	18.658747	0.781271	0	0
0	0	0	14.937567	6.021304	-2.490747	6.021304	3.102393E+7	-1.344101E-7	-7439915.191131	18.79047	0.779765	0	0
0	0	0	14.563627	6.021079	-3.011458	6.021079	2.534583E+7	9.199102E-8	1.087063E+7	18.577803	0.779052	0	0
0	0	0	14.18646	6.021145	-3.537515	6.021145	2.067088E+7	1.632799E-7	6124450.700146	18.785638	0.77628	0	0
0	0	0	13.800105	6.021238	-4.076463	6.021238	1.677468E+7	-2.048217E-7	-4882296.343546	18.618	0.776082	0	0
0	0	0	13.417017	6.021086	-4.610128	6.021086	1.363692E+7	5.232375E-8	1.911178E+7	18.670807	0.773586	0	0
0	0	0	13.036951	6.020973	-5.139691	6.020973	1.110422E+7	2.161211E-8	4.627036E+7	18.738571	0.77224	0	0
0	0	0	12.657906	6.021344	-5.669298	6.021344	9046891	-2.82554E-8	-3.539147E+7	18.580259	0.771012	0	0
0	0	0	12.275716	6.021046	-6.201254	6.021046	7358215.5	2.102486E-8	4.756275E+7	18.782699	0.768556	0	0
0	0	0	11.895527	6.021073	-6.731409	6.021073	5991221.5	2.063048E-8	4.847198E+7	18.577155	0.768477	0	0
0	0	0	11.518401	6.021099	-7.257296	6.021099	4886268.5	2.116772E-8	4.724175E+7	18.707721	0.765387	0	0
0	0	0	11.142051	6.021006	-7.781727	6.021006	3986772.5	9.074669E-9	1.101969E+8	18.664087	0.765189	0	0
0	0	0	10.768683	6.021291	-8.303193	6.021291	3258107.5	-1.620575E-8	-6.17065E+7	18.58887	0.763011	0	0
0	0	0	10.39756	6.021159	-8.82021	6.021159	2665856	2.753914E-8	3.631196E+7	18.754256	0.761466	0	0
0	0	0	10.030112	6.021092	-9.332309	6.021092	2185600.5	8.894433E-9	1.124299E+8	18.552541	0.760634	0	0
0	0	0	9.663032	6.021145	-9.844279	6.021145	1792219.5	1.415802E-8	7.063134E+7	18.720552	0.758258	0	0
0	0	0	9.301261	6.021351	-10.349347	6.021351	1473865.5	-4.398554E-9	-2.273475E+8	18.621652	0.757822	0	0
0	0	0	8.943573	6.021245	-10.847708	6.021245	1214740	-1.254892E-8	-7.968813E+7	18.603201	0.755485	0	0
0	0	0	8.590704	6.021212	-11.339586	6.021212	1003783.5	-4.493579E-8	-2.225398E+7	18.724467	0.754178	0	0
0	0	0	8.242817	6.021285	-11.82487	6.021285	831700	-4.467774E-9	-2.238251E+8	18.537874	0.753029	0	0
0	0	0	7.897789	6.02141	-12.306349	6.02141	690183	-1.471254E-9	-6.796924E+8	18.747824	0.750415	0	0
0	0	0	7.556272	6.021351	-12.782311	6.021351	573833.5	-1.712526E-9	-5.839326E+8	18.560299	0.750534	0	0
0	0	0	7.217737	6.021205	-13.253821	6.021205	477868	-6.417783E-8	-1.55817E+7	18.625531	0.747959	0	0
0	0	0	6.886185	6.021404	-13.716767	6.021404	399456.5	-8.794343E-10	-1.137095E+9	18.658943	0.747088	0	0
0	0	0	6.556919	6.021238	-14.175279	6.021238	334324	-4.081683E-9	-2.44997E+8	18.513044	0.745583	0	0
0	0	0	6.237577	6.021338	-14.620866	6.021338	281316.5	-9.21457E-10	-1.085238E+9	18.715804	0.743325	0	0
0	0	0	5.920032	6.021589	-15.064483	6.021589	236943.5	-2.71971E-10	-3.676863E+9	18.503996	0.742969	0	0
0	0	0	5.606284	6.02147	-15.501515	6.02147	199980	-3.315623E-10	-3.016024E+9	18.645327	0.740077	0	0
0	0	0	5.294334	6.021291	-15.935826	6.021291	168946.5	-8.403286E-10	-1.190011E+9	18.604092	0.73984	0	0
0	0	0	4.983526	6.021298	-16.369194	6.021298	142817.5	-6.61374E-10	-1.512004E+9	18.514135	0.738097	0	0
0	0	0	4.666471	6.021278	-16.811179	6.021278	120322	-7.025559E-10	-1.423374E+9	18.681825	0.736235	0	0
0	0	0	4.370242	6.021444	-17.224791	6.021444	102518	-1.885996E-10	-5.302237E+9	18.463897	0.735799	0	0
0	0	0	4.074994	6.021338	-17.636063	6.021338	87394.5	-2.862621E-10	-3.493302E+9	18.663815	0.732789	0	0
0	0	0	3.785503	6.021377	-18.039831	6.021377	74734.5	-1.89369E-10	-5.280696E+9	18.524612	0.73271	0	0
0	0	0	3.504098	6.021483	-18.432569	6.021483	64188	-1.014141E-10	-9.860559E+9	18.530976	0.730294	0	0
0	0	0	3.229717	6.021384	-18.814765	6.021384	55340	-1.351263E-10	-7.400481E+9	18.615432	0.729264	0	0
0	0	0	2.956806	6.021463	-19.195567	6.021463	47749.5	-8.117182E-11	-1.231955E+10	18.430164	0.728313	0	0
0	0	0	2.686019	6.021179	-19.572063	6.021179	41247	7.913302E-10	1.263695E+9	18.646201	0.725699	0	0
0	0	0	2.428585	6.021603	-19.932564	6.021603	35888.5	-3.983213E-11	-2.510536E+10	18.462202	0.725541	0	0
0	0	0	2.175235	6.021145	-20.284099	6.021145	31295	2.472234E-10	4.044925E+9	18.559618	0.722887	0	0
0	0	0	1.926989	6.02145	-20.631355	6.02145	27365	-4.900019E-11	-2.040809E+10	18.567929	0.722214	0	0
0	0	0	1.687932	6.021205	-20.963742	6.021205	24047.5	-3.22949E-9	-3.096464E+8	18.427297	0.721025	0	0
0	0	0	1.45696	6.021463	-21.28675	6.021463	21225	-3.608146E-11	-2.771506E+10	18.621859	0.718886	0	0
0	0	0	1.243099	6.021258	-21.584151	6.021258	18908	-1.493689E-10	-6.694833E+9	18.398462	0.718649	0	0
0	0	0	1.049044	6.021417	-21.855318	6.021417	17024.5	-3.517423E-11	-2.842991E+10	18.563142	0.716233	0	0
0	0	0	0.879735	6.02141	-22.091353	6.02141	15536	-3.311786E-11	-3.019519E+10	18.492512	0.715718	0	0
0	0	0	0.739829	6.021404	-22.286394	6.021404	14404	-3.17115E-11	-3.15343E+10	18.439022	0.713975	0	0
0	0	0	0.613031	6.021238	-22.462548	6.021238	13450	-1.642076E-10	-6.089854E+9	18.575406	0.71243	0	0
0	0	0	0.509184	6.021603	-22.608736	6.021603	12715.5	-1.411275E-11	-7.085792E+10	18.353217	0.712113	0	0
0	0	0	0.417342	6.021318	-22.735693	6.021318	12099.5	-4.642618E-11	-2.153957E+10	18.567498	0.709499	0	0
0	0	0	0.341019	6.021477	-22.84272	6.021477	11610.5	-1.878609E-11	-5.323088E+10	18.430043	0.709301	0	0
0	0	0	0.275884	6.021404	-22.933254	6.021404	11209	-2.467747E-11	-4.05228E+10	18.4864	0.706845	0	0
0	0	0	0.217774	6.02143	-23.014377	6.02143	10862	-2.114094E-11	-4.730159E+10	18.548081	0.705934	0	0
0	0	0	0.178571	6.021477	-23.069215	6.021477	10634.5	-1.72069E-11	-5.811624E+10	18.3718	0.704944	0	0
0	0	0	0.136142	6.021377	-23.127989	6.021377	10393.5	-2.633598E-11	-3.797087E+10	18.572632	0.702805	0	0
0	0	0	0.109843	6.021404	-23.164759	6.021404	10246.5	-2.255845E-11	-4.432929E+10	18.360255	0.702845	0	0
0	0	0	0.072641	6.021119	-23.215527	6.021119	10042.5	5.394676E-11	1.853679E+10	18.5024	0.699953	0	0
0	0	0	0.056388	6.021285	-23.238828	6.021285	9954.5	-5.347404E-11	-1.870066E+10	18.461747	0.699636	0	0
0	0	0	0.041482	6.021331	-23.259789	6.021331	9875	-3.400447E-11	-2.94079E+10	18.380316	0.697973	0	0
0	0	0	0.015306	6.021344	-23.296337	6.021344	9736	-3.040714E-11	-3.288701E+10	18.560233	0.696151	0	0
0	0	0	-0.001355	6.021245	-23.319182	6.021245	9649	-9.967873E-11	-1.003223E+10	18.322654	0.695992	0	0
0	0	0	-0.010339	6.021304	-23.331939	6.021304	9602	-4.159715E-11	-2.404011E+10	18.511182	0.693418	0	0
0	0	0	-0.015566	6.02155	-23.340177	6.02155	9575	-1.224653E-11	-8.165579E+10	18.394032	0.693418	0	0
0	0	0	-0.020753	6.021689	-23.347947	6.021689	9548.5	-8.723311E-12	-1.146354E+11	18.399738	0.691279	0	0
0	0	0	-0.026225	6.021092	-23.353266	6.021092	9520	3.87424E-11	2.581151E+10	18.504148	0.69017	0	0
0	0	0	-0.034882	6.021364	-23.366389	6.021364	9475.5	-2.596986E-11	-3.850618E+10	18.313797	0.689417	0	0
0	0	0	-0.04554	6.021278	-23.380916	6.021278	9421	-5.500887E-11	-1.817889E+10	18.520061	0.686922	0	0
0	0	0	-0.052564	6.021232	-23.390529	6.021232	9385.5	-1.400485E-10	-7.140384E+9	18.319944	0.68708	0	0
0	0	0	-0.061426	6.021311	-23.403193	6.021311	9340.5	-3.801191E-11	-2.630754E+10	18.404893	0.684783	0	0
0	0	0	-0.068	6.021238	-23.412077	6.021238	9307.5	-1.136328E-10	-8.800272E+9	18.401733	0.684149	0	0
0	0	0	-0.074575	6.021344	-23.421655	6.021344	9274.5	-2.89658E-11	-3.452347E+10	18.291199	0.682763	0	0
0	0	0	-0.077107	6.021384	-23.425339	6.021384	9262	-2.261547E-11	-4.421752E+10	18.47924	0.680783	0	0
0	0	0	-0.080496	6.021238	-23.429499	6.021238	9245	-1.128698E-10	-8.859766E+9	18.26265	0.680624	0	0
0	0	0	-0.081477	6.021344	-23.431277	6.021344	9240	-2.885805E-11	-3.465237E+10	18.438532	0.678168	0	0
0	0	0	-0.083273	6.021417	-23.434065	6.021417	9231	-1.907212E-11	-5.243256E+10	18.333273	0.67797	0	0
0	0	0	-0.084458	6.021391	-23.435613	6.021391	9225	-2.173477E-11	-4.600923E+10	18.30371	0.676069	0	0
0	0	0	-0.086214	6.021371	-23.437984	6.021371	9216.5	-2.426942E-11	-4.120412E+10	18.435641	0.674683	0	0
0	0	0	-0.087316	6.021304	-23.439265	6.021304	9210.5	-3.990112E-11	-2.506196E+10	18.22832	0.674326	0	0
0	0	0	-0.087561	6.021503	-23.440377	6.021503	9209.5	-1.359121E-11	-7.357695E+10	18.438828	0.671831	0	0
0	0	0	-0.088786	6.021417	-23.441751	6.021417	9203.5	-1.90153E-11	-5.258923E+10	18.25081	0.671989	0	0
0	0	0	-0.088745	6.021384	-23.441566	6.021384	9203.5	-2.247263E-11	-4.449858E+10	18.334769	0.669573	0	0
0	0	0	-0.089317	6.021457	-23.442646	6.021457	9201	-1.604752E-11	-6.231494E+10	18.353119	0.668979	0	0
0	0	0	-0.090297	6.021463	-23.444038	6.021463	9196	-1.563275E-11	-6.396827E+10	18.196257	0.667989	0	0
0	0	0	-0.090216	6.021271	-23.443179	6.021271	9196.5	-5.881212E-11	-1.70033E+10	18.400223	0.66589	0	0
0	0	0	-0.090828	6.021298	-23.444136	6.021298	9193.5	-4.257419E-11	-2.348841E+10	18.199772	0.665612	0	0
0	0	0	-0.091277	6.021563	-23.44579	6.021563	9191	-1.1324E-11	-8.830803E+10	18.363297	0.663117	0	0
0	0	0	-0.091808	6.021205	-23.445142	6.021205	9188.5	-1.23398E-9	-8.103858E+8	18.287367	0.662959	0	0
0	0	0	-0.092298	6.021424	-23.446674	6.021424	9186	-1.84126E-11	-5.431063E+10	18.230325	0.661335	0	0
0	0	0	-0.092707	6.021298	-23.446755	6.021298	9184	-4.25302E-11	-2.35127E+10	18.36161	0.660067	0	0
0	0	0	-0.092829	6.021477	-23.447619	6.021477	9183.5	-1.485914E-11	-6.729865E+10	18.154001	0.659473	0	0
0	0	0	-0.092788	6.02155	-23.447845	6.02155	9183.5	-1.17458E-11	-8.513684E+10	18.358852	0.657136	0	0
0	0	0	-0.092707	6.021298	-23.446755	6.021298	9184	-4.25302E-11	-2.35127E+10	18.202222	0.657136	0	0
0	0	0	-0.092094	6.021318	-23.445978	6.021318	9187	-3.525082E-11	-2.836814E+10	18.263334	0.654641	0	0
0	0	0	-0.092788	6.021483	-23.447588	6.021483	9183.5	-1.450951E-11	-6.89203E+10	18.296072	0.654284	0	0
0	0	0	-0.091686	6.021457	-23.445948	6.021457	9189	-1.602659E-11	-6.239631E+10	18.139073	0.653294	0	0
0	0	0	-0.093197	6.021457	-23.448055	6.021457	9181.5	-1.601351E-11	-6.244728E+10	18.346466	0.651036	0	0
0	0	0	-0.092176	6.02151	-23.446837	6.02151	9186.5	-1.326572E-11	-7.538229E+10	18.125003	0.651195	0	0
0	0	0	-0.091931	6.021364	-23.44593	6.021364	9187.5	-2.518053E-11	-3.971323E+10	18.273355	0.64858	0	0
0	0	0	-0.091727	6.021417	-23.445851	6.021417	9189	-1.898534E-11	-5.267221E+10	18.22574	0.648343	0	0
0	0	0	-0.092421	6.021324	-23.446459	6.021324	9185.5	-3.333992E-11	-2.999407E+10	18.142225	0.646877	0	0
0	0	0	-0.090624	6.021463	-23.444493	6.021463	9194	-1.562935E-11	-6.398218E+10	18.298825	0.645372	0	0
0	0	0	-0.090379	6.021603	-23.444691	6.021603	9195.5	-1.020595E-11	-9.798204E+10	18.073195	0.645095	0	0
0	0	0	-0.09091	6.021377	-23.444558	6.021377	9193	-2.329405E-11	-4.292943E+10	18.276563	0.642481	0	0
0	0	0	-0.090583	6.021351	-23.444	6.021351	9194.5	-2.743969E-11	-3.644357E+10	18.120181	0.64256	0	0
0	0	0	-0.090542	6.021192	-23.443326	6.021192	9195	4.116177E-10	2.429439E+9	18.152441	0.640223	0	0
0	0	0	-0.08993	6.021311	-23.442934	6.021311	9197.5	-3.742996E-11	-2.671656E+10	18.214252	0.639748	0	0
0	0	0	-0.090828	6.021344	-23.444315	6.021344	9193.5	-2.871283E-11	-3.482764E+10	18.04456	0.638718	0	0
0	0	0	-0.08993	6.021344	-23.443063	6.021344	9197.5	-2.872532E-11	-3.481249E+10	18.247045	0.636856	0	0
0	0	0	-0.090624	6.021338	-23.444005	6.021338	9194	-3.011509E-11	-3.320594E+10	18.045266	0.636737	0	0
0	0	0	-0.089807	6.021258	-23.442558	6.021258	9198.5	-7.266606E-11	-1.376158E+10	18.18868	0.634163	0	0
0	0	0	-0.090787	6.021159	-23.443539	6.021159	9193.5	9.49732E-11	1.052929E+10	18.150639	0.634004	0	0
0	0	0	-0.090951	6.021265	-23.444178	6.021265	9192.5	-6.497459E-11	-1.539063E+10	18.077248	0.632143	0	0
0	0	0	-0.091359	6.021265	-23.444747	6.021265	9190.5	-6.496046E-11	-1.539398E+10	18.231077	0.630915	0	0
0	0	0	-0.091236	6.021338	-23.444859	6.021338	9191.5	-3.01069E-11	-3.321498E+10	17.993945	0.630796	0	0
0	0	0	-0.092176	6.021205	-23.445655	6.021205	9186.5	-1.233712E-9	-8.105623E+8	18.198782	0.628221	0	0
0	0	0	-0.092298	6.021318	-23.446262	6.021318	9186	-3.524698E-11	-2.837122E+10	18.049879	0.628499	0	0
0	0	0	-0.091318	6.021251	-23.444639	6.021251	9191	-8.228772E-11	-1.215248E+10	18.083133	0.626083	0	0
0	0	0	-0.093687	6.021536	-23.449046	6.021536	9179	-1.220499E-11	-8.193368E+10	18.143441	0.62529	0	0
0	0	0	-0.094422	6.021523	-23.45002	6.021523	9175.5	-1.270345E-11	-7.87188E+10	17.960926	0.624498	0	0
0	0	0	-0.09483	6.021338	-23.44987	6.021338	9173.5	-3.004794E-11	-3.328015E+10	18.170553	0.622557	0	0
0	0	0	-0.094136	6.02151	-23.44957	6.02151	9177	-1.3252E-11	-7.546033E+10	17.962913	0.622518	0	0
0	0	0	-0.095524	6.021344	-23.450863	6.021344	9170	-2.863943E-11	-3.491689E+10	18.090604	0.620141	0	0
0	0	0	-0.094503	6.021397	-23.449645	6.021397	9175	-2.088419E-11	-4.788312E+10	18.061496	0.619864	0	0
0	0	0	-0.096994	6.021424	-23.453221	6.021424	9162.5	-1.83655E-11	-5.444992E+10	17.966768	0.618398	0	0
0	0	0	-0.09773	6.021198	-23.453372	6.021198	9159	1.230018E-9	8.12996E+8	18.134459	0.616814	0	0
0	0	0	-0.098179	6.02153	-23.455284	6.02153	9157	-1.242171E-11	-8.050418E+10	17.899975	0.616735	0	0
0	0	0	-0.098669	6.02143	-23.455581	6.02143	9154.5	-1.781759E-11	-5.61243E+10	18.101569	0.61416	0	0
0	0	0	-0.098383	6.021265	-23.45454	6.021265	9156	-6.47166E-11	-1.545199E+10	17.939295	0.614556	0	0
0	0	0	-0.0992	6.021503	-23.456604	6.021503	9152	-1.350635E-11	-7.403922E+10	17.973557	0.612299	0	0
0	0	0	-0.098914	6.021477	-23.456103	6.021477	9153.5	-1.48106E-11	-6.751921E+10	18.050889	0.611427	0	0
0	0	0	-0.100139	6.021583	-23.458222	6.021583	9147	-1.06818E-11	-9.36172E+10	17.86866	0.610437	0	0
0	0	0	-0.09969	6.02141	-23.456928	6.02141	9149.5	-1.950385E-11	-5.127193E+10	18.076569	0.608338	0	0
0	0	0	-0.100629	6.021609	-23.459008	6.021609	9145	-9.984864E-12	-1.001516E+11	17.863094	0.608773	0	0
0	0	0	-0.099935	6.021384	-23.457167	6.021384	9148	-2.233711E-11	-4.476855E+10	17.994329	0.606436	0	0
0	0	0	-0.101282	6.021364	-23.458968	6.021364	9141.5	-2.505445E-11	-3.991307E+10	17.958595	0.60608	0	0
0	0	0	-0.101405	6.021291	-23.458856	6.021291	9141	-4.54667E-11	-2.199412E+10	17.875579	0.604614	0	0
0	0	0	-0.10067	6.021371	-23.45814	6.021371	9144.5	-2.407982E-11	-4.152854E+10	18.039598	0.602951	0	0
0	0	0	-0.100588	6.021185	-23.457307	6.021185	9145	2.456276E-10	4.071203E+9	17.811303	0.602911	0	0
0	0	0	-0.100588	6.021404	-23.458155	6.021404	9145	-2.013341E-11	-4.966868E+10	18.002007	0.600416	0	0
0	0	0	-0.099935	6.021516	-23.45768	6.021516	9148	-1.293201E-11	-7.732749E+10	17.831159	0.600891	0	0
0	0	0	-0.09826	6.021444	-23.455063	6.021444	9156.5	-1.684497E-11	-5.936491E+10	17.87009	0.598832	0	0
0	0	0	-0.098587	6.021357	-23.455185	6.021357	9155	-2.615917E-11	-3.822751E+10	17.943977	0.598	0	0
0	0	0	-0.098056	6.021265	-23.454085	6.021265	9157.5	-6.472721E-11	-1.544945E+10	17.764762	0.597247	0	0
0	0	0	-0.098138	6.02143	-23.454841	6.02143	9157	-1.782246E-11	-5.610898E+10	17.987647	0.59491	0	0
0	0	0	-0.0963	6.021397	-23.452151	6.021397	9166.5	-2.086484E-11	-4.792752E+10	17.775322	0.595267	0	0
0	0	0	-0.096504	6.02149	-23.452795	6.02149	9165	-1.41474E-11	-7.068435E+10	17.88999	0.593049	0	0
0	0	0	-0.095157	6.021357	-23.450402	6.021357	9172	-2.620775E-11	-3.815665E+10	17.850533	0.592851	0	0
0	0	0	-0.095688	6.021192	-23.4505	6.021192	9169	4.104538E-10	2.436328E+9	17.77297	0.591306	0	0
0	0	0	-0.094912	6.021311	-23.449881	6.021311	9173	-3.733026E-11	-2.678792E+10	17.931597	0.58988	0	0
0	0	0	-0.094054	6.021225	-23.448351	6.021225	9177.5	-1.760718E-10	-5.6795E+9	17.711962	0.589721	0	0
0	0	0	-0.092625	6.021212	-23.446307	6.021212	9184.5	-4.111476E-10	-2.432216E+9	17.9146	0.587266	0	0
0	0	0	-0.09287	6.021298	-23.446982	6.021298	9183	-4.252557E-11	-2.351527E+10	17.736678	0.587543	0	0
0	0	0	-0.092829	6.021324	-23.447028	6.021324	9183.5	-3.333267E-11	-3.00006E+10	17.774335	0.585444	0	0
0	0	0	-0.093483	6.021265	-23.447708	6.021265	9180	-6.488624E-11	-1.541159E+10	17.805771	0.585246	0	0
0	0	0	-0.093442	6.021497	-23.44855	6.021497	9180.5	-1.385287E-11	-7.218719E+10	17.660735	0.584295	0	0
0	0	0	-0.093442	6.021437	-23.448319	6.021437	9180.5	-1.736487E-11	-5.758753E+10	17.87895	0.582156	0	0
0	0	0	-0.094054	6.021285	-23.448582	6.021285	9177.5	-4.930011E-11	-2.028393E+10	17.664125	0.582275	0	0
0	0	0	-0.09385	6.021357	-23.44858	6.021357	9178.5	-2.622632E-11	-3.812963E+10	17.804998	0.579898	0	0
0	0	0	-0.093728	6.021444	-23.448743	6.021444	9179	-1.688636E-11	-5.921939E+10	17.742796	0.57974	0	0
0	0	0	-0.094503	6.021291	-23.449234	6.021291	9175	-4.563582E-11	-2.191261E+10	17.66489	0.578433	0	0
0	0	0	-0.094626	6.021311	-23.449482	6.021311	9174.5	-3.733636E-11	-2.678354E+10	17.805414	0.577284	0	0
0	0	0	-0.096137	6.021311	-23.451589	6.021311	9167	-3.730584E-11	-2.680545E+10	17.60463	0.577047	0	0
0	0	0	-0.096504	6.021159	-23.45151	6.021159	9165	9.467878E-11	1.056203E+10	17.819509	0.574591	0	0
0	0	0	-0.097117	6.021192	-23.452493	6.021192	9162	4.101404E-10	2.438189E+9	17.630051	0.575066	0	0
0	0	0	-0.096423	6.021265	-23.451807	6.021265	9165.5	-6.478375E-11	-1.543597E+10	17.692353	0.573006	0	0
0	0	0	-0.097035	6.02141	-23.453227	6.02141	9162.5	-1.953156E-11	-5.119918E+10	17.713991	0.572492	0	0
0	0	0	-0.098587	6.021444	-23.455519	6.021444	9155	-1.684221E-11	-5.937464E+10	17.558139	0.571501	0	0
0	0	0	-0.098669	6.021364	-23.455324	6.021364	9154.5	-2.509008E-11	-3.985639E+10	17.762286	0.56964	0	0
0	0	0	-0.100139	6.021516	-23.457965	6.021516	9147	-1.29306E-11	-7.733594E+10	17.546671	0.56964	0	0
0	0	0	-0.100343	6.021338	-23.457556	6.021338	9146.5	-2.99595E-11	-3.337839E+10	17.712701	0.567382	0	0
0	0	0	-0.100874	6.021563	-23.45917	6.021563	9143.5	-1.126547E-11	-8.876679E+10	17.623082	0.567501	0	0
0	0	0	-0.101078	6.021371	-23.458709	6.021371	9142.5	-2.407456E-11	-4.153763E+10	17.560533	0.566075	0	0
0	0	0	-0.102997	6.021318	-23.46118	6.021318	9133	-3.504362E-11	-2.853587E+10	17.685981	0.565005	0	0
0	0	0	-0.101609	6.02143	-23.459681	6.02143	9140	-1.778937E-11	-5.621334E+10	17.470932	0.564728	0	0
0	0	0	-0.10214	6.021371	-23.46019	6.021371	9137	-2.406008E-11	-4.156263E+10	17.697187	0.562431	0	0
0	0	0	-0.103242	6.021437	-23.461984	6.021437	9132	-1.727313E-11	-5.789338E+10	17.51599	0.56255	0	0
0	0	0	-0.104304	6.02145	-23.463516	6.02145	9126.5	-1.634205E-11	-6.119183E+10	17.599604	0.56045	0	0
0	0	0	-0.105407	6.021457	-23.465079	6.021457	9121.5	-1.590886E-11	-6.285805E+10	17.605624	0.560173	0	0
0	0	0	-0.105693	6.021404	-23.465272	6.021404	9120	-2.007837E-11	-4.980483E+10	17.456352	0.559143	0	0
0	0	0	-0.104672	6.021364	-23.463694	6.021364	9125	-2.500923E-11	-3.998524E+10	17.64037	0.557519	0	0
0	0	0	-0.104182	6.021391	-23.463114	6.021391	9127	-2.150388E-11	-4.650325E+10	17.410139	0.557519	0	0
0	0	0	-0.104958	6.021291	-23.46381	6.021291	9123.5	-4.537966E-11	-2.20363E+10	17.605657	0.555024	0	0
0	0	0	-0.103528	6.021828	-23.463899	6.021828	9130.5	-6.487783E-12	-1.541359E+11	17.489083	0.555301	0	0
0	0	0	-0.103651	6.021404	-23.462425	6.021404	9130	-2.010039E-11	-4.975028E+10	17.483475	0.553677	0	0
0	0	0	-0.103038	6.021424	-23.461648	6.021424	9132.5	-1.830537E-11	-5.462879E+10	17.577115	0.552766	0	0
0	0	0	-0.103365	6.021563	-23.462643	6.021563	9131.5	-1.125069E-11	-8.888344E+10	17.386331	0.552172	0	0
0	0	0	-0.101119	6.021278	-23.458407	6.021278	9142.5	-5.338272E-11	-1.873265E+10	17.579436	0.55035	0	0
0	0	0	-0.101241	6.021251	-23.458475	6.021251	9142	-8.184902E-11	-1.221762E+10	17.371822	0.550509	0	0
0	0	0	-0.100384	6.021278	-23.457382	6.021278	9146	-5.340315E-11	-1.872549E+10	17.506262	0.548132	0	0
0	0	0	-0.100384	6.021371	-23.457741	6.021371	9146	-2.408377E-11	-4.152173E+10	17.450866	0.548053	0	0
0	0	0	-0.099608	6.021212	-23.456043	6.021212	9150	-4.096032E-10	-2.441387E+9	17.356948	0.546825	0	0
0	0	0	-0.097566	6.021391	-23.45389	6.021391	9160	-2.158163E-11	-4.633571E+10	17.517035	0.545399	0	0
0	0	0	-0.098832	6.021331	-23.455424	6.021331	9153.5	-3.151999E-11	-3.17259E+10	17.268013	0.545637	0	0
0	0	0	-0.09875	6.021318	-23.455258	6.021318	9154	-3.51242E-11	-2.84704E+10	17.479867	0.543022	0	0
0	0	0	-0.097362	6.02149	-23.453991	6.02149	9161	-1.414123E-11	-7.071521E+10	17.326547	0.543498	0	0
0	0	0	-0.096872	6.021119	-23.451868	6.021119	9163.5	4.922491E-11	2.031492E+10	17.388243	0.541121	0	0
0	0	0	-0.095443	6.021331	-23.450698	6.021331	9170.5	-3.157853E-11	-3.166708E+10	17.4353	0.540844	0	0
0	0	0	-0.095075	6.021165	-23.449543	6.021165	9172	1.119786E-10	8.930281E+9	17.270593	0.540012	0	0
0	0	0	-0.09581	6.021371	-23.451365	6.021371	9168.5	-2.414302E-11	-4.141983E+10	17.463629	0.538507	0	0
0	0	0	-0.0963	6.021073	-23.450891	6.021073	9166.5	3.156476E-11	3.16809E+10	17.227357	0.538586	0	0
0	0	0	-0.096178	6.021238	-23.451363	6.021238	9167	-1.119175E-10	-8.935151E+9	17.390841	0.536131	0	0
0	0	0	-0.095892	6.021503	-23.451992	6.021503	9168.5	-1.353071E-11	-7.390598E+10	17.307837	0.536131	0	0
0	0	0	-0.096014	6.021126	-23.450698	6.021126	9167.5	5.352869E-11	1.868157E+10	17.281431	0.534348	0	0
0	0	0	-0.09532	6.021477	-23.451092	6.021477	9171	-1.483891E-11	-6.739037E+10	17.379362	0.533675	0	0
0	0	0	-0.095565	6.02147	-23.451408	6.02147	9170	-1.520365E-11	-6.577368E+10	17.153516	0.533437	0	0
0	0	0	-0.096627	6.021152	-23.451655	6.021152	9164.5	8.205047E-11	1.218762E+10	17.367021	0.531457	0	0
0	0	0	-0.096178	6.021285	-23.451543	6.021285	9167	-4.924371E-11	-2.030716E+10	17.179604	0.531694	0	0
0	0	0	-0.096668	6.021218	-23.451969	6.021218	9164	-2.46138E-10	-4.062762E+9	17.281148	0.529278	0	0
0	0	0	-0.097689	6.021463	-23.454343	6.021463	9159	-1.556985E-11	-6.422668E+10	17.276614	0.529159	0	0
0	0	0	-0.098097	6.02151	-23.455093	6.02151	9157	-1.322312E-11	-7.562514E+10	17.157836	0.528129	0	0
0	0	0	-0.098955	6.021404	-23.455877	6.021404	9153	-2.015103E-11	-4.962526E+10	17.333894	0.526624	0	0
0	0	0	-0.098015	6.021311	-23.454208	6.021311	9157.5	-3.726718E-11	-2.683326E+10	17.092421	0.526862	0	0
0	0	0	-0.099567	6.021457	-23.456937	6.021457	9150	-1.595857E-11	-6.266227E+10	17.285097	0.524446	0	0
0	0	0	-0.101691	6.021357	-23.459512	6.021357	9139.5	-2.611488E-11	-3.829234E+10	17.134299	0.524723	0	0
0	0	0	-0.103365	6.021629	-23.4629	6.021629	9131.5	-9.506397E-12	-1.051923E+11	0	0	0	0
0	0	0	-0.103202	6.02155	-23.462364	6.02155	9132	-1.167993E-11	-8.561697E+10	0	0	0	0
0	0	0	-0.103651	6.021424	-23.462502	6.021424	9130	-1.830035E-11	-5.464375E+10	0	0	0	0
0	0	0	-0.103814	6.021457	-23.462858	6.021457	9129	-1.592194E-11	-6.280641E+10	0	0	0	0
0	0	0	-0.104835	6.021556	-23.464667	6.021556	9124	-1.145157E-11	-8.732427E+10	0	0	0	0
0	0	0	-0.10557	6.021523	-23.465564	6.021523	9120.5	-1.26273E-11	-7.91935E+10	0	0	0	0
0	0	0	-0.106142	6.021589	-23.466618	6.021589	9117.5	-1.046534E-11	-9.555349E+10	0	0	0	0
0	0	0	-0.106019	6.021543	-23.466267	6.021543	9118	-1.188847E-11	-8.411513E+10	0	0	0	0
0	0	0	-0.106591	6.021404	-23.466524	6.021404	9115.5	-2.006847E-11	-4.982942E+10	0	0	0	0
0	0	0	-0.108837	6.021576	-23.470324	6.021576	9104	-1.081975E-11	-9.242355E+10	0	0	0	0
0	0	0	-0.106591	6.021463	-23.466756	6.021463	9115.5	-1.54959E-11	-6.453318E+10	0	0	0	0
0	0	0	-0.10655	6.021404	-23.466467	6.021404	9115.5	-2.006847E-11	-4.982942E+10	0	0	0	0
0	0	0	-0.105733	6.021808	-23.466896	6.021808	9119.5	-6.692424E-12	-1.494227E+11	0	0	0	0
0	0	0	-0.106918	6.021218	-23.46626	6.021218	9113.5	-2.447816E-10	-4.085275E+9	0	0	0	0
0	0	0	-0.10704	6.021371	-23.467022	6.021371	9113	-2.399688E-11	-4.167209E+10	0	0	0	0
0	0	0	-0.105284	6.021437	-23.464831	6.021437	9122	-1.725422E-11	-5.795685E+10	0	0	0	0
0	0	0	-0.105284	6.021278	-23.464214	6.021278	9122	-5.326302E-11	-1.877475E+10	0	0	0	0
0	0	0	-0.105366	6.021364	-23.464662	6.021364	9121.5	-2.499964E-11	-4.000058E+10	0	0	0	0
0	0	0	-0.104753	6.021437	-23.464091	6.021437	9124.5	-1.725895E-11	-5.794097E+10	0	0	0	0
0	0	0	-0.103487	6.021589	-23.462917	6.021589	9130.5	-1.048026E-11	-9.541744E+10	0	0	0	0
0	0	0	-0.103242	6.021364	-23.461701	6.021364	9132	-2.502842E-11	-3.995459E+10	0	0	0	0
0	0	0	-0.102957	6.021179	-23.460583	6.021179	9133.5	1.752277E-10	5.706861E+9	0	0	0	0
0	0	0	-0.101446	6.021457	-23.459556	6.021457	9140.5	-1.5942E-11	-6.272739E+10	0	0	0	0
0	0	0	-0.100139	6.021437	-23.457657	6.021437	9147	-1.73015E-11	-5.779844E+10	0	0	0	0
0	0	0	-0.099567	6.021536	-23.457245	6.021536	9150	-1.216643E-11	-8.219336E+10	0	0	0	0
0	0	0	-0.09924	6.021218	-23.455556	6.021218	9151.5	-2.458022E-10	-4.068311E+9	0	0	0	0
0	0	0	-0.096831	6.02143	-23.453019	6.02143	9163.5	-1.783511E-11	-5.606918E+10	0	0	0	0
0	0	0	-0.098138	6.021397	-23.454713	6.021397	9157	-2.084322E-11	-4.797724E+10	0	0	0	0
0	0	0	-0.097811	6.021364	-23.454129	6.021364	9158.5	-2.510105E-11	-3.983898E+10	0	0	0	0
0	0	0	-0.097934	6.021285	-23.453991	6.021285	9158	-4.919536E-11	-2.032712E+10	0	0	0	0
0	0	0	-0.096749	6.02149	-23.453137	6.02149	9164	-1.414586E-11	-7.069206E+10	0	0	0	0
0	0	0	-0.09679	6.021397	-23.452834	6.021397	9163.5	-2.085801E-11	-4.794321E+10	0	0	0	0
0	0	0	-0.096423	6.021437	-23.452476	6.021437	9165.5	-1.73365E-11	-5.768178E+10	0	0	0	0
0	0	0	-0.097076	6.021291	-23.452821	6.021291	9162.5	-4.557364E-11	-2.194251E+10	0	0	0	0
0	0	0	-0.09679	6.021344	-23.452628	6.021344	9163.5	-2.861913E-11	-3.494166E+10	0	0	0	0
0	0	0	-0.096504	6.021145	-23.451459	6.021145	9165	7.240142E-11	1.381188E+10	0	0	0	0
0	0	0	-0.09728	6.021344	-23.453311	6.021344	9161.5	-2.861289E-11	-3.494929E+10	0	0	0	0
0	0	0	-0.097648	6.021377	-23.453952	6.021377	9159.5	-2.320916E-11	-4.308644E+10	0	0	0	0
0	0	0	-0.097035	6.021185	-23.452353	6.021185	9162.5	2.460977E-10	4.063427E+9	0	0	0	0
0	0	0	-0.096014	6.021371	-23.451649	6.021371	9167.5	-2.414039E-11	-4.142435E+10	0	0	0	0
0	0	0	-0.097852	6.021311	-23.45398	6.021311	9158.5	-3.727125E-11	-2.683033E+10	0	0	0	0
0	0	0	-0.09969	6.021589	-23.457622	6.021589	9149.5	-1.050207E-11	-9.52193E+10	0	0	0	0
0	0	0	-0.09969	6.021344	-23.456671	6.021344	9149.5	-2.857541E-11	-3.499513E+10	0	0	0	0
0	0	0	-0.102916	6.021364	-23.461246	6.021364	9133.5	-2.503253E-11	-3.994802E+10	0	0	0	0
0	0	0	-0.10214	6.021357	-23.460138	6.021357	9137	-2.610774E-11	-3.830282E+10	0	0	0	0
0	0	0	-0.103202	6.021331	-23.461516	6.021331	9132	-3.144596E-11	-3.180059E+10	0	0	0	0
0	0	0	-0.103569	6.021603	-23.463082	6.021603	9130	-1.013325E-11	-9.868498E+10	0	0	0	0
0	0	0	-0.103978	6.021503	-23.463266	6.021503	9128.5	-1.347167E-11	-7.422983E+10	0	0	0	0
0	0	0	-0.105284	6.021437	-23.464831	6.021437	9122	-1.725422E-11	-5.795685E+10	0	0	0	0
0	0	0	-0.10508	6.021483	-23.464726	6.021483	9122.5	-1.441314E-11	-6.938115E+10	0	0	0	0
0	0	0	-0.106469	6.021556	-23.466945	6.021556	9116	-1.144153E-11	-8.74009E+10	0	0	0	0
0	0	0	-0.106509	6.02147	-23.466667	6.02147	9115.5	-1.511329E-11	-6.616693E+10	0	0	0	0
0	0	0	-0.106224	6.021404	-23.466012	6.021404	9117	-2.007177E-11	-4.982122E+10	0	0	0	0
0	0	0	-0.107653	6.02151	-23.468416	6.02151	9110	-1.315525E-11	-7.60153E+10	0	0	0	0
0	0	0	-0.107081	6.021516	-23.467644	6.021516	9113	-1.288253E-11	-7.762448E+10	0	0	0	0
0	0	0	-0.107122	6.021271	-23.46675	6.021271	9112.5	-5.827493E-11	-1.716004E+10	0	0	0	0
0	0	0	-0.107734	6.021523	-23.468581	6.021523	9110	-1.261276E-11	-7.928478E+10	0	0	0	0
0	0	0	-0.108184	6.021377	-23.468642	6.021377	9107.5	-2.30774E-11	-4.333244E+10	0	0	0	0
0	0	0	-0.109041	6.021417	-23.469992	6.021417	9103.5	-1.880869E-11	-5.316691E+10	0	0	0	0
0	0	0	-0.109164	6.021483	-23.47042	6.021483	9102.5	-1.438154E-11	-6.95336E+10	0	0	0	0
0	0	0	-0.107244	6.021331	-23.467153	6.021331	9112	-3.137709E-11	-3.187039E+10	0	0	0	0
0	0	0	-0.106264	6.02141	-23.466095	6.02141	9117	-1.943457E-11	-5.14547E+10	0	0	0	0
0	0	0	-0.108143	6.021543	-23.469228	6.021543	9107.5	-1.187478E-11	-8.42121E+10	0	0	0	0
0	0	0	-0.106918	6.02149	-23.467314	6.02149	9113.5	-1.406791E-11	-7.108378E+10	0	0	0	0
0	0	0	-0.106305	6.02153	-23.466614	6.02153	9117	-1.236745E-11	-8.085739E+10	0	0	0	0
0	0	0	-0.104917	6.02155	-23.464755	6.02155	9123.5	-1.166906E-11	-8.569674E+10	0	0	0	0
0	0	0	-0.104835	6.021563	-23.464693	6.021563	9124	-1.124145E-11	-8.89565E+10	0	0	0	0
0	0	0	-0.102752	6.02147	-23.461429	6.02147	9134	-1.514396E-11	-6.603292E+10	0	0	0	0
0	0	0	-0.10361	6.021285	-23.461905	6.021285	9130	-4.904495E-11	-2.038946E+10	0	0	0	0
0	0	0	-0.100915	6.021391	-23.458559	6.021391	9143.5	-2.154275E-11	-4.641933E+10	0	0	0	0
0	0	0	-0.103324	6.021516	-23.462406	6.021516	9131.5	-1.290869E-11	-7.746722E+10	0	0	0	0
0	0	0	-0.100588	0	-0.100588	0	9145	0	0	0	0	0	0
0	0	0	-0.100751	0	-0.100751	0	9144	0	0	0	0	0	0
