Vload_(V)	ILoad_(A)	RsLoad (ohm)	SunsVoc_Voltage_(V)	SunsVoc_Current_(A)	Model_Voltage_(V)	Model_Current_(A)	Carrier_Density_(cm-3)	Lifetime_(s)	Inverse_Lifetime_(s-1)	Efficiency_(%)	Intensity_(suns)	Dark_IV_Voltage_(V)	Dark_IV_Current_(A)
2.99264	6.405718	0	65.821116	-0.891552	66.07216	-0.891552	4.636229E+15	0.000267	3713.795169	19.97068	1.106206	0	0
3.018968	6.408643	-0.492147	65.790775	-0.630572	65.969226	-0.630572	4.603701E+15	0.000275	3605.742272	19.997606	1.10581	0	0
7.234734	6.399527	5.497077	65.646254	-0.213472	65.70811	-0.213472	4.451543E+15	0.000282	3509.27467	19.964157	1.103539	0	0
12.060384	6.397151	5.136742	65.475394	0.205163	65.414306	0.205163	4.277434E+15	0.00029	3422.832284	19.90436	1.100582	0	0
16.633277	6.386509	5.089019	65.306494	0.607478	65.120818	0.607478	4.111286E+15	0.000298	3331.587536	19.898994	1.097453	0	0
21.462299	6.386569	4.330777	65.128079	1.002689	64.813238	1.002689	3.942001E+15	0.000306	3239.298343	19.907414	1.095921	0	0
26.811514	6.309007	4.347261	64.947989	1.368997	64.506598	1.368997	3.777388E+15	0.000315	3152.686161	19.904576	1.094971	0	0
31.720486	6.304561	3.591864	64.774597	1.699958	64.212711	1.699958	3.624636E+15	0.000323	3070.909956	19.888979	1.093241	0	0
36.592543	6.295485	2.861571	64.600062	2.002408	63.92186	2.002408	3.476369E+15	0.000331	2997.307739	19.917694	1.090376	0	0
41.404467	6.296534	2.092486	64.429569	2.282232	63.638393	2.282232	3.336679E+15	0.00034	2925.432581	19.926239	1.086798	0	0
45.971547	6.33479	1.166258	64.259566	2.544	63.357415	2.544	3.202283E+15	0.000348	2855.714594	19.901045	1.082982	0	0
47.37614	6.322779	1.016803	64.085929	2.790799	63.073593	2.790799	3.06989E+15	0.000356	2789.472105	19.869221	1.079127	0	0
48.777173	6.297728	0.916347	63.914905	3.023782	62.793868	3.023782	2.944147E+15	0.000365	2722.019264	19.873786	1.075417	0	0
50.191387	6.261703	0.823873	63.739675	3.24097	62.511555	3.24097	2.819947E+15	0.000374	2660.256624	19.909998	1.072077	0	0
51.588847	6.203112	0.758435	63.567631	3.44253	62.235429	3.44253	2.702418E+15	0.000383	2599.928812	19.884847	1.069238	0	0
53.01396	6.120361	0.691095	63.398241	3.629302	61.965007	3.629302	2.590832E+15	0.000392	2541.678195	19.876379	1.065224	0	0
54.410865	5.994957	0.63955	63.23224	3.800332	61.701958	3.800332	2.485327E+15	0.0004	2487.005423	19.898713	1.06026	0	0
55.807924	5.817303	0.586824	63.06922	3.957927	61.4453	3.957927	2.385307E+15	0.000409	2435.140492	19.909099	1.055098	0	0
57.165516	5.562002	0.544721	62.90371	4.104455	61.187895	4.104455	2.287282E+15	0.000417	2388.058325	19.872371	1.050226	0	0
58.537328	5.19077	0.510144	62.747346	4.239953	60.943879	4.239953	2.197838E+15	0.000426	2339.400934	19.847055	1.045459	0	0
59.850063	4.692387	0.48035	62.587308	4.366826	60.697187	4.366826	2.109376E+15	0.000434	2295.197327	19.870104	1.040654	0	0
61.11423	4.044372	0.454276	62.428821	4.486894	60.453469	4.486894	2.024755E+15	0.000443	2250.746739	19.892257	1.035808	0	0
62.349043	3.217514	0.429859	62.268129	4.599494	60.208635	4.599494	1.941895E+15	0.000451	2209.49111	19.867003	1.031266	0	0
63.480388	2.275701	0.415756	62.109111	4.703763	59.967943	4.703763	1.862725E+15	0.000459	2170.81836	19.851172	1.026157	0	0
64.469296	1.294381	0.422873	61.95087	4.802315	59.729296	4.802315	1.786649E+15	0.000468	2132.556664	19.87731	1.020242	0	0
54.243596	6.015037	0.642367	61.794098	4.894356	59.494056	4.894356	1.713863E+15	0.000476	2095.839271	19.888507	1.014723	0	0
65.584291	0	0	61.635693	4.979472	59.258758	4.979472	1.642855E+15	0.000484	2063.613105	19.860873	1.009481	0	0
0	0	0	61.481657	5.059264	59.030184	5.059264	1.576177E+15	0.000491	2030.863175	19.837838	1.004094	0	0
0	0	0	61.329827	5.134089	58.805636	5.134089	1.512677E+15	0.000499	1998.778094	19.87642	0.99843	0	0
0	0	0	61.17624	5.203881	58.580353	5.203881	1.450623E+15	0.000507	1970.137451	19.890418	0.992991	0	0
0	0	0	61.019918	5.268233	58.353409	5.268233	1.389653E+15	0.000513	1946.703663	19.863875	0.987485	0	0
0	0	0	60.871313	5.329115	58.136948	5.329115	1.333682E+15	0.00052	1920.043538	19.849965	0.981398	0	0
0	0	0	60.724343	5.38652	57.923494	5.38652	1.280178E+15	0.000527	1893.824337	19.874704	0.975404	0	0
0	0	0	60.575697	5.440618	57.708893	5.440618	1.227889E+15	0.000534	1869.852652	19.890128	0.969371	0	0
0	0	0	60.424602	5.492199	57.491804	5.492199	1.176564E+15	0.000541	1847.299251	19.839035	0.964116	0	0
0	0	0	60.280776	5.540886	57.284703	5.540886	1.129373E+15	0.000548	1822.069294	19.843448	0.958293	0	0
0	0	0	60.137562	5.586	57.079677	5.586	1.083951E+15	0.000555	1799.530199	19.870849	0.952669	0	0
0	0	0	59.994879	5.628178	56.876344	5.628178	1.040214E+15	0.000562	1778.840382	19.89282	0.947057	0	0
0	0	0	59.852767	5.667997	56.674494	5.667997	9.981151E+14	0.000568	1759.05146	19.843701	0.941882	0	0
0	0	0	59.710819	5.70536	56.473714	5.70536	9.574847E+14	0.000574	1740.938481	19.850693	0.935901	0	0
0	0	0	59.570709	5.740726	56.275916	5.740726	9.187349E+14	0.00058	1722.851072	19.88714	0.930144	0	0
0	0	0	59.431946	5.773823	56.080684	5.773823	8.816495E+14	0.000586	1706.065084	19.874327	0.92485	0	0
0	0	0	59.287466	5.805829	55.878392	5.805829	8.443661E+14	0.000591	1691.261681	19.843658	0.919661	0	0
0	0	0	59.151726	5.835061	55.68844	5.835061	8.105414E+14	0.000596	1676.06966	19.849244	0.914142	0	0
0	0	0	59.016352	5.863249	55.499211	5.863249	7.779392E+14	0.000602	1660.126436	19.894356	0.908597	0	0
0	0	0	58.881877	5.889154	55.312154	5.889154	7.466429E+14	0.000607	1647.18251	19.873842	0.903488	0	0
0	0	0	58.745483	5.914043	55.122945	5.914043	7.159805E+14	0.000611	1635.030432	19.835177	0.898035	0	0
0	0	0	58.617134	5.936916	54.944943	5.936916	6.880952E+14	0.000616	1622.20429	19.861784	0.892489	0	0
0	0	0	58.482006	5.95934	54.758279	5.95934	6.597257E+14	0.00062	1611.088388	19.903758	0.886839	0	0
0	0	0	58.353207	5.980107	54.580478	5.980107	6.336052E+14	0.000625	1599.512215	19.876932	0.881861	0	0
0	0	0	58.219671	6.000148	54.396823	6.000148	6.074476E+14	0.000629	1589.8807	19.838757	0.87687	0	0
0	0	0	58.088994	6.01877	54.217493	6.01877	5.827367E+14	0.000632	1581.249281	19.87259	0.871153	0	0
0	0	0	57.961992	6.036745	54.043069	6.036745	5.595396E+14	0.000637	1570.344401	19.897434	0.865978	0	0
0	0	0	57.832826	6.05336	53.866545	6.05336	5.367537E+14	0.000639	1563.332534	19.85625	0.861225	0	0
0	0	0	57.704844	6.06947	53.691675	6.06947	5.14958E+14	0.000643	1555.034703	19.840063	0.855891	0	0
0	0	0	57.575842	6.084542	53.515992	6.084542	4.93755E+14	0.000645	1549.145128	19.875851	0.850425	0	0
0	0	0	57.451658	6.098901	53.346802	6.098901	4.74052E+14	0.000649	1541.428295	19.887465	0.845553	0	0
0	0	0	57.32339	6.112822	53.172491	6.112822	4.544108E+14	0.000651	1535.119376	19.853233	0.840562	0	0
0	0	0	57.197491	6.125673	53.001793	6.125673	4.358152E+14	0.000653	1530.417776	19.829225	0.835651	0	0
0	0	0	57.072572	6.138137	52.832472	6.138137	4.180149E+14	0.000656	1524.598025	19.879188	0.830118	0	0
0	0	0	56.94655	6.150073	52.661954	6.150073	4.006965E+14	0.000658	1519.565546	19.875614	0.825497	0	0
0	0	0	56.820855	6.161606	52.491999	6.161606	3.840448E+14	0.00066	1513.950318	19.834688	0.820731	0	0
0	0	0	56.693526	6.171967	52.320634	6.171967	3.677922E+14	0.000661	1513.776049	19.843143	0.815569	0	0
0	0	0	56.576121	6.182139	52.162072	6.182139	3.533402E+14	0.000663	1507.135414	19.869332	0.81067	0	0
0	0	0	56.45157	6.19167	51.994645	6.19167	3.385529E+14	0.000664	1505.930767	19.864401	0.806234	0	0
0	0	0	56.32955	6.200995	51.830522	6.200995	3.245946E+14	0.000666	1502.272318	19.81997	0.801758	0	0
0	0	0	56.211491	6.209683	51.67187	6.209683	3.115732E+14	0.000667	1498.650245	19.845865	0.796715	0	0
0	0	0	56.087389	6.218227	51.505427	6.218227	2.983836E+14	0.000668	1496.706009	19.864548	0.791975	0	0
0	0	0	55.971617	6.225984	51.350226	6.225984	2.865269E+14	0.000669	1494.172327	19.845738	0.787565	0	0
0	0	0	55.85119	6.233454	51.189141	6.233454	2.746385E+14	0.000669	1494.06694	19.807287	0.783076	0	0
0	0	0	55.732151	6.240737	51.029909	6.240737	2.633204E+14	0.00067	1492.420664	19.833231	0.778138	0	0
0	0	0	55.620708	6.247473	50.880825	6.247473	2.531035E+14	0.000671	1489.278023	19.863929	0.773412	0	0
0	0	0	55.500199	6.25416	50.71999	6.25416	2.42456E+14	0.000672	1488.985197	19.8181	0.769253	0	0
0	0	0	55.386715	6.260338	50.568553	6.260338	2.327985E+14	0.000672	1487.550459	19.800475	0.764684	0	0
0	0	0	55.270249	6.266301	50.413362	6.266301	2.232486E+14	0.000672	1487.563996	19.84227	0.759786	0	0
0	0	0	55.152313	6.271813	50.256556	6.271813	2.1394E+14	0.000671	1490.924293	19.838123	0.755574	0	0
0	0	0	55.04038	6.277403	50.107395	6.277403	2.054317E+14	0.000672	1487.865042	19.787165	0.751653	0	0
0	0	0	54.919993	6.282624	49.947529	6.282624	1.966248E+14	0.000671	1491.261727	19.788517	0.747256	0	0
0	0	0	54.809449	6.287534	49.800588	6.287534	1.888422E+14	0.000671	1490.791349	19.827824	0.742754	0	0
0	0	0	54.691227	6.292337	49.643745	6.292337	1.808312E+14	0.00067	1493.566718	19.801819	0.738899	0	0
0	0	0	54.577293	6.296546	49.49288	6.296546	1.734064E+14	0.000667	1499.699855	19.759872	0.734846	0	0
0	0	0	54.462011	6.301328	49.33976	6.301328	1.661797E+14	0.000668	1496.38116	19.795616	0.730304	0	0
0	0	0	54.344483	6.305391	49.184267	6.305391	1.590985E+14	0.000666	1502.147698	19.830569	0.726092	0	0
0	0	0	54.234429	6.309532	49.038345	6.309532	1.527211E+14	0.000667	1500.289117	19.782411	0.722448	0	0
0	0	0	54.117268	6.313222	48.883549	6.313222	1.461926E+14	0.000663	1507.167684	19.754336	0.718117	0	0
0	0	0	54.006152	6.316967	48.736498	6.316967	1.402411E+14	0.000663	1507.523923	19.789684	0.713668	0	0
0	0	0	53.890666	6.320364	48.584037	6.320364	1.342949E+14	0.00066	1514.006262	19.80081	0.70972	0	0
0	0	0	53.777304	6.323754	48.434298	6.323754	1.286874E+14	0.000659	1517.235341	19.746686	0.705997	0	0
0	0	0	53.663451	6.326943	48.284058	6.326943	1.232766E+14	0.000657	1522.213462	19.743843	0.701759	0	0
0	0	0	53.55062	6.329887	48.135317	6.329887	1.181251E+14	0.000654	1529.223175	19.784765	0.697547	0	0
0	0	0	53.434848	6.333129	47.982478	6.333129	1.1305E+14	0.000654	1529.572296	19.779252	0.693679	0	0
0	0	0	53.326713	6.33557	47.840197	6.33557	1.084956E+14	0.000649	1540.181754	19.713803	0.690272	0	0
0	0	0	53.212289	6.338658	47.689174	6.338658	1.03865E+14	0.00065	1538.011755	19.724727	0.685849	0	0
0	0	0	53.096558	6.340856	47.537204	6.340856	9.937195E+13	0.000643	1554.874952	19.767414	0.682047	0	0
0	0	0	52.986748	6.343548	47.392453	6.343548	9.527945E+13	0.000643	1554.357571	19.724594	0.67868	0	0
0	0	0	52.868241	6.34597	47.236633	6.34597	9.104241E+13	0.00064	1563.321039	19.706119	0.674812	0	0
0	0	0	52.761861	6.348266	47.096629	6.348266	8.739211E+13	0.000639	1566.029342	19.73993	0.670666	0	0
0	0	0	52.641597	6.350504	46.938645	6.350504	8.34333E+13	0.000634	1576.439857	19.748116	0.667035	0	0
0	0	0	52.530236	6.352392	46.792501	6.352392	7.99206E+13	0.000629	1589.470049	19.687796	0.663602	0	0
0	0	0	52.417282	6.354393	46.644167	6.354393	7.650231E+13	0.000626	1598.160119	19.689106	0.659549	0	0
0	0	0	52.300734	6.356382	46.491162	6.356382	7.312223E+13	0.000622	1607.26374	19.729841	0.655601	0	0
0	0	0	52.18676	6.358405	46.341441	6.358405	6.995557E+13	0.000621	1611.122375	19.702839	0.652221	0	0
0	0	0	52.070416	6.360079	46.188949	6.360079	6.685919E+13	0.000615	1626.086889	19.653924	0.648564	0	0
0	0	0	51.957299	6.361793	46.040587	6.361793	6.397536E+13	0.000611	1635.566659	19.681584	0.644656	0	0
0	0	0	51.843732	6.363388	45.891735	6.363388	6.120085E+13	0.000607	1647.625506	19.711049	0.640906	0	0
0	0	0	51.723632	6.365	45.734371	6.365	5.839314E+13	0.000602	1661.081976	19.655315	0.637724	0	0
0	0	0	51.599693	6.366601	45.572019	6.366601	5.562636E+13	0.000597	1675.15649	19.630468	0.634014	0	0
0	0	0	51.482247	6.368224	45.418053	6.368224	5.312188E+13	0.000595	1681.351488	19.672897	0.630252	0	0
0	0	0	51.366965	6.36933	45.267374	6.36933	5.077003E+13	0.000586	1707.359253	19.684024	0.626911	0	0
0	0	0	51.250172	6.370748	45.114422	6.370748	4.84905E+13	0.000582	1717.963329	19.609236	0.62394	0	0
0	0	0	51.129582	6.371972	44.956712	6.371972	4.624129E+13	0.000575	1738.462256	19.62802	0.620138	0	0
0	0	0	51.008746	6.373183	44.798683	6.373183	4.408944E+13	0.000569	1757.883637	19.661539	0.616784	0	0
0	0	0	50.88689	6.37439	44.639318	6.37439	4.20183E+13	0.000563	1776.07178	19.637719	0.613603	0	0
0	0	0	50.768954	6.375535	44.485091	6.375535	4.010428E+13	0.000558	1792.844846	19.597279	0.610355	0	0
0	0	0	50.646118	6.376724	44.324445	6.376724	3.820127E+13	0.000553	1807.988084	19.628613	0.606645	0	0
0	0	0	50.517646	6.377871	44.15651	6.377871	3.63054E+13	0.000547	1827.130336	19.630246	0.603423	0	0
0	0	0	50.394156	6.378924	43.995126	6.378924	3.456997E+13	0.000542	1846.350037	19.561904	0.6004	0	0
0	0	0	50.261886	6.380083	43.822221	6.380083	3.280124E+13	0.000537	1861.683624	19.585289	0.596729	0	0
0	0	0	50.129657	6.380741	43.649865	6.380741	3.112182E+13	0.000523	1911.786828	19.616977	0.593244	0	0
0	0	0	49.993181	6.381787	43.471589	6.381787	2.947698E+13	0.000517	1933.968676	19.583415	0.59022	0	0
0	0	0	49.851193	6.382585	43.286396	6.382585	2.785634E+13	0.000506	1978.21764	19.530914	0.587144	0	0
0	0	0	49.712511	6.383424	43.105446	6.383424	2.635813E+13	0.000496	2014.869006	19.57019	0.583619	0	0
0	0	0	49.567787	6.384503	42.916385	6.384503	2.487918E+13	0.000492	2031.266359	19.588884	0.58045	0	0
0	0	0	49.42347	6.385077	42.728371	6.385077	2.348585E+13	0.000478	2093.638211	19.524493	0.577651	0	0
0	0	0	49.271599	6.385881	42.530293	6.385881	2.210263E+13	0.000468	2137.912111	19.508222	0.574244	0	0
0	0	0	49.118992	6.386678	42.331258	6.386678	2.079372E+13	0.000458	2181.1898	19.562175	0.570851	0	0
0	0	0	48.962997	6.387357	42.127936	6.387357	1.953485E+13	0.000447	2238.978253	19.536144	0.568026	0	0
0	0	0	48.8001	6.387994	41.915685	6.387994	1.830064E+13	0.000433	2307.07379	19.470134	0.565029	0	0
0	0	0	48.636876	6.38842	41.70323	6.38842	1.714134E+13	0.000416	2403.933718	19.500997	0.56157	0	0
0	0	0	48.467894	6.38975	41.482301	6.38975	1.601768E+13	0.000421	2374.735483	19.504243	0.558704	0	0
0	0	0	48.295237	6.389814	41.257971	6.389814	1.494493E+13	0.000394	2534.945964	19.468252	0.555839	0	0
0	0	0	48.115964	6.390575	41.024274	6.390575	1.390637E+13	0.000386	2593.891511	19.44614	0.552763	0	0
0	0	0	47.933302	6.391374	40.786119	6.391374	1.292178E+13	0.000378	2644.352729	19.495867	0.549357	0	0
0	0	0	47.744678	6.391747	40.540686	6.391747	1.197761E+13	0.00036	2778.623957	19.45928	0.546637	0	0
0	0	0	47.543272	6.392272	40.27847	6.392272	1.104496E+13	0.000345	2899.892978	19.405836	0.543798	0	0
0	0	0	47.336353	6.392818	40.009059	6.392818	1.016188E+13	0.000331	3023.964441	19.439172	0.540484	0	0
0	0	0	47.119919	6.393389	39.727248	6.393389	9.313203E+12	0.000317	3153.552114	19.454425	0.5375	0	0
0	0	0	46.890091	6.393986	39.427995	6.393986	8.48905E+12	0.000304	3292.251406	19.40384	0.534873	0	0
0	0	0	46.648665	6.394441	39.11383	6.394441	7.701353E+12	0.000287	3488.221525	19.372551	0.53185	0	0
0	0	0	46.397887	6.39495	38.787442	6.39495	6.960103E+12	0.000271	3685.470389	19.434593	0.528509	0	0
0	0	0	46.14176	6.395459	38.454092	6.395459	6.276341E+12	0.000257	3893.851426	19.394641	0.52604	0	0
0	0	0	45.868849	6.396	38.098885	6.396	5.621268E+12	0.000243	4118.0819	19.337118	0.523294	0	0
0	0	0	45.582421	6.396444	37.726224	6.396444	5.006922E+12	0.000227	4412.37368	19.373628	0.520112	0	0
0	0	0	45.283579	6.396665	37.337698	6.396665	4.437201E+12	0.000206	4859.841074	19.380831	0.517207	0	0
0	0	0	44.963094	6.397205	36.920647	6.397205	3.897877E+12	0.000192	5202.661101	19.32042	0.514778	0	0
0	0	0	44.627621	6.397406	36.484538	6.397406	3.403266E+12	0.000172	5817.948974	19.31629	0.511768	0	0
0	0	0	44.273282	6.397796	36.023668	6.397796	2.948701E+12	0.000156	6399.821673	19.365447	0.508625	0	0
0	0	0	43.907631	6.398307	35.547929	6.398307	2.543081E+12	0.000144	6941.634581	19.311341	0.506275	0	0
0	0	0	43.528178	6.398659	35.05445	6.398659	2.180958E+12	0.00013	7709.699063	19.267095	0.503582	0	0
0	0	0	43.132675	6.399038	34.54007	6.399038	1.858222E+12	0.000117	8562.774793	19.303786	0.500506	0	0
0	0	0	42.716836	6.39934	33.999358	6.39934	1.570209E+12	0.000103	9676.232713	19.33275	0.497601	0	0
0	0	0	42.281477	6.399546	33.433403	6.399546	1.316348E+12	8.953447E-5	11168.882904	19.244286	0.495528	0	0
0	0	0	41.822964	6.399911	32.83713	6.399911	1.093198E+12	7.903518E-5	12652.592657	19.240314	0.49261	0	0
0	0	0	41.351669	6.400208	32.224332	6.400208	9.031645E+11	6.881072E-5	14532.618368	19.281059	0.4896	0	0
0	0	0	40.866612	6.400592	31.593512	6.400592	7.419998E+11	6.076786E-5	16456.067669	19.238506	0.487474	0	0
0	0	0	40.354317	6.401009	30.927234	6.401009	6.028907E+11	5.374498E-5	18606.38734	19.190622	0.484847	0	0
0	0	0	39.824177	6.401168	30.238131	6.401168	4.863231E+11	4.487471E-5	22284.268607	19.237924	0.48181	0	0
0	0	0	39.269534	6.401368	29.517122	6.401368	3.884113E+11	3.748533E-5	26677.102327	19.212119	0.479407	0	0
0	0	0	38.69235	6.401551	28.766837	6.401551	3.073866E+11	3.096808E-5	32291.310286	19.151966	0.476991	0	0
0	0	0	38.08805	6.401921	27.981012	6.401921	2.406022E+11	2.66042E-5	37588.052471	19.182375	0.474152	0	0
0	0	0	37.463618	6.401971	27.169519	6.401971	1.867952E+11	2.093137E-5	47775.188361	19.210541	0.471459	0	0
0	0	0	36.828364	6.4024	26.343342	6.4024	1.443854E+11	1.826625E-5	54745.767299	19.151578	0.469241	0	0
0	0	0	36.178204	6.402508	25.498303	6.402508	1.109313E+11	1.450952E-5	68920.266146	19.105647	0.466746	0	0
0	0	0	35.50191	6.402686	24.619178	6.402686	8.432975E+10	1.167563E-5	85648.46013	19.171729	0.463722	0	0
0	0	0	34.815324	6.403221	23.726051	6.403221	6.384016E+10	1.073295E-5	93171.06704	19.12941	0.461596	0	0
0	0	0	34.12102	6.403127	22.823968	6.403127	4.817778E+10	7.807114E-6	128088.30205	19.077307	0.459101	0	0
0	0	0	33.419693	6.402927	21.912955	6.402927	3.625449E+10	5.452992E-6	183385.571373	19.11631	0.45617	0	0
0	0	0	32.70297	6.403282	20.980933	6.403282	2.711223E+10	4.673056E-6	213992.725331	19.09481	0.453899	0	0
0	0	0	31.980244	6.403284	20.041743	6.403284	2.022605E+10	3.489441E-6	286578.893793	19.043677	0.451721	0	0
0	0	0	31.259315	6.403603	19.104288	6.403603	1.509986E+10	2.997902E-6	333566.641946	19.040923	0.449146	0	0
0	0	0	30.527441	6.403605	18.153203	6.403605	1.122295E+10	2.229563E-6	448518.332145	19.086024	0.446413	0	0
0	0	0	29.785849	6.403993	17.188725	6.403993	8.308639E+9	2.0226E-6	494413.035407	19.012285	0.444485	0	0
0	0	0	29.03172	6.404191	16.20831	6.404191	6.119909E+9	1.683168E-6	594117.922449	18.984348	0.44195	0	0
0	0	0	28.25562	6.404044	15.200033	6.404044	4.467777E+9	1.120567E-6	892405.441041	19.033597	0.439376	0	0
0	0	0	27.47458	6.40408	14.184966	6.40408	3.255126E+9	8.342145E-7	1198732.501544	19.016125	0.437052	0	0
0	0	0	26.682064	6.404383	13.154419	6.404383	2.360606E+9	7.425011E-7	1346799.401386	18.948465	0.4349	0	0
0	0	0	25.889385	6.404461	12.124122	6.404461	1.71179E+9	5.717414E-7	1749042.490246	18.971781	0.432325	0	0
0	0	0	25.112959	6.404454	11.115126	6.404454	1.249508E+9	4.150685E-7	2409241.139311	18.98413	0.430094	0	0
0	0	0	24.352949	6.404518	10.127308	6.404518	9.181598E+8	3.211509E-7	3113801.49834	18.91519	0.428153	0	0
0	0	0	23.60568	6.404736	9.155693	6.404736	6.781735E+8	2.900302E-7	3447916.80833	18.930953	0.425394	0	0
0	0	0	22.86319	6.404482	8.191354	6.404482	5.018855E+8	1.705614E-7	5862992.893759	18.954651	0.422991	0	0
0	0	0	22.158105	6.404821	7.274268	6.404821	3.770985E+8	1.764981E-7	5665783.010521	18.878148	0.421235	0	0
0	0	0	21.468171	6.404771	6.377763	6.404771	2.850839E+8	1.264785E-7	7906479.307549	18.850374	0.418819	0	0
0	0	0	20.800942	6.404828	5.510515	6.404828	2.175146E+8	1.026185E-7	9744827.528786	18.903312	0.416284	0	0
0	0	0	20.153314	6.404786	4.668977	6.404786	1.672844E+8	7.534181E-8	1.327284E+7	18.865992	0.414462	0	0
0	0	0	19.519571	6.404814	3.845312	6.404814	1.293801E+8	6.008863E-8	1.664208E+7	18.825775	0.412164	0	0
0	0	0	18.901714	6.404793	3.042412	6.404793	1.007109E+8	4.570493E-8	2.187948E+7	18.824344	0.410012	0	0
0	0	0	18.300885	6.405011	2.261043	6.405011	7.893755E+7	4.690246E-8	2.132084E+7	18.841579	0.407623	0	0
0	0	0	17.721986	6.404969	1.508821	6.404969	6.242409E+7	3.499619E-8	2.857454E+7	18.771329	0.405735	0	0
0	0	0	17.159502	6.405173	0.777305	6.405173	4.969485E+7	3.831996E-8	2.609606E+7	18.781692	0.403239	0	0
0	0	0	16.60731	6.405258	0.059462	6.405258	3.97267E+7	3.626814E-8	2.757241E+7	18.823015	0.400968	0	0
0	0	0	16.074883	6.405089	-0.632037	6.405089	3.201355E+7	2.136657E-8	4.680208E+7	18.718783	0.399357	0	0
0	0	0	15.559892	6.404934	-1.300904	6.404934	2.598097E+7	1.391095E-8	7.18858E+7	18.717481	0.397007	0	0
0	0	0	15.057235	6.405018	-1.954373	6.405018	2.119086E+7	1.271817E-8	7.862768E+7	18.768238	0.394578	0	0
0	0	0	14.563235	6.405145	-2.596708	6.405145	1.734467E+7	1.271625E-8	7.863956E+7	18.71115	0.392782	0	0
0	0	0	14.082057	6.405209	-3.222213	6.405209	1.427057E+7	1.176594E-8	8.499107E+7	18.663031	0.39071	0	0
0	0	0	13.60676	6.405307	-3.840175	6.405307	1.176933E+7	1.203632E-8	8.308187E+7	18.712554	0.388135	0	0
0	0	0	13.147553	6.405364	-4.437115	6.405364	9770023.75	1.158269E-8	8.633574E+7	18.668	0.386379	0	0
0	0	0	12.704598	6.405293	-5.012584	6.405293	8163964.625	8.071984E-9	1.238853E+8	18.617949	0.384266	0	0
0	0	0	12.270995	6.405314	-5.576152	6.405314	6847834	7.125543E-9	1.403402E+8	18.65378	0.382048	0	0
0	0	0	11.848827	6.40554	-6.125435	6.40554	5770569.125	1.361735E-8	7.343575E+7	18.659146	0.380108	0	0
0	0	0	11.435969	6.40542	-6.66165	6.40542	4881164.875	6.882783E-9	1.452901E+8	18.575919	0.378325	0	0
0	0	0	11.034668	6.405462	-7.183303	6.405462	4148233.625	6.817726E-9	1.466765E+8	18.597591	0.375896	0	0
0	0	0	10.64329	6.405526	-7.692121	6.405526	3539567.625	7.739404E-9	1.292089E+8	18.642728	0.373691	0	0
0	0	0	10.257302	6.405476	-8.193611	6.405476	3026818.25	5.265231E-9	1.899252E+8	18.53561	0.372199	0	0
0	0	0	9.87887	6.405646	-8.685915	6.405646	2596287.125	1.510136E-8	6.621922E+7	18.542789	0.369928	0	0
0	0	0	9.509094	6.405646	-9.16648	6.405646	2234824.625	1.299891E-8	7.69295E+7	18.5698	0.367842	0	0
0	0	0	9.150467	6.405596	-9.632412	6.405596	1932400.625	6.676127E-9	1.497874E+8	18.491031	0.366324	0	0
0	0	0	8.799273	6.40573	-10.089224	6.40573	1675944.125	-5.671814E-8	-1.763104E+7	18.46467	0.364224	0	0
0	0	0	8.456204	6.405455	-10.534266	6.405455	1458319.875	2.33243E-9	4.287375E+8	18.525817	0.361848	0	0
0	0	0	8.118527	6.405765	-10.974038	6.405765	1271730.875	-1.120511E-8	-8.9245E+7	18.466917	0.360395	0	0
0	0	0	7.785913	6.405744	-11.406247	6.405744	1111294.625	-1.760394E-8	-5.680546E+7	18.417032	0.358573	0	0
0	0	0	7.459016	6.40585	-11.831406	6.40585	973351.875	-3.090319E-9	-3.235912E+8	18.478968	0.356131	0	0
0	0	0	7.138367	6.405624	-12.247447	6.405624	854694.125	3.844926E-9	2.60083E+8	18.391835	0.354705	0	0
0	0	0	6.823966	6.405631	-12.656068	6.405631	752405	3.661302E-9	2.731269E+8	18.355219	0.35287	0	0
0	0	0	6.51373	6.405829	-13.059857	6.405829	663477.25	-2.507471E-9	-3.988081E+8	18.376827	0.350876	0	0
0	0	0	6.211336	6.405695	-13.452445	6.405695	586922.75	1.078947E-8	9.268295E+7	18.383058	0.34912	0	0
0	0	0	5.908451	6.405829	-13.846492	6.405829	519098.25	-1.961821E-9	-5.097304E+8	18.307366	0.347417	0	0
0	0	0	5.60626	6.405681	-14.238768	6.405681	459240.75	5.220044E-9	1.915693E+8	18.330512	0.345278	0	0
0	0	0	5.304396	6.405646	-14.630965	6.405646	406339.375	2.363493E-9	4.231025E+8	18.346398	0.343496	0	0
0	0	0	4.998203	6.405808	-15.029405	6.405808	358901.375	-1.675292E-9	-5.969109E+8	18.247999	0.341938	0	0
0	0	0	4.674491	6.40573	-15.449864	6.40573	314757.875	-1.065201E-8	-9.387901E+7	18.277525	0.339904	0	0
0	0	0	4.363398	6.405765	-15.854277	6.405765	277459.75	-2.444666E-9	-4.090538E+8	18.284986	0.338201	0	0
0	0	0	4.035603	6.405801	-16.280398	6.405801	242930.75	-1.230385E-9	-8.127534E+8	18.194941	0.336815	0	0
0	0	0	3.691432	6.405794	-16.727667	6.405794	211291.25	-1.169594E-9	-8.549973E+8	18.204147	0.334676	0	0
0	0	0	3.318063	6.40592	-17.213312	6.40592	181609.875	-3.761113E-10	-2.658787E+9	18.237043	0.332735	0	0
0	0	0	2.933097	6.405836	-17.713352	6.405836	155365.875	-5.521378E-10	-1.811142E+9	18.147197	0.331441	0	0
0	0	0	2.58913	6.405927	-18.160676	6.405927	135142.125	-2.704728E-10	-3.697229E+9	18.15171	0.329408	0	0
0	0	0	2.294617	6.405808	-18.543044	6.405808	119931.5	-5.598201E-10	-1.786288E+9	18.189909	0.327692	0	0
0	0	0	2.039061	6.406068	-18.876021	6.406068	108127.375	-1.294259E-10	-7.72643E+9	18.09529	0.326252	0	0
0	0	0	1.807232	6.405942	-19.176898	6.405942	98427.25	-1.845868E-10	-5.417505E+9	18.076065	0.324417	0	0
0	0	0	1.59284	6.405794	-19.455042	6.405794	90233.125	-4.994817E-10	-2.002075E+9	18.14709	0.322384	0	0
0	0	0	1.392414	6.405864	-19.715752	6.405864	83190.75	-2.386786E-10	-4.189734E+9	18.061381	0.321183	0	0
0	0	0	1.207261	6.405801	-19.956172	6.405801	77174.5	-3.9087E-10	-2.558395E+9	18.043386	0.319427	0	0
0	0	0	1.032358	6.405808	-20.183503	6.405808	71891.5	-3.355774E-10	-2.979939E+9	18.087705	0.317393	0	0
0	0	0	0.870522	6.405857	-20.393992	6.405857	67325.875	-2.029368E-10	-4.927642E+9	17.989826	0.316271	0	0
0	0	0	0.726042	6.406054	-20.582417	6.406054	63495.375	-7.918512E-11	-1.262864E+10	17.921159	0.314489	0	0
0	0	0	0.590506	6.405991	-20.758354	6.405991	60100.375	-9.235475E-11	-1.082781E+10	17.989334	0.312614	0	0
0	0	0	0.474122	6.405927	-20.909399	6.405927	57330.25	-1.147405E-10	-8.715319E+9	17.938722	0.311386	0	0
0	0	0	0.380687	6.405878	-21.030663	6.405878	55199.125	-1.444527E-10	-6.92268E+9	17.913481	0.309775	0	0
0	0	0	0.308202	6.405681	-21.124206	6.405681	53600.625	6.092624E-10	1.641329E+9	18.024429	0.307808	0	0
0	0	0	0.252706	6.405927	-21.197157	6.405927	52408	-1.048891E-10	-9.533877E+9	17.899709	0.306897	0	0
0	0	0	0.20166	6.405843	-21.263214	6.405843	51334.5	-1.7216E-10	-5.808551E+9	17.854314	0.305048	0	0
0	0	0	0.177035	6.405794	-21.295051	6.405794	50824.625	-2.813376E-10	-3.554449E+9	17.884092	0.303174	0	0
0	0	0	0.143754	6.405864	-21.338541	6.405864	50143.375	-1.43864E-10	-6.951011E+9	17.822673	0.302144	0	0
0	0	0	0.114841	6.405772	-21.375809	6.405772	49559	-3.803878E-10	-2.628896E+9	17.783924	0.300441	0	0
0	0	0	0.103529	6.405977	-21.391196	6.405977	49332.25	-7.99321E-11	-1.251062E+10	17.828074	0.298671	0	0
0	0	0	0.082989	6.40573	-21.417063	6.40573	48923.125	-1.655645E-9	-6.039941E+8	17.77751	0.297364	0	0
0	0	0	0.05865	6.405751	-21.448765	6.405751	48442.75	-6.061605E-10	-1.649728E+9	17.703156	0.296018	0	0
0	0	0	0.042928	6.405765	-21.469245	6.405765	48134.875	-4.241104E-10	-2.357876E+9	17.779629	0.29405	0	0
0	0	0	0.037293	6.405963	-21.477232	6.405963	48025.125	-8.229142E-11	-1.215194E+10	17.712514	0.293021	0	0
0	0	0	0.031616	6.405934	-21.484514	6.405934	47914.625	-9.277855E-11	-1.077835E+10	17.660143	0.291436	0	0
0	0	0	0.022755	6.405794	-21.495557	6.405794	47742.875	-2.642787E-10	-3.783885E+9	17.71961	0.289693	0	0
0	0	0	0.011688	6.405772	-21.509869	6.405772	47529.125	-3.648076E-10	-2.741171E+9	17.636185	0.288558	0	0
0	0	0	0.000499	6.40609	-21.525476	6.40609	47314	-5.341346E-11	-1.872187E+10	17.59491	0.287026	0	0
0	0	0	-0.013141	6.405892	-21.542539	6.405892	47053.125	-1.131888E-10	-8.834793E+9	17.660582	0.285402	0	0
0	0	0	-0.022247	6.406054	-21.554919	6.406054	46879.625	-5.846361E-11	-1.710466E+10	17.597931	0.284122	0	0
0	0	0	-0.02825	6.405801	-21.561868	6.405801	46765.75	-2.368571E-10	-4.221955E+9	17.537215	0.282841	0	0
0	0	0	-0.031803	6.406146	-21.567646	6.406146	46698.375	-4.577726E-11	-2.184491E+10	17.596456	0.280913	0	0
0	0	0	-0.03458	6.406181	-21.571374	6.406181	46645.875	-4.224908E-11	-2.366916E+10	17.504831	0.280016	0	0
0	0	0	-0.037357	6.406047	-21.574533	6.406047	46593.375	-5.934928E-11	-1.68494E+10	17.493207	0.278418	0	0
0	0	0	-0.038541	6.40585	-21.575408	6.40585	46571	-1.478593E-10	-6.763188E+9	17.532844	0.276741	0	0
0	0	0	-0.04189	6.405822	-21.579665	6.405822	46507.875	-1.876748E-10	-5.328366E+9	17.461069	0.275698	0	0
0	0	0	-0.043605	6.405702	-21.581492	6.405702	46475.5	1.235782E-9	8.092042E+8	17.431197	0.274114	0	0
0	0	0	-0.046259	6.406118	-21.586339	6.406118	46425.5	-4.871694E-11	-2.052674E+10	17.473343	0.272556	0	0
0	0	0	-0.050057	6.405949	-21.590706	6.405949	46354.125	-8.427724E-11	-1.18656E+10	17.376698	0.271552	0	0
0	0	0	-0.054467	6.406188	-21.597244	6.406188	46271.25	-4.1282E-11	-2.422363E+10	17.338565	0.270087	0	0
0	0	0	-0.055692	6.405984	-21.598149	6.405984	46248.25	-7.295064E-11	-1.37079E+10	17.415684	0.268397	0	0
0	0	0	-0.059531	6.406181	-21.603801	6.406181	46176.375	-4.182383E-11	-2.390981E+10	17.284138	0.267592	0	0
0	0	0	-0.062839	6.406054	-21.607674	6.406054	46114.5	-5.750942E-11	-1.738846E+10	17.336736	0.26573	0	0
0	0	0	-0.066759	6.405779	-21.611844	6.405779	46041.25	-3.130465E-10	-3.194414E+9	17.343478	0.264423	0	0
0	0	0	-0.069209	6.406111	-21.616143	6.406111	45995.5	-4.913131E-11	-2.035362E+10	17.244694	0.263472	0	0
0	0	0	-0.073456	6.405794	-21.620595	6.405794	45916.375	-2.541681E-10	-3.934403E+9	17.252893	0.261993	0	0
0	0	0	-0.075539	6.405963	-21.623871	6.405963	45877.625	-7.861166E-11	-1.272076E+10	17.257875	0.260607	0	0
0	0	0	-0.07803	6.405998	-21.627227	6.405998	45831.375	-6.86566E-11	-1.456524E+10	17.166414	0.259551	0	0
0	0	0	-0.083339	6.40597	-21.634031	6.40597	45732.75	-7.617204E-11	-1.312818E+10	17.208556	0.257901	0	0
0	0	0	-0.083298	6.405998	-21.634073	6.405998	45733.5	-6.850998E-11	-1.459641E+10	17.204837	0.256792	0	0
0	0	0	-0.085993	6.405829	-21.637007	6.405829	45683.625	-1.726514E-10	-5.792017E+9	17.08609	0.255788	0	0
0	0	0	-0.089832	6.405836	-21.642019	6.405836	45612.625	-1.620977E-10	-6.169119E+9	17.162359	0.253913	0	0
0	0	0	-0.090444	6.405885	-21.642982	6.405885	45601.25	-1.143131E-10	-8.747902E+9	17.112693	0.252989	0	0
0	0	0	-0.09314	6.406033	-21.646982	6.406033	45551.375	-6.06146E-11	-1.649768E+10	17.039775	0.251695	0	0
0	0	0	-0.092894	6.406146	-21.647043	6.406146	45555.875	-4.46573E-11	-2.239276E+10	17.101368	0.250177	0	0
0	0	0	-0.095386	6.40573	-21.648882	6.40573	45510	-1.540139E-9	-6.49292E+8	17.028549	0.249385	0	0
0	0	0	-0.095957	6.405892	-21.65017	6.405892	45499.375	-1.094512E-10	-9.136491E+9	16.974387	0.248012	0	0
0	0	0	-0.098897	6.405815	-21.65373	6.405815	45445.25	-1.967143E-10	-5.083515E+9	17.055515	0.246401	0	0
0	0	0	-0.098979	6.406005	-21.654477	6.406005	45443.75	-6.640577E-11	-1.505893E+10	16.933271	0.245661	0	0
0	0	0	-0.100858	6.405744	-21.656041	6.405744	45409.125	-7.193183E-10	-1.390205E+9	16.90133	0.244328	0	0
0	0	0	-0.101307	6.405843	-21.656956	6.405843	45400.875	-1.522604E-10	-6.567694E+9	16.949489	0.242823	0	0
0	0	0	-0.10388	6.405758	-21.660015	6.405758	45353.5	-4.689798E-10	-2.132288E+9	16.841767	0.24211	0	0
0	0	0	-0.104737	6.40604	-21.662079	6.40604	45337.75	-5.901192E-11	-1.694573E+10	16.902995	0.240341	0	0
0	0	0	-0.106207	6.405864	-21.663396	6.405864	45310.75	-1.299989E-10	-7.692372E+9	16.866575	0.239324	0	0
0	0	0	-0.106207	6.405934	-21.663633	6.405934	45310.75	-8.773658E-11	-1.139775E+10	16.768847	0.238532	0	0
0	0	0	-0.107718	6.405984	-21.665763	6.405984	45283	-7.142808E-11	-1.40001E+10	16.820189	0.236868	0	0
0	0	0	-0.107391	6.405977	-21.665315	6.405977	45289	-7.33809E-11	-1.362752E+10	16.773472	0.235944	0	0
0	0	0	-0.108535	6.405949	-21.666706	6.405949	45268	-8.230254E-11	-1.215029E+10	16.672383	0.234941	0	0
0	0	0	-0.109188	6.406068	-21.667958	6.406068	45256	-5.417034E-11	-1.846029E+10	16.743712	0.233277	0	0
0	0	0	-0.109842	6.406005	-21.668594	6.406005	45244	-6.611388E-11	-1.512542E+10	16.705661	0.232498	0	0
0	0	0	-0.110618	6.40592	-21.669318	6.40592	45229.75	-9.367013E-11	-1.067576E+10	16.624085	0.231376	0	0
0	0	0	-0.111067	6.406068	-21.6704	6.406068	45221.5	-5.412905E-11	-1.847437E+10	16.720017	0.229712	0	0
0	0	0	-0.111148	6.405998	-21.670269	6.405998	45220	-6.774075E-11	-1.476216E+10	16.578687	0.22929	0	0
0	0	0	-0.111802	6.406019	-21.671189	6.406019	45208	-6.297141E-11	-1.588022E+10	16.623229	0.227639	0	0
0	0	0	-0.112986	6.405927	-21.67242	6.405927	45186.375	-9.04358E-11	-1.105757E+10	16.609897	0.226609	0	0
0	0	0	-0.113109	6.405871	-21.672389	6.405871	45184.125	-1.236781E-10	-8.085506E+9	16.493773	0.225817	0	0
0	0	0	-0.113109	6.405949	-21.67265	6.405949	45184.125	-8.215004E-11	-1.217285E+10	16.571993	0.224299	0	0
0	0	0	-0.113068	6.405829	-21.672194	6.405829	45184.875	-1.707665E-10	-5.85595E+9	16.532853	0.223467	0	0
0	0	0	-0.113966	6.405765	-21.673148	6.405765	45168.375	-3.97973E-10	-2.512733E+9	16.441216	0.222437	0	0
0	0	0	-0.113109	6.405963	-21.672698	6.405963	45184.125	-7.742334E-11	-1.2916E+10	16.506778	0.220919	0	0
0	0	0	-0.113803	6.405963	-21.6736	6.405963	45171.375	-7.740149E-11	-1.291965E+10	16.397617	0.220193	0	0
0	0	0	-0.115722	6.406047	-21.676379	6.406047	45136.25	-5.749324E-11	-1.739335E+10	16.340309	0.219123	0	0
0	0	0	-0.115028	6.406111	-21.67569	6.406111	45149	-4.82271E-11	-2.073523E+10	16.416321	0.217829	0	0
0	0	0	-0.114538	6.406082	-21.674958	6.406082	45158	-5.196444E-11	-1.924393E+10	16.282481	0.217156	0	0
0	0	0	-0.115559	6.405977	-21.675929	6.405977	45139.25	-7.313826E-11	-1.367273E+10	16.346804	0.215598	0	0
0	0	0	-0.114456	6.405829	-21.673998	6.405829	45159.375	-1.706701E-10	-5.859256E+9	16.324192	0.214806	0	0
0	0	0	-0.114865	6.406033	-21.675217	6.406033	45152	-6.008315E-11	-1.66436E+10	16.216996	0.213855	0	0
0	0	0	-0.113925	6.405836	-21.673332	6.405836	45169.125	-1.605216E-10	-6.229691E+9	16.25487	0.212482	0	0
0	0	0	-0.114538	6.406104	-21.67503	6.406104	45158	-4.911759E-11	-2.03593E+10	16.200963	0.211624	0	0
0	0	0	-0.115069	6.405822	-21.674771	6.405822	45148.25	-1.821882E-10	-5.488828E+9	16.145409	0.210528	0	0
0	0	0	-0.115314	6.405808	-21.675042	6.405808	45143.75	-2.107234E-10	-4.745558E+9	16.205301	0.20934	0	0
0	0	0	-0.115395	6.405984	-21.675741	6.405984	45142.25	-7.120607E-11	-1.404375E+10	16.101055	0.208719	0	0
0	0	0	-0.114538	6.405801	-21.67401	6.405801	45158	-2.287142E-10	-4.372268E+9	16.132758	0.207412	0	0
0	0	0	-0.114905	6.406181	-21.675768	6.406181	45151.25	-4.089534E-11	-2.445267E+10	16.13506	0.206514	0	0
0	0	0	-0.113844	6.405991	-21.673748	6.405991	45170.625	-6.941257E-11	-1.440661E+10	15.999178	0.205643	0	0
0	0	0	-0.114497	6.406054	-21.67481	6.406054	45158.75	-5.63175E-11	-1.775647E+10	16.109215	0.204125	0	0
0	0	0	-0.11466	6.405857	-21.674359	6.405857	45155.625	-1.361102E-10	-7.346987E+9	15.957842	0.203636	0	0
0	0	0	-0.114252	6.405808	-21.673662	6.405808	45163.125	-2.108138E-10	-4.743522E+9	15.946129	0.202422	0	0
0	0	0	-0.11368	6.40585	-21.673061	6.40585	45173.625	-1.434227E-10	-6.972397E+9	15.961587	0.201445	0	0
0	0	0	-0.11417	6.406139	-21.67467	6.406139	45164.75	-4.501475E-11	-2.221494E+10	15.864934	0.200718	0	0
0	0	0	-0.114456	6.406012	-21.674615	6.406012	45159.375	-6.440999E-11	-1.552554E+10	15.945216	0.199477	0	0
0	0	0	-0.115069	6.405899	-21.675032	6.405899	45148.25	-1.043905E-10	-9.579418E+9	15.873559	0.198646	0	0
0	0	0	-0.11417	6.405857	-21.673722	6.405857	45164.75	-1.361377E-10	-7.345503E+9	15.826582	0.197748	0	0
0	0	0	-0.115232	6.405716	-21.674627	6.405716	45145.25	1.120383E-8	8.925517E+7	15.859477	0.196467	0	0
0	0	0	-0.116457	6.405589	-21.675792	6.405589	45122.875	1.473458E-10	6.786757E+9	15.749142	0.195873	0	0
0	0	0	-0.115763	6.405942	-21.676076	6.405942	45135.5	-8.464544E-11	-1.181399E+10	15.779504	0.194658	0	0
0	0	0	-0.116131	6.405956	-21.676601	6.405956	45128.75	-7.961899E-11	-1.255982E+10	15.742615	0.193866	0	0
0	0	0	-0.116866	6.405878	-21.677296	6.405878	45115.375	-1.180642E-10	-8.46997E+9	15.632048	0.193206	0	0
0	0	0	-0.11756	6.405934	-21.678388	6.405934	45102.625	-8.733359E-11	-1.145035E+10	15.720542	0.19182	0	0
0	0	0	-0.117192	6.405998	-21.678123	6.405998	45109.375	-6.757503E-11	-1.479837E+10	15.611804	0.191331	0	0
0	0	0	-0.118662	6.40597	-21.679939	6.40597	45082.5	-7.508899E-11	-1.331753E+10	15.618847	0.190037	0	0
0	0	0	-0.12001	6.405906	-21.681477	6.405906	45057.875	-1.002883E-10	-9.97125E+9	15.636631	0.189192	0	0
0	0	0	-0.120418	6.406082	-21.682601	6.406082	45050.375	-5.184059E-11	-1.92899E+10	15.497045	0.188545	0	0
0	0	0	-0.121031	6.405843	-21.68259	6.405843	45039.25	-1.510477E-10	-6.620427E+9	15.551876	0.187278	0	0
0	0	0	-0.120949	6.406026	-21.683101	6.406026	45040.75	-6.130475E-11	-1.631195E+10	15.435379	0.186895	0	0
0	0	0	-0.121439	6.406139	-21.684117	6.406139	45031.75	-4.488219E-11	-2.228055E+10	15.44289	0.185641	0	0
0	0	0	-0.122501	6.406252	-21.685877	6.406252	45012.375	-3.538814E-11	-2.825805E+10	15.445206	0.184967	0	0
0	0	0	-0.124094	6.405949	-21.686927	6.405949	44983.375	-8.178505E-11	-1.222717E+10	15.360936	0.184162	0	0
0	0	0	-0.125727	6.405786	-21.688504	6.405786	44953.5	-2.743339E-10	-3.645193E+9	15.422572	0.182934	0	0
0	0	0	-0.124339	6.406209	-21.688123	6.406209	44978.875	-3.840324E-11	-2.603947E+10	15.37901	0.182379	0	0
0	0	0	-0.126544	6.406075	-21.690538	6.406075	44938.625	-5.273075E-11	-1.896427E+10	15.300299	0.181442	0	0
0	0	0	-0.125727	6.405934	-21.689002	6.405934	44953.5	-8.704483E-11	-1.148833E+10	15.333272	0.180412	0	0
0	0	0	-0.124625	6.406174	-21.688376	6.406174	44973.625	-4.136346E-11	-2.417593E+10	15.191348	0.179976	0	0
0	0	0	-0.125686	6.405913	-21.688878	6.405913	44954.25	-9.64533E-11	-1.036771E+10	15.221335	0.178722	0	0
0	0	0	-0.127156	6.40616	-21.691619	6.40616	44927.5	-4.263783E-11	-2.345335E+10	15.175925	0.178102	0	0
0	0	0	-0.127646	6.405843	-21.691188	6.405843	44918.625	-1.506431E-10	-6.638206E+9	15.108947	0.17723	0	0
0	0	0	-0.127728	6.405751	-21.690986	6.405751	44917.125	-5.620446E-10	-1.779218E+9	15.170434	0.176227	0	0
0	0	0	-0.128014	6.406047	-21.692354	6.406047	44911.875	-5.720744E-11	-1.748025E+10	15.061419	0.175646	0	0
0	0	0	-0.128177	6.40609	-21.692708	6.40609	44908.875	-5.069828E-11	-1.972454E+10	15.142136	0.174484	0	0
0	0	0	-0.128177	6.406118	-21.692803	6.406118	44908.875	-4.712546E-11	-2.121995E+10	15.054514	0.174075	0	0
0	0	0	-0.128177	6.406097	-21.692732	6.406097	44908.875	-4.975523E-11	-2.009839E+10	15.035205	0.172926	0	0
0	0	0	-0.127687	6.406082	-21.692048	6.406082	44917.875	-5.168812E-11	-1.934681E+10	15.035737	0.172213	0	0
0	0	0	-0.128014	6.406167	-21.692757	6.406167	44911.875	-4.195451E-11	-2.383534E+10	14.903635	0.171659	0	0
0	0	0	-0.12638	6.405956	-21.689922	6.405956	44941.625	-7.928885E-11	-1.261211E+10	14.984705	0.170391	0	0
0	0	0	-0.126421	6.405864	-21.689667	6.405864	44940.875	-1.289377E-10	-7.755683E+9	14.817954	0.170193	0	0
0	0	0	-0.127238	6.40597	-21.691084	6.40597	44926	-7.482833E-11	-1.336392E+10	14.884302	0.168767	0	0
0	0	0	-0.124298	6.406125	-21.687785	6.406125	44979.625	-4.638253E-11	-2.155984E+10	14.807663	0.168411	0	0
0	0	0	-0.124053	6.406019	-21.687111	6.406019	44984.125	-6.265957E-11	-1.595926E+10	14.762829	0.167526	0	0
0	0	0	-0.122787	6.405956	-21.685252	6.405956	45007.125	-7.940441E-11	-1.259376E+10	14.79493	0.166694	0	0
0	0	0	-0.123644	6.405857	-21.686034	6.405857	44991.5	-1.356155E-10	-7.373788E+9	14.711871	0.166153	0	0
0	0	0	-0.123236	6.405702	-21.684982	6.405702	44999	1.196522E-9	8.357557E+8	14.735677	0.165136	0	0
0	0	0	-0.122338	6.406075	-21.685072	6.406075	45015.375	-5.282081E-11	-1.893193E+10	14.659928	0.164701	0	0
0	0	0	-0.12246	6.405991	-21.684946	6.405991	45013.125	-6.917054E-11	-1.445702E+10	14.626951	0.16371	0	0
0	0	0	-0.122705	6.405702	-21.684292	6.405702	45008.625	1.196778E-9	8.35577E+8	14.622609	0.163037	0	0
0	0	0	-0.121031	6.405998	-21.683112	6.405998	45039.25	-6.746998E-11	-1.482141E+10	14.498529	0.162482	0	0
0	0	0	-0.120868	6.405892	-21.682544	6.405892	45042.125	-1.083513E-10	-9.229241E+9	14.574946	0.161334	0	0
0	0	0	-0.121276	6.40566	-21.682292	6.40566	45034.75	3.255265E-10	3.071947E+9	14.448878	0.160991	0	0
0	0	0	-0.120868	6.405786	-21.682188	6.405786	45042.125	-2.748748E-10	-3.638021E+9	14.460512	0.159948	0	0
0	0	0	-0.121643	6.406012	-21.683956	6.406012	45028	-6.422261E-11	-1.557084E+10	14.424702	0.159499	0	0
0	0	0	-0.122133	6.405772	-21.683786	6.405772	45019.125	-3.455422E-10	-2.894002E+9	14.340437	0.158825	0	0
0	0	0	-0.122338	6.405702	-21.683814	6.405702	45015.375	1.196957E-9	8.354517E+8	14.441399	0.157769	0	0
0	0	0	-0.121888	6.405843	-21.683705	6.405843	45023.5	-1.509948E-10	-6.622743E+9	14.26724	0.157545	0	0
0	0	0	-0.122828	6.406054	-21.685637	6.406054	45006.5	-5.612763E-11	-1.781654E+10	14.365402	0.15633	0	0
0	0	0	-0.123604	6.40592	-21.686195	6.40592	44992.25	-9.317827E-11	-1.073212E+10	14.29014	0.155921	0	0
0	0	0	-0.123236	6.405892	-21.685622	6.405892	44999	-1.082475E-10	-9.238085E+9	14.274001	0.155036	0	0
0	0	0	-0.124502	6.406005	-21.687647	6.406005	44975.875	-6.572207E-11	-1.521559E+10	14.238025	0.154587	0	0
0	0	0	-0.12589	6.405963	-21.689309	6.405963	44950.625	-7.702324E-11	-1.298309E+10	14.129295	0.153861	0	0
0	0	0	-0.125972	6.405871	-21.689107	6.405871	44949.125	-1.230349E-10	-8.127778E+9	14.212596	0.152884	0	0
0	0	0	-0.126789	6.405963	-21.690477	6.405963	44934.25	-7.699518E-11	-1.298783E+10	14.03758	0.15262	0	0
0	0	0	-0.12732	6.40597	-21.69119	6.40597	44924.5	-7.482583E-11	-1.336437E+10	14.132321	0.151432	0	0
0	0	0	-0.128545	6.406209	-21.693589	6.406209	44902.25	-3.833782E-11	-2.60839E+10	13.95958	0.151366	0	0
0	0	0	-0.128953	6.405956	-21.693266	6.405956	44894.75	-7.920615E-11	-1.262528E+10	14.029565	0.150098	0	0
0	0	0	-0.130097	6.406054	-21.695084	6.406054	44874	-5.596239E-11	-1.786914E+10	13.975105	0.149847	0	0
0	0	0	-0.130219	6.405927	-21.694816	6.405927	44871.75	-8.980611E-11	-1.11351E+10	13.915874	0.148923	0	0
0	0	0	-0.131648	6.405956	-21.696769	6.405956	44845.75	-7.91197E-11	-1.263908E+10	13.966471	0.148184	0	0
0	0	0	-0.134099	6.405991	-21.700072	6.405991	44801.25	-6.884496E-11	-1.452539E+10	13.862374	0.147735	0	0
0	0	0	-0.133119	6.406097	-21.699154	6.406097	44819	-4.965565E-11	-2.013869E+10	13.922299	0.146824	0	0
0	0	0	-0.13222	6.406139	-21.698129	6.406139	44835.375	-4.468647E-11	-2.237814E+10	13.748162	0.146639	0	0
0	0	0	-0.131363	6.405829	-21.69597	6.405829	44851	-1.695047E-10	-5.899542E+9	13.8487	0.145464	0	0
0	0	0	-0.132792	6.406223	-21.699156	6.406223	44825	-3.72052E-11	-2.687796E+10	13.706766	0.145226	0	0
0	0	0	-0.134711	6.405899	-21.700559	6.405899	44790.125	-1.035624E-10	-9.656012E+9	13.783406	0.144064	0	0
0	0	0	-0.13614	6.406139	-21.703224	6.406139	44764.125	-4.461545E-11	-2.241376E+10	13.691139	0.143827	0	0
0	0	0	-0.134915	6.405822	-21.700564	6.405822	44786.375	-1.80728E-10	-5.533178E+9	13.646574	0.143034	0	0
0	0	0	-0.1332	6.406259	-21.699806	6.406259	44817.625	-3.4776E-11	-2.875546E+10	13.674599	0.142282	0	0
0	0	0	-0.134384	6.405836	-21.699921	6.405836	44796	-1.591956E-10	-6.281581E+9	13.505475	0.141978	0	0
0	0	0	-0.134384	6.406068	-21.700704	6.406068	44796	-5.361974E-11	-1.864985E+10	13.615956	0.140988	0	0
0	0	0	-0.133486	6.406188	-21.69994	6.406188	44812.375	-3.998043E-11	-2.501224E+10	13.393945	0.140869	0	0
0	0	0	-0.133364	6.406153	-21.699662	6.406153	44814.625	-4.321935E-11	-2.313778E+10	13.517319	0.139628	0	0
0	0	0	-0.131526	6.406181	-21.697369	6.406181	44848	-4.062067E-11	-2.461801E+10	13.350578	0.139615	0	0
0	0	0	-0.131608	6.405984	-21.696811	6.405984	44846.5	-7.073956E-11	-1.413636E+10	13.475311	0.138321	0	0
0	0	0	-0.130342	6.406139	-21.695687	6.406139	44869.5	-4.472048E-11	-2.236112E+10	13.324619	0.138189	0	0
0	0	0	-0.129239	6.406047	-21.693946	6.406047	44889.625	-5.717909E-11	-1.748891E+10	13.348972	0.137265	0	0
0	0	0	-0.130464	6.406188	-21.696013	6.406188	44867.375	-4.00295E-11	-2.498158E+10	13.275083	0.137001	0	0
0	0	0	-0.129811	6.406033	-21.694641	6.406033	44879.25	-5.972021E-11	-1.674475E+10	13.272752	0.135971	0	0
0	0	0	-0.129852	6.405723	-21.693651	6.405723	44878.5	-3.517147E-9	-2.843213E+8	13.273262	0.135522	0	0
0	0	0	-0.128136	6.405843	-21.691825	6.405843	44909.625	-1.506129E-10	-6.639536E+9	13.143572	0.135165	0	0
0	0	0	-0.127891	6.405779	-21.691293	6.405779	44914.125	-3.053828E-10	-3.274578E+9	13.246492	0.134188	0	0
0	0	0	-0.127401	6.40585	-21.690893	6.40585	44923	-1.42627E-10	-7.011296E+9	13.118399	0.133806	0	0
0	0	0	-0.126299	6.405913	-21.689674	6.405913	44943.125	-9.642943E-11	-1.037028E+10	13.189006	0.132908	0	0
0	0	0	-0.125809	6.405794	-21.688634	6.405794	44952	-2.488299E-10	-4.01881E+9	13.018357	0.132736	0	0
0	0	0	-0.124665	6.405829	-21.687266	6.405829	44972.875	-1.699653E-10	-5.883554E+9	13.123132	0.13164	0	0
0	0	0	-0.124461	6.406019	-21.687641	6.406019	44976.625	-6.264912E-11	-1.596192E+10	12.957998	0.131535	0	0
0	0	0	-0.125523	6.405808	-21.68831	6.405808	44957.25	-2.098528E-10	-4.765244E+9	13.04476	0.130518	0	0
0	0	0	-0.12536	6.406287	-21.689711	6.406287	44960.25	-3.315875E-11	-3.015795E+10	12.901575	0.130307	0	0
0	0	0	-0.125564	6.405984	-21.688956	6.405984	44956.5	-7.091307E-11	-1.410177E+10	12.924814	0.129383	0	0
0	0	0	-0.125115	6.406097	-21.688752	6.406097	44964.75	-4.981713E-11	-2.007342E+10	12.875162	0.129053	0	0
0	0	0	-0.124257	6.40585	-21.686807	6.40585	44980.375	-1.428092E-10	-7.002352E+9	12.854475	0.128274	0	0
0	0	0	-0.126503	6.405892	-21.689868	6.405892	44939.375	-1.081041E-10	-9.250342E+9	12.829089	0.127772	0	0
0	0	0	-0.12732	6.405984	-21.691238	6.405984	44924.5	-7.08626E-11	-1.411182E+10	12.752336	0.127178	0	0
0	0	0	-0.127361	6.405949	-21.691172	6.405949	44923.75	-8.167665E-11	-1.22434E+10	12.753161	0.126584	0	0
0	0	0	-0.126871	6.405991	-21.690678	6.405991	44932.75	-6.904703E-11	-1.448288E+10	12.614719	0.126148	0	0
0	0	0	-0.127851	6.405794	-21.691287	6.405794	44914.875	-2.486244E-10	-4.022132E+9	12.67843	0.125356	0	0
0	0	0	-0.129811	6.406061	-21.694736	6.406061	44879.25	-5.482109E-11	-1.824115E+10	12.564628	0.12488	0	0
0	0	0	-0.128096	6.405801	-21.691629	6.405801	44910.375	-2.274601E-10	-4.396376E+9	12.606063	0.124247	0	0
0	0	0	-0.129076	6.405991	-21.693544	6.405991	44892.625	-6.898538E-11	-1.449583E+10	12.48951	0.123705	0	0
0	0	0	-0.130423	6.405927	-21.695082	6.405927	44868	-8.97986E-11	-1.113603E+10	12.515402	0.123085	0	0
0	0	0	-0.131485	6.40597	-21.696604	6.40597	44848.75	-7.469966E-11	-1.338694E+10	12.442677	0.122715	0	0
0	0	0	-0.13173	6.40609	-21.697326	6.40609	44844.25	-5.062532E-11	-1.975296E+10	12.45693	0.121976	0	0
0	0	0	-0.131893	6.406139	-21.697704	6.406139	44841.25	-4.469232E-11	-2.237521E+10	12.373486	0.121593	0	0
0	0	0	-0.132588	6.406047	-21.698298	6.406047	44828.75	-5.710155E-11	-1.751266E+10	12.376882	0.12088	0	0
0	0	0	-0.133854	6.406033	-21.699896	6.406033	44805.625	-5.962224E-11	-1.677227E+10	12.286471	0.120484	0	0
0	0	0	-0.134507	6.406019	-21.700697	6.406019	44793.75	-6.239439E-11	-1.602708E+10	12.317466	0.119731	0	0
0	0	0	-0.13565	6.406026	-21.702207	6.406026	44773	-6.094031E-11	-1.64095E+10	12.182821	0.119599	0	0
0	0	0	-0.135569	6.405899	-21.701674	6.405899	44774.5	-1.035263E-10	-9.659381E+9	12.213786	0.118913	0	0
0	0	0	-0.136304	6.40585	-21.702463	6.40585	44761.25	-1.421134E-10	-7.036632E+9	12.099152	0.118358	0	0
0	0	0	-0.136018	6.405998	-21.70259	6.405998	44766.375	-6.706121E-11	-1.491175E+10	12.14614	0.117658	0	0
0	0	0	-0.138019	6.406195	-21.705855	6.406195	44730.125	-3.93181E-11	-2.543358E+10	12.035957	0.117368	0	0
0	0	0	-0.138019	6.406181	-21.705807	6.406181	44730.125	-4.051391E-11	-2.468288E+10	12.098737	0.116761	0	0
0	0	0	-0.137856	6.405885	-21.704598	6.405885	44733.125	-1.121369E-10	-8.91767E+9	11.932452	0.116602	0	0
0	0	0	-0.138141	6.40609	-21.705658	6.40609	44727.875	-5.049394E-11	-1.980436E+10	12.034141	0.115625	0	0
0	0	0	-0.13806	6.405934	-21.70503	6.405934	44729.375	-8.661085E-11	-1.15459E+10	11.902394	0.115321	0	0
0	0	0	-0.137039	6.406118	-21.70432	6.406118	44747.875	-4.695651E-11	-2.12963E+10	11.915283	0.114754	0	0
0	0	0	-0.134956	6.405934	-21.700996	6.405934	44785.625	-8.671977E-11	-1.15314E+10	11.785791	0.11445	0	0
0	0	0	-0.134956	6.406104	-21.701566	6.406104	44785.625	-4.871257E-11	-2.052858E+10	11.889232	0.113565	0	0
0	0	0	-0.135324	6.406097	-21.70202	6.406097	44779	-4.961134E-11	-2.015668E+10	11.731253	0.113367	0	0
0	0	0	-0.133813	6.40623	-21.700507	6.40623	44806.375	-3.667861E-11	-2.726384E+10	11.793516	0.112641	0	0
0	0	0	-0.133854	6.406181	-21.700394	6.406181	44805.625	-4.058229E-11	-2.464129E+10	11.63375	0.112456	0	0
0	0	0	-0.134384	6.406012	-21.700514	6.406012	44796	-6.389172E-11	-1.565148E+10	11.649532	0.111691	0	0
0	0	0	-0.132506	6.405885	-21.697646	6.405885	44830.125	-1.123801E-10	-8.898375E+9	11.569607	0.111413	0	0
0	0	0	-0.131771	6.405949	-21.696904	6.405949	44843.5	-8.153074E-11	-1.226531E+10	11.569766	0.110925	0	0
0	0	0	-0.131118	6.405998	-21.696221	6.405998	44855.375	-6.719453E-11	-1.488216E+10	11.519304	0.11041	0	0
0	0	0	-0.130342	6.406146	-21.695711	6.406146	44869.5	-4.398446E-11	-2.27353E+10	11.460968	0.109921	0	0
0	0	0	-0.129484	6.405885	-21.693719	6.405885	44885.125	-1.125179E-10	-8.887471E+9	11.456076	0.109288	0	0
0	0	0	-0.128872	6.406104	-21.693658	6.406104	44896.25	-4.883289E-11	-2.0478E+10	11.344582	0.109156	0	0
0	0	0	-0.12879	6.406181	-21.693813	6.406181	44897.75	-4.066573E-11	-2.459073E+10	11.37157	0.108311	0	0
0	0	0	-0.128953	6.406082	-21.693693	6.406082	44894.75	-5.166151E-11	-1.935677E+10	11.3114	0.10806	0	0
0	0	0	-0.129076	6.406019	-21.693639	6.406019	44892.625	-6.253211E-11	-1.599178E+10	11.312099	0.107439	0	0
0	0	0	-0.127075	6.405949	-21.690801	6.405949	44929	-8.168619E-11	-1.224197E+10	11.200167	0.107254	0	0
0	0	0	-0.127401	6.405927	-21.691154	6.405927	44923	-8.990868E-11	-1.11224E+10	11.232229	0.106449	0	0
0	0	0	-0.126176	6.405991	-21.689776	6.405991	44945.375	-6.906644E-11	-1.447881E+10	11.105193	0.106304	0	0
0	0	0	-0.127851	6.405998	-21.691975	6.405998	44914.875	-6.728366E-11	-1.486245E+10	11.118741	0.105683	0	0
0	0	0	-0.127891	6.40597	-21.691934	6.40597	44914.125	-7.480855E-11	-1.336746E+10	11.000008	0.105432	0	0
0	0	0	-0.127442	6.40604	-21.691587	6.40604	44922.25	-5.84711E-11	-1.710247E+10	11.038039	0.104759	0	0
0	0	0	-0.128953	6.406273	-21.694334	6.406273	44894.75	-3.395124E-11	-2.9454E+10	10.955906	0.104297	0	0
0	0	0	-0.12732	6.405772	-21.690526	6.405772	44924.5	-3.448159E-10	-2.900098E+9	10.964082	0.103822	0	0
0	0	0	-0.127891	6.40597	-21.691934	6.40597	44914.125	-7.480855E-11	-1.336746E+10	10.874945	0.103439	0	0
0	0	0	-0.128422	6.405977	-21.692647	6.405977	44904.5	-7.27579E-11	-1.374421E+10	10.861024	0.103016	0	0
0	0	0	-0.130056	6.405772	-21.694082	6.405772	44874.75	-3.444341E-10	-2.903313E+9	10.81068	0.102501	0	0
0	0	0	-0.128463	6.405899	-21.692439	6.405899	44903.75	-1.038251E-10	-9.631578E+9	0	0	0	0
0	0	0	-0.13075	6.40604	-21.695886	6.40604	44862.125	-5.839284E-11	-1.712539E+10	0	0	0	0
0	0	0	-0.130832	6.405695	-21.694829	6.405695	44860.625	8.246812E-10	1.21259E+9	0	0	0	0
0	0	0	-0.132914	6.405899	-21.698224	6.405899	44822.75	-1.036379E-10	-9.648983E+9	0	0	0	0
0	0	0	-0.132465	6.405864	-21.697522	6.405864	44830.875	-1.286221E-10	-7.774712E+9	0	0	0	0
0	0	0	-0.132955	6.406139	-21.699084	6.406139	44822	-4.467314E-11	-2.238482E+10	0	0	0	0
0	0	0	-0.135365	6.405984	-21.701693	6.405984	44778.25	-7.063191E-11	-1.415791E+10	0	0	0	0
0	0	0	-0.136876	6.40592	-21.703443	6.40592	44750.75	-9.267812E-11	-1.079003E+10	0	0	0	0
0	0	0	-0.136916	6.406174	-21.704351	6.406174	44750.125	-4.11579E-11	-2.429667E+10	0	0	0	0
0	0	0	-0.137202	6.405913	-21.703844	6.405913	44744.875	-9.600407E-11	-1.041623E+10	0	0	0	0
0	0	0	-0.137488	6.406287	-21.705473	6.406287	44739.75	-3.299613E-11	-3.030658E+10	0	0	0	0
0	0	0	-0.138672	6.40609	-21.706348	6.40609	44718.25	-5.048308E-11	-1.980862E+10	0	0	0	0
0	0	0	-0.138386	6.406061	-21.705882	6.406061	44723.375	-5.463069E-11	-1.830473E+10	0	0	0	0
0	0	0	-0.136876	6.406075	-21.703965	6.406075	44750.75	-5.25103E-11	-1.904388E+10	0	0	0	0
0	0	0	-0.137692	6.406047	-21.704932	6.406047	44736	-5.698341E-11	-1.754897E+10	0	0	0	0
0	0	0	-0.14002	6.406068	-21.708028	6.406068	44693.75	-5.349734E-11	-1.869252E+10	0	0	0	0
0	0	0	-0.138999	6.405991	-21.70644	6.405991	44712.25	-6.87082E-11	-1.45543E+10	0	0	0	0
0	0	0	-0.13904	6.405815	-21.7059	6.405815	44711.625	-1.935387E-10	-5.166925E+9	0	0	0	0
0	0	0	-0.13855	6.405899	-21.705548	6.405899	44720.5	-1.034014E-10	-9.671045E+9	0	0	0	0
0	0	0	-0.138795	6.40609	-21.706507	6.40609	44716	-5.048054E-11	-1.980962E+10	0	0	0	0
0	0	0	-0.138264	6.405864	-21.705058	6.405864	44725.625	-1.283202E-10	-7.793008E+9	0	0	0	0
0	0	0	-0.138305	0	-0.138305	0	44724.875	0	0	0	0	0	0
0	0	0	-0.136794	0	-0.136794	0	44752.25	0	0	0	0	0	0
