Vload_(V)	ILoad_(A)	RsLoad (ohm)	SunsVoc_Voltage_(V)	SunsVoc_Current_(A)	Model_Voltage_(V)	Model_Current_(A)	Carrier_Density_(cm-3)	Lifetime_(s)	Inverse_Lifetime_(s-1)	Efficiency_(%)	Intensity_(suns)	Dark_IV_Voltage_(V)	Dark_IV_Current_(A)
2.66389	5.998266	0	50.050787	0.406762	49.806491	0.406762	3.673354E+15	0.000292	3399.425175	19.10642	1.111655	0	0
2.660568	6.000399	-0.460647	51.719452	-0.181234	51.813849	-0.181234	6.999092E+15	0.000504	1903.420946	19.230892	1.110229	0	0
3.269877	6.000713	-0.562372	52.282221	-0.623406	52.59016	-0.623406	8.569516E+15	0.000576	1615.109043	19.212157	1.110546	0	0
6.744399	5.992949	4.228593	52.421311	-0.42879	52.630267	-0.42879	8.999952E+15	0.000623	1470.869544	19.068505	1.110031	0	0
10.86507	5.980772	4.385352	52.395257	-0.073588	52.431209	-0.073588	8.917974E+15	0.000653	1398.52801	19.251368	1.108249	0	0
14.299617	5.977969	3.905989	52.302884	0.300751	52.154622	0.300751	8.632349E+15	0.000674	1360.00906	19.027811	1.108565	0	0
17.888796	5.973718	3.424485	52.190788	0.654294	51.864733	0.654294	8.296059E+15	0.000691	1333.803696	19.127677	1.105872	0	0
21.4823	5.964419	3.019696	52.071096	0.994306	51.569915	0.994306	7.949139E+15	0.000707	1310.201829	19.108305	1.105793	0	0
25.193174	5.961338	2.448866	51.947075	1.308811	51.279612	1.308811	7.602528E+15	0.000721	1290.670661	18.950684	1.104208	0	0
28.720693	5.954391	1.956634	51.823422	1.612135	50.991745	1.612135	7.269573E+15	0.000737	1268.602054	19.129878	1.102307	0	0
32.37337	5.951626	1.377315	51.690417	1.893716	50.701442	1.893716	6.92507E+15	0.000751	1252.788055	18.902528	1.102426	0	0
35.965213	5.932019	0.968057	51.561864	2.149978	50.425851	2.149978	6.605099E+15	0.000764	1237.303603	18.981618	1.100366	0	0
37.02863	5.913102	0.923109	51.433392	2.388494	50.15669	2.388494	6.297689E+15	0.000776	1222.681138	18.959857	1.100762	0	0
38.094907	5.889001	0.871928	51.313659	2.608535	49.904416	2.608535	6.021966E+15	0.00079	1205.175544	18.796927	1.100446	0	0
39.151781	5.84342	0.864238	51.183349	2.821375	49.641554	2.821375	5.733334E+15	0.000803	1191.0579	18.987229	1.098901	0	0
40.204974	5.789242	0.827917	51.054959	3.019824	49.386191	3.019824	5.46026E+15	0.000816	1176.726413	18.77271	1.100129	0	0
41.264475	5.70286	0.810484	50.927957	3.203402	49.138303	3.203402	5.200828E+15	0.000828	1163.136016	18.880641	1.098386	0	0
42.32768	5.592656	0.775137	50.804631	3.371019	48.901469	3.371019	4.958761E+15	0.00084	1150.203141	18.893066	1.09898	0	0
43.376435	5.451434	0.73289	50.680365	3.528174	48.667529	3.528174	4.724371E+15	0.000851	1138.282837	18.757722	1.098663	0	0
44.416499	5.257612	0.695166	50.55271	3.67621	48.432995	3.67621	4.493229E+15	0.000861	1128.218173	18.969191	1.097475	0	0
45.41606	5.001576	0.664257	50.432814	3.811748	48.21311	3.811748	4.28476E+15	0.000872	1116.668764	18.78906	1.098267	0	0
46.431286	4.673359	0.626301	50.305322	3.941282	47.986177	3.941282	4.071964E+15	0.000881	1108.059042	18.899035	1.096445	0	0
47.380001	4.224923	0.61339	50.180444	4.061023	47.766607	4.061023	3.872125E+15	0.000889	1099.784722	18.938031	1.096089	0	0
48.325055	3.688894	0.594898	50.056586	4.173735	47.551054	4.173735	3.682059E+15	0.000898	1091.410305	18.800898	1.095098	0	0
49.224609	3.045613	0.588637	49.929503	4.278646	47.33501	4.278646	3.495198E+15	0.000904	1085.714082	19.00605	1.093158	0	0
50.058026	2.352632	0.598602	49.807075	4.374097	47.129113	4.374097	3.322747E+15	0.00091	1080.490147	18.803862	1.093752	0	0
50.825816	1.624418	0.515164	49.68285	4.464462	46.923064	4.464462	3.155112E+15	0.000915	1076.290856	18.899302	1.091336	0	0
51.506147	0.931332	0.384724	49.56716	4.546522	46.731515	4.546522	3.00544E+15	0.000921	1070.866004	18.934606	1.090821	0	0
42.402448	5.592202	0.762333	49.441791	4.627749	46.527763	4.627749	2.850043E+15	0.000925	1067.514653	18.785015	1.08983	0	0
52.025905	0	0	49.319812	4.703685	46.330553	4.703685	2.705415E+15	0.00093	1063.540399	18.995555	1.087177	0	0
0	0	0	49.201999	4.774018	46.141167	4.774018	2.571676E+15	0.000934	1059.172647	18.804692	1.087295	0	0
0	0	0	49.075283	4.843026	45.940883	4.843026	2.434143E+15	0.000937	1057.050149	18.884083	1.084642	0	0
0	0	0	48.954897	4.905319	45.751964	4.905319	2.309339E+15	0.00094	1055.053391	18.913901	1.084047	0	0
0	0	0	48.83349	4.963769	45.563596	4.963769	2.189061E+15	0.000941	1054.384702	18.743072	1.082978	0	0
0	0	0	48.711225	5.019319	45.375414	5.019319	2.07341E+15	0.000942	1054.231428	18.953396	1.080364	0	0
0	0	0	48.593575	5.070201	45.195445	5.070201	1.967133E+15	0.000943	1054.138701	18.767848	1.080324	0	0
0	0	0	48.473147	5.119995	45.012183	5.119995	1.863261E+15	0.000944	1053.848619	18.838811	1.077868	0	0
0	0	0	48.3537	5.165248	44.832666	5.165248	1.764973E+15	0.000943	1055.811128	18.883323	1.077354	0	0
0	0	0	48.234703	5.208027	44.654893	5.208027	1.67158E+15	0.000941	1058.091193	18.702163	1.07672	0	0
0	0	0	48.116562	5.248228	44.479494	5.248228	1.583168E+15	0.000939	1060.835404	18.907875	1.074541	0	0
0	0	0	47.996544	5.286184	44.302856	5.286184	1.497585E+15	0.000936	1065.160558	18.739279	1.074264	0	0
0	0	0	47.87971	5.321013	44.131981	5.321013	1.418221E+15	0.000932	1070.152902	18.809774	1.072046	0	0
0	0	0	47.760876	5.355354	43.95855	5.355354	1.341342E+15	0.000928	1074.478731	18.872344	1.071293	0	0
0	0	0	47.641755	5.387588	43.785878	5.387588	1.268022E+15	0.000924	1079.953942	18.708985	1.070145	0	0
0	0	0	47.523411	5.417925	43.615184	5.417925	1.198746E+15	0.000919	1085.912095	18.919906	1.06757	0	0
0	0	0	47.401595	5.447241	43.440515	5.447241	1.131002E+15	0.000913	1093.092106	18.738024	1.067372	0	0
0	0	0	47.286273	5.473606	43.275858	5.473606	1.070067E+15	0.000907	1100.29384	18.809704	1.064679	0	0
0	0	0	47.167969	5.499613	43.107412	5.499613	1.010656E+15	0.000902	1107.445339	18.880314	1.063411	0	0
0	0	0	47.047583	5.524446	42.936911	5.524446	9.532883E+14	0.000895	1115.819788	18.711896	1.061946	0	0
0	0	0	46.932628	5.546581	42.775019	5.546581	9.012944E+14	0.000888	1125.226828	18.924652	1.059094	0	0
0	0	0	46.811343	5.568947	42.604696	5.568947	8.492609E+14	0.00088	1135.199797	18.755321	1.058618	0	0
0	0	0	46.694959	5.589154	42.441966	5.589154	8.019373E+14	0.000872	1145.747569	18.804142	1.055846	0	0
0	0	0	46.577023	5.608897	42.277399	5.608897	7.564723E+14	0.000864	1156.120634	18.86116	1.05442	0	0
0	0	0	46.456024	5.627744	42.109415	5.627744	7.12314E+14	0.000855	1168.479655	18.676941	1.053152	0	0
0	0	0	46.340702	5.644843	41.94978	5.644843	6.724653E+14	0.000846	1180.702959	18.886276	1.050142	0	0
0	0	0	46.220438	5.661761	41.783821	5.661761	6.331278E+14	0.000837	1194.124663	18.700653	1.050023	0	0
0	0	0	46.103809	5.677311	41.623368	5.677311	5.970419E+14	0.000828	1207.864185	18.76897	1.046934	0	0
0	0	0	45.984566	5.692294	41.459867	5.692294	5.621471E+14	0.000817	1223.027761	18.83362	1.045825	0	0
0	0	0	45.86471	5.706562	41.295989	5.706562	5.290124E+14	0.000807	1239.098454	18.649851	1.044835	0	0
0	0	0	45.748449	5.719538	41.137564	5.719538	4.986381E+14	0.000796	1256.154739	18.85452	1.042022	0	0
0	0	0	45.625694	5.732735	40.970545	5.732735	4.683618E+14	0.000785	1274.090306	18.689305	1.041983	0	0
0	0	0	45.508084	5.744653	40.810975	5.744653	4.409967E+14	0.000774	1292.466926	18.746496	1.039289	0	0
0	0	0	45.390475	5.756128	40.651635	5.756128	4.151568E+14	0.000763	1310.831052	18.834794	1.037665	0	0
0	0	0	45.264862	5.767418	40.482111	5.767418	3.891553E+14	0.00075	1333.253327	18.651204	1.036636	0	0
0	0	0	45.148028	5.77794	40.324296	5.77794	3.663745E+14	0.00074	1351.63723	18.867962	1.033863	0	0
0	0	0	45.024498	5.787931	40.15826	5.787931	3.436798E+14	0.000727	1375.583245	18.698755	1.033427	0	0
0	0	0	44.902805	5.797506	39.994805	5.797506	3.226468E+14	0.000715	1398.578983	18.757879	1.030773	0	0
0	0	0	44.784501	5.806184	39.836334	5.806184	3.033908E+14	0.000703	1423.078618	18.836828	1.029387	0	0
0	0	0	44.660562	5.814969	39.670471	5.814969	2.844082E+14	0.00069	1448.650804	18.663474	1.027961	0	0
0	0	0	44.541074	5.82313	39.510732	5.82313	2.671973E+14	0.000679	1473.324781	18.882514	1.024832	0	0
0	0	0	44.417625	5.831005	39.346085	5.831005	2.504766E+14	0.000666	1501.022187	18.719192	1.024119	0	0
0	0	0	44.295279	5.83847	39.183114	5.83847	2.34909E+14	0.000654	1529.085601	18.774031	1.021148	0	0
0	0	0	44.171625	5.845739	39.018557	5.845739	2.201322E+14	0.000642	1557.516837	18.844459	1.019564	0	0
0	0	0	44.048666	5.852582	38.85518	5.852582	2.063372E+14	0.00063	1587.106922	18.656259	1.018059	0	0
0	0	0	43.927708	5.858541	38.695073	5.858541	1.935908E+14	0.000616	1622.418222	18.866237	1.014692	0	0
0	0	0	43.802054	5.86479	38.528625	5.86479	1.811644E+14	0.000604	1656.17385	18.697718	1.014217	0	0
0	0	0	43.68077	5.870499	38.368186	5.870499	1.699115E+14	0.000592	1690.346847	18.754792	1.011365	0	0
0	0	0	43.553114	5.876247	38.199486	5.876247	1.58807E+14	0.000579	1727.182985	18.822736	1.00986	0	0
0	0	0	43.426358	5.881584	38.032243	5.881584	1.484858E+14	0.000566	1766.441746	18.640334	1.008553	0	0
0	0	0	43.3025	5.88656	37.868984	5.88656	1.390377E+14	0.000554	1806.04214	18.850597	1.005582	0	0
0	0	0	43.174355	5.891164	37.700517	5.891164	1.298848E+14	0.000539	1853.633033	18.677875	1.005384	0	0
0	0	0	43.048578	5.896061	37.534755	5.896061	1.214783E+14	0.000529	1891.284503	18.742196	1.002453	0	0
0	0	0	42.917697	5.900382	37.362933	5.900382	1.132996E+14	0.000515	1942.094419	18.811874	1.001225	0	0
0	0	0	42.788204	5.904379	37.193144	5.904379	1.057426E+14	0.000501	1995.920915	18.636791	1.000037	0	0
0	0	0	42.659038	5.908332	37.023766	5.908332	9.870057E+13	0.000488	2048.283562	18.842187	0.997462	0	0
0	0	0	42.52979	5.912189	36.854327	5.912189	9.211807E+13	0.000476	2100.540463	18.677179	0.996908	0	0
0	0	0	42.396786	5.916013	36.680053	5.916013	8.57973E+13	0.000464	2155.087886	18.740081	0.994056	0	0
0	0	0	42.251652	5.919599	36.490403	5.919599	7.938897E+13	0.000449	2227.522787	18.818511	0.99267	0	0
0	0	0	42.118933	5.922803	36.317005	5.922803	7.394476E+13	0.000436	2294.099057	18.645126	0.991204	0	0
0	0	0	41.98793	5.926012	36.145763	5.926012	6.893395E+13	0.000424	2356.220154	18.87109	0.988154	0	0
0	0	0	41.857375	5.929081	35.975196	5.929081	6.427539E+13	0.000413	2419.672354	18.697045	0.987877	0	0
0	0	0	41.714325	5.932149	35.788553	5.932149	5.952888E+13	0.000401	2496.739963	18.767817	0.984827	0	0
0	0	0	41.579809	5.934992	35.61305	5.934992	5.538355E+13	0.000389	2568.227189	18.836308	0.983203	0	0
0	0	0	41.442026	5.937435	35.433722	5.937435	5.143466E+13	0.000376	2658.641558	18.659272	0.981658	0	0
0	0	0	41.310777	5.939823	35.262805	5.939823	4.793358E+13	0.000365	2740.82288	18.873681	0.978489	0	0
0	0	0	41.171402	5.942411	35.08122	5.942411	4.447476E+13	0.000354	2823.155904	18.695908	0.977816	0	0
0	0	0	41.035661	5.944693	34.904583	5.944693	4.134492E+13	0.000343	2912.831269	18.757413	0.975044	0	0
0	0	0	40.895837	5.946751	34.722905	5.946751	3.834992E+13	0.000331	3019.668705	18.81903	0.973697	0	0
0	0	0	40.757605	5.949142	34.542896	5.949142	3.560138E+13	0.000322	3101.806624	18.650342	0.972192	0	0
0	0	0	40.614309	5.951154	34.356751	5.951154	3.295904E+13	0.000311	3213.230423	18.864864	0.9693	0	0
0	0	0	40.470769	5.953112	34.170321	5.953112	3.050801E+13	0.000301	3327.143157	18.686346	0.968944	0	0
0	0	0	40.3278	5.955018	33.984654	5.955018	2.824728E+13	0.000291	3441.766545	18.75219	0.966171	0	0
0	0	0	40.186791	5.956915	33.801487	5.956915	2.618115E+13	0.000282	3550.423946	18.810289	0.964626	0	0
0	0	0	40.043822	5.95854	33.616071	5.95854	2.424006E+13	0.000271	3684.045136	18.649009	0.9632	0	0
0	0	0	39.90118	5.960256	33.430954	5.960256	2.244641E+13	0.000263	3806.590311	18.862011	0.960467	0	0
0	0	0	39.759804	5.961799	33.247629	5.961799	2.079931E+13	0.000254	3941.282223	18.673053	0.960309	0	0
0	0	0	39.618101	5.96331	33.063898	5.96331	1.926939E+13	0.000245	4077.9597	18.756961	0.957299	0	0
0	0	0	39.477664	5.96471	32.881897	5.96471	1.786393E+13	0.000237	4222.619196	18.810568	0.956031	0	0
0	0	0	39.337758	5.965935	32.700753	5.965935	1.65655E+13	0.000228	4387.34921	18.64488	0.955041	0	0
0	0	0	39.198872	5.96729	32.520759	5.96729	1.536972E+13	0.000221	4530.425313	18.870185	0.951714	0	0
0	0	0	39.059783	5.968302	32.340872	5.968302	1.425853E+13	0.000212	4724.087361	18.69406	0.951239	0	0
0	0	0	38.919999	5.969485	32.159885	5.969485	1.322259E+13	0.000204	4893.071931	18.781011	0.948387	0	0
0	0	0	38.778746	5.97078	31.976864	5.97078	1.225206E+13	0.000198	5042.939683	18.820244	0.947159	0	0
0	0	0	38.639534	5.971719	31.79686	5.971719	1.136519E+13	0.00019	5250.782474	18.671752	0.945218	0	0
0	0	0	38.495013	5.972855	31.609792	5.972855	1.051225E+13	0.000184	5433.944675	18.883487	0.942683	0	0
0	0	0	38.355107	5.973673	31.429008	5.973673	9.747497E+12	0.000176	5671.592956	18.68429	0.942406	0	0
0	0	0	38.208095	5.974618	31.238932	5.974618	9.003704E+12	0.000169	5904.281669	18.773499	0.939316	0	0
0	0	0	38.063534	5.975398	31.052184	5.975398	8.327617E+12	0.000162	6172.891157	18.799121	0.938168	0	0
0	0	0	37.915256	5.976601	30.86015	5.976601	7.686804E+12	0.000158	6335.697956	18.653758	0.936544	0	0
0	0	0	37.769714	5.977316	30.672196	5.977316	7.105749E+12	0.000151	6627.632551	18.871841	0.933573	0	0
0	0	0	37.618456	5.978224	30.476652	5.978224	6.548327E+12	0.000145	6880.175501	18.683174	0.932979	0	0
0	0	0	37.470831	5.978846	30.28611	5.978846	6.046457E+12	0.000139	7220.015268	18.787632	0.930087	0	0
0	0	0	37.315121	5.979737	30.084838	5.979737	5.558691E+12	0.000133	7492.965858	18.804377	0.928978	0	0
0	0	0	37.161494	5.980553	29.886324	5.980553	5.115999E+12	0.000128	7783.036569	18.661798	0.927434	0	0
0	0	0	36.998066	5.981372	29.67519	5.981372	4.683676E+12	0.000123	8108.28914	18.867649	0.924938	0	0
0	0	0	36.841049	5.981955	29.47258	5.981955	4.302745E+12	0.000117	8521.76596	18.667356	0.924423	0	0
0	0	0	36.681133	5.982531	29.26624	5.982531	3.946591E+12	0.000112	8962.386359	18.790156	0.921255	0	0
0	0	0	36.520441	5.983269	29.058692	5.983269	3.618387E+12	0.000107	9317.074366	18.793929	0.920423	0	0
0	0	0	36.360239	5.983871	28.851933	5.983871	3.318343E+12	0.000103	9751.374516	18.670976	0.91868	0	0
0	0	0	36.19334	5.984605	28.636386	5.984605	3.032177E+12	9.87432E-5	10127.280093	18.870047	0.916145	0	0
0	0	0	36.030811	5.984927	28.426971	5.984927	2.77723E+12	9.262222E-5	10796.545629	18.660098	0.915709	0	0
0	0	0	35.862564	5.985619	28.209725	5.985619	2.535865E+12	8.919795E-5	11211.019458	18.781306	0.912857	0	0
0	0	0	35.692602	5.986063	27.990581	5.986063	2.313325E+12	8.433323E-5	11857.722291	18.782664	0.912065	0	0
0	0	0	35.520353	5.986625	27.768336	5.986625	2.107703E+12	8.054557E-5	12415.332165	18.665633	0.909926	0	0
0	0	0	35.349248	5.986874	27.547961	5.986874	1.92154E+12	7.503547E-5	13327.030327	18.869056	0.907273	0	0
0	0	0	35.17459	5.987618	27.322363	5.987618	1.748456E+12	7.304692E-5	13689.83147	18.655125	0.906876	0	0
0	0	0	34.994256	5.987866	27.090106	5.987866	1.586086E+12	6.784792E-5	14738.845334	18.787977	0.903866	0	0
0	0	0	34.814983	5.988528	26.858662	5.988528	1.439618E+12	6.576503E-5	15205.649137	18.76384	0.903074	0	0
0	0	0	34.630279	5.988925	26.620574	5.988925	1.302842E+12	6.204778E-5	16116.613172	18.651397	0.900975	0	0
0	0	0	34.445861	5.989393	26.382751	5.989393	1.179242E+12	5.912524E-5	16913.251338	18.848825	0.898796	0	0
0	0	0	34.258339	5.989874	26.140912	5.989874	1.065577E+12	5.64839E-5	17704.160919	18.637926	0.898281	0	0
0	0	0	34.062855	5.989786	25.889596	5.989786	9.587311E+11	5.029768E-5	19881.631716	18.783841	0.895271	0	0
0	0	0	33.868146	5.990615	25.638022	5.990615	8.629594E+11	5.017808E-5	19929.019583	18.768623	0.894241	0	0
0	0	0	33.669067	5.990974	25.381461	5.990974	7.749213E+11	4.727504E-5	21152.811788	18.656942	0.892578	0	0
0	0	0	33.461985	5.99093	25.115159	5.99093	6.928599E+11	4.201769E-5	23799.501228	18.845386	0.89032	0	0
0	0	0	33.254209	5.99119	24.84754	5.99119	6.192554E+11	3.893014E-5	25687.039064	18.629892	0.889884	0	0
0	0	0	33.042552	5.991693	24.574581	5.991693	5.523101E+11	3.73798E-5	26752.415365	18.800257	0.886676	0	0
0	0	0	32.813827	5.991926	24.280039	5.991926	4.880772E+11	3.424949E-5	29197.514246	18.758037	0.886002	0	0
0	0	0	32.590736	5.992349	23.992469	5.992349	4.3263E+11	3.253019E-5	30740.675412	18.677553	0.884062	0	0
0	0	0	32.361807	5.992574	23.697664	5.992574	3.822729E+11	2.987827E-5	33469.141732	18.858029	0.882002	0	0
0	0	0	32.126424	5.992983	23.394287	5.992983	3.366009E+11	2.834377E-5	35281.123084	18.639668	0.881329	0	0
0	0	0	31.893901	5.993377	23.094599	5.993377	2.968437E+11	2.701413E-5	37017.668499	18.803425	0.878596	0	0
0	0	0	31.653128	5.993475	22.784729	5.993475	2.606175E+11	2.420036E-5	41321.693303	18.740033	0.877883	0	0
0	0	0	31.406843	5.993645	22.467658	5.993645	2.281313E+11	2.196301E-5	45531.101586	18.686981	0.875467	0	0
0	0	0	31.152268	5.994118	22.139463	5.994118	1.988016E+11	2.132407E-5	46895.351989	18.859808	0.873446	0	0
0	0	0	30.896916	5.99407	21.811048	5.99407	1.731699E+11	1.836054E-5	54464.619362	18.641878	0.872971	0	0
0	0	0	30.635562	5.994562	21.474087	5.994562	1.503541E+11	1.806108E-5	55367.676825	18.819441	0.869842	0	0
0	0	0	30.374861	5.994513	21.138788	5.994513	1.305905E+11	1.547997E-5	64599.606951	18.730368	0.869565	0	0
0	0	0	30.114569	5.994779	20.803525	5.994779	1.134498E+11	1.447619E-5	69078.949255	18.674124	0.867386	0	0
0	0	0	29.857299	5.99521	20.471886	5.99521	9.871993E+10	1.437337E-5	69573.126926	18.84508	0.865049	0	0
0	0	0	29.596884	5.995272	20.136774	5.995272	8.575665E+10	1.274124E-5	78485.308757	18.631579	0.864534	0	0
0	0	0	29.32728	5.995287	19.789913	5.995287	7.412652E+10	1.106923E-5	90340.534582	18.821234	0.861366	0	0
0	0	0	29.042364	5.995678	19.422748	5.995678	6.35454E+10	1.092469E-5	91535.769616	18.727986	0.860851	0	0
0	0	0	28.746666	5.99566	19.042365	5.99566	5.415811E+10	9.246993E-6	108143.265537	18.686922	0.858752	0	0
0	0	0	28.448518	5.995998	18.658249	5.995998	4.609646E+10	9.044788E-6	110560.905262	18.823894	0.856929	0	0
0	0	0	28.154617	5.996053	18.280055	5.996053	3.9325E+10	7.904938E-6	126503.208855	18.613092	0.856058	0	0
0	0	0	27.867454	5.996074	17.910583	5.996074	3.367066E+10	6.8329E-6	146350.744092	18.811198	0.853087	0	0
0	0	0	27.578699	5.99618	17.538918	5.99618	2.880452E+10	6.144101E-6	162757.734833	18.69387	0.852652	0	0
0	0	0	27.293496	5.996287	17.171821	5.996287	2.468901E+10	5.549395E-6	180199.820462	18.693567	0.849998	0	0
0	0	0	27.007762	5.996597	16.80369	5.996597	2.115544E+10	5.641308E-6	177263.86907	18.820523	0.848414	0	0
0	0	0	26.726031	5.996565	16.441289	5.996565	1.816686E+10	4.752021E-6	210436.773868	18.602833	0.847819	0	0
0	0	0	26.448383	5.996744	16.083777	5.996744	1.563495E+10	4.569827E-6	218826.675089	18.812107	0.844968	0	0
0	0	0	26.170449	5.99677	15.726157	5.99677	1.345383E+10	4.00283E-6	249823.247786	18.678007	0.844175	0	0
0	0	0	25.897334	5.996777	15.374771	5.996777	1.160718E+10	3.469504E-6	288225.639264	18.675851	0.841957	0	0
0	0	0	25.62283	5.996976	15.02126	5.996976	1.000648E+10	3.450791E-6	289788.61499	18.79639	0.840214	0	0
0	0	0	25.347428	5.996903	14.66707	5.996903	8.622341E+9	2.815548E-6	355170.637568	18.592822	0.839502	0	0
0	0	0	25.075865	5.99691	14.317679	5.99691	7.445094E+9	2.443333E-6	409277.045204	18.805419	0.836491	0	0
0	0	0	24.800667	5.997023	13.963421	5.997023	6.415964E+9	2.295936E-6	435552.176341	18.643067	0.836333	0	0
0	0	0	24.523183	5.997056	13.606362	5.997056	5.522259E+9	2.030268E-6	492545.813168	18.67971	0.8336	0	0
0	0	0	24.244677	5.997036	13.248085	5.997036	4.750419E+9	1.718568E-6	581879.897177	18.778989	0.832174	0	0
0	0	0	23.96266	5.997333	12.884705	5.997333	4.078707E+9	1.945673E-6	513961.060979	18.584493	0.831025	0	0
0	0	0	23.680193	5.99736	12.521243	5.99736	3.501126E+9	1.719014E-6	581728.952125	18.789379	0.828411	0	0
0	0	0	23.384822	5.997373	12.141203	5.997373	2.984443E+9	1.487165E-6	672420.157106	18.631401	0.827936	0	0
0	0	0	23.092064	5.997459	11.764387	5.997459	2.547607E+9	1.404614E-6	711939.439993	18.676866	0.825361	0	0
0	0	0	22.79702	5.997149	11.385381	5.997149	2.172025E+9	8.650513E-7	1156000.791827	18.748888	0.824094	0	0
0	0	0	22.50904	5.997327	11.014536	5.997327	1.858898E+9	8.809247E-7	1135170.808278	18.558985	0.823024	0	0
0	0	0	22.219836	5.997327	10.642455	5.997327	1.58986E+9	7.534694E-7	1327193.861943	18.789281	0.819895	0	0
0	0	0	21.926751	5.997452	10.265138	5.997452	1.356911E+9	7.422632E-7	1347230.974412	18.595088	0.819855	0	0
0	0	0	21.626807	5.997571	9.879004	5.997571	1.153807E+9	7.391742E-7	1352861.001124	18.680943	0.816845	0	0
0	0	0	21.331599	5.997578	9.499182	5.997578	9.836195E+8	6.362219E-7	1571778.714696	18.720694	0.816211	0	0
0	0	0	21.034064	5.99742	9.116694	5.99742	8.374803E+8	4.403094E-7	2271130.423362	18.557017	0.814904	0	0
0	0	0	20.733098	5.997545	8.729229	5.997545	7.117324E+8	4.393156E-7	2276267.65214	18.779865	0.812132	0	0
0	0	0	20.430131	5.997598	8.339332	5.997598	6.042116E+8	4.024426E-7	2484826.507569	18.581745	0.811854	0	0
0	0	0	20.124796	5.997862	7.945957	5.997862	5.122776E+8	5.642498E-7	1772264.576069	18.688119	0.809003	0	0
0	0	0	19.815867	5.997796	7.548626	5.997796	4.334889E+8	4.104178E-7	2436541.314527	18.704854	0.808052	0	0
0	0	0	19.504652	5.997816	7.148178	5.997816	3.663648E+8	3.621365E-7	2761389.664454	18.549273	0.806864	0	0
0	0	0	19.187433	5.997868	6.739938	5.997868	3.086314E+8	3.456261E-7	2893300.4009	18.772178	0.803893	0	0
0	0	0	18.869847	5.997875	6.33132	5.997875	2.599443E+8	2.960285E-7	3378052.618101	18.542416	0.804012	0	0
0	0	0	18.548749	5.997987	5.91796	5.997987	2.185224E+8	3.491446E-7	2864142.470756	18.687042	0.800764	0	0
0	0	0	18.226426	5.998033	5.503161	5.998033	1.835794E+8	3.516756E-7	2843529.262287	18.669448	0.80017	0	0
0	0	0	17.90055	5.998007	5.083945	5.998007	1.539281E+8	2.647803E-7	3776715.942071	18.553788	0.798467	0	0
0	0	0	17.568834	5.998119	4.656918	5.998119	1.286592E+8	3.90915E-7	2558100.900556	18.747631	0.796209	0	0
0	0	0	17.231442	5.998007	4.223071	5.998007	1.07209E+8	1.844232E-7	5422310.029177	18.534958	0.795654	0	0
0	0	0	16.886822	5.998053	3.779582	5.998053	8.898657E+7	1.863745E-7	5365541.883461	18.683837	0.792921	0	0
0	0	0	16.540855	5.997967	3.334648	5.997967	7.380766E+7	1.101084E-7	9081960.879348	18.636488	0.792288	0	0
0	0	0	16.189905	5.99804	2.882955	5.99804	6.105325E+7	1.203923E-7	8306176.072681	18.54614	0.790466	0	0
0	0	0	15.832952	5.998264	2.423197	5.998264	5.033926E+7	1.865106E-5	53616.268694	18.730074	0.788208	0	0
0	0	0	15.470364	5.998284	1.956642	5.998284	4.137918E+7	-9.896363E-7	-1010472.223477	18.509703	0.787891	0	0
0	0	0	15.098139	5.998482	1.477282	5.998482	3.383719E+7	-6.949683E-8	-1.438914E+7	18.669978	0.784802	0	0
0	0	0	14.715622	5.998324	0.98549	5.998324	2.751634E+7	-2.103152E-7	-4754769.159119	18.600021	0.784287	0	0
0	0	0	14.320406	5.998264	0.477135	5.998264	2.222314E+7	8.277016E-6	120816.486074	18.532766	0.782425	0	0
0	0	0	13.907466	5.998317	-0.054281	5.998317	1.777704E+7	-1.53246E-7	-6525457.164934	18.705542	0.780682	0	0
0	0	0	13.481173	5.99808	-0.602198	5.99808	1.411817E+7	3.376897E-8	2.961298E+7	18.491925	0.779969	0	0
0	0	0	13.041445	5.998383	-1.168674	5.998383	1.113123E+7	-4.210567E-8	-2.374977E+7	18.68984	0.77684	0	0
0	0	0	12.582278	5.998126	-1.758831	5.998126	8684489	2.763753E-8	3.618269E+7	18.577746	0.776721	0	0
0	0	0	12.088074	5.998311	-2.395124	5.998311	6648438	-6.57132E-8	-1.521764E+7	18.544308	0.774464	0	0
0	0	0	11.561976	5.998245	-3.071848	5.998245	5002733.5	1.060294E-7	9431348.479755	18.683392	0.7728	0	0
0	0	0	10.978299	5.998251	-3.822831	5.998251	3649027.5	1.128141E-7	8864143.461135	18.464797	0.772166	0	0
0	0	0	10.323851	5.998403	-4.66523	5.998403	2561723	-8.293654E-9	-1.205741E+8	18.674036	0.769314	0	0
0	0	0	9.635469	5.998258	-5.550549	5.998258	1765713.5	1.008533E-7	9915394.166497	18.539192	0.769037	0	0
0	0	0	8.974774	5.998594	-6.40147	5.998594	1235402.5	-1.671462E-9	-5.982788E+8	18.548601	0.7667	0	0
0	0	0	8.360592	5.998311	-7.190959	5.998311	886373	-8.760445E-9	-1.141495E+8	18.655411	0.765472	0	0
0	0	0	7.784877	5.998271	-7.931578	5.998271	649315.5	-5.337652E-8	-1.873483E+7	18.445279	0.764482	0	0
0	0	0	7.247468	5.998297	-8.623086	5.998297	485610.5	-6.791007E-9	-1.472536E+8	18.654222	0.761908	0	0
0	0	0	6.741829	5.998429	-9.274001	5.998429	369470	-1.003388E-9	-9.966238E+8	18.50482	0.761551	0	0
0	0	0	6.258324	5.998423	-9.896071	5.998423	284489.5	-8.050368E-10	-1.242179E+9	18.548521	0.759056	0	0
0	0	0	5.788662	5.998482	-10.500509	5.998482	220700.5	-4.532689E-10	-2.206196E+9	18.638928	0.75763	0	0
0	0	0	5.324718	5.998344	-11.097051	5.998344	171744.5	-9.793923E-10	-1.021041E+9	18.438198	0.756758	0	0
0	0	0	4.860079	5.998449	-11.695154	5.998449	133598	-3.236935E-10	-3.089342E+9	18.653504	0.754065	0	0
0	0	0	4.417452	5.998093	-12.263658	5.998093	105168	2.707727E-10	3.693134E+9	18.457233	0.754105	0	0
0	0	0	3.988586	5.998515	-12.816622	5.998515	83406.5	-1.486515E-10	-6.727142E+9	18.533796	0.751411	0	0
0	0	0	3.586835	5.998528	-13.333561	5.998528	67124	-1.136234E-10	-8.801007E+9	18.590706	0.750461	0	0
0	0	0	3.209219	5.99833	-13.81885	5.99833	54730	-3.756687E-10	-2.66192E+9	18.434901	0.748837	0	0
0	0	0	2.857371	5.998423	-14.271807	5.998423	45250.5	-1.28048E-10	-7.809574E+9	18.645543	0.746737	0	0
0	0	0	2.540071	5.998344	-14.679825	5.998344	38118	-2.17372E-10	-4.600408E+9	18.437235	0.746579	0	0
0	0	0	2.25446	5.998383	-15.047411	5.998383	32664.5	-1.235547E-10	-8.09358E+9	18.53974	0.743846	0	0
0	0	0	2.002008	5.99837	-15.372182	5.99837	28497.5	-1.214203E-10	-8.235855E+9	18.554481	0.743054	0	0
0	0	0	1.774385	5.998502	-15.66543	5.998502	25198	-4.741672E-11	-2.108961E+10	18.414477	0.741588	0	0
0	0	0	1.573673	5.998238	-15.9229	5.998238	22607.5	3.645585E-10	2.743044E+9	18.615585	0.739449	0	0
0	0	0	1.395911	5.998502	-16.152383	5.998502	20536	-3.864393E-11	-2.587728E+10	18.401064	0.739251	0	0
0	0	0	1.236608	5.998212	-16.356495	5.998212	18841.5	1.552577E-10	6.440904E+9	18.543226	0.736399	0	0
0	0	0	1.09564	5.998436	-16.538526	5.998436	17459	-4.557788E-11	-2.194047E+10	18.518227	0.735845	0	0
0	0	0	0.972232	5.998297	-16.696897	5.998297	16332	-2.283933E-10	-4.378412E+9	18.412626	0.734221	0	0
0	0	0	0.857726	5.998324	-16.8443	5.998324	15352	-1.173241E-10	-8.523395E+9	18.596654	0.73224	0	0
0	0	0	0.763802	5.998304	-16.965085	5.998304	14592	-1.689985E-10	-5.917212E+9	18.369787	0.732082	0	0
0	0	0	0.677555	5.99837	-17.076247	5.99837	13927	-5.933926E-11	-1.685225E+10	18.551442	0.728992	0	0
0	0	0	0.601722	5.99872	-17.174853	5.99872	13368	-1.309311E-11	-7.637605E+10	18.488115	0.728596	0	0
0	0	0	0.53916	5.998218	-17.253859	5.998218	12923.5	1.21324E-10	8.242392E+9	18.411655	0.726814	0	0
0	0	0	0.489503	5.998449	-17.318434	5.998449	12581	-3.048239E-11	-3.280582E+10	18.578858	0.724992	0	0
0	0	0	0.444378	5.99837	-17.376257	5.99837	12278	-5.231331E-11	-1.91156E+10	18.341978	0.724635	0	0
0	0	0	0.404236	5.998766	-17.429082	5.998766	12014	-1.068058E-11	-9.362787E+10	18.538047	0.721744	0	0
0	0	0	0.370056	5.998311	-17.471705	5.998311	11794.5	-1.165698E-10	-8.578549E+9	18.422691	0.721586	0	0
0	0	0	0.333956	5.998489	-17.518682	5.998489	11566.5	-2.305257E-11	-4.337911E+10	18.403424	0.719605	0	0
0	0	0	0.301695	5.998284	-17.55958	5.998284	11366.5	-2.716869E-10	-3.680708E+9	18.545081	0.717981	0	0
0	0	0	0.279439	5.998528	-17.588942	5.998528	11230.5	-1.90103E-11	-5.260308E+10	18.320466	0.717387	0	0
0	0	0	0.240073	5.998469	-17.639415	5.998469	10994	-2.404441E-11	-4.158971E+10	18.531484	0.714852	0	0
0	0	0	0.225126	5.998548	-17.658881	5.998548	10905.5	-1.716682E-11	-5.825189E+10	18.37988	0.714654	0	0
0	0	0	0.208833	5.998674	-17.680219	5.998674	10810	-1.178658E-11	-8.484227E+10	18.399736	0.712238	0	0
0	0	0	0.17943	5.998647	-17.71797	5.998647	10639.5	-1.240321E-11	-8.062428E+10	18.493919	0.711089	0	0
0	0	0	0.156766	5.998462	-17.74658	5.998462	10510	-2.37567E-11	-4.209339E+10	18.306718	0.71002	0	0
0	0	0	0.148721	5.998462	-17.75693	5.998462	10464.5	-2.365385E-11	-4.227641E+10	18.534795	0.707604	0	0
0	0	0	0.132877	5.998509	-17.777454	5.998509	10375	-1.899308E-11	-5.265076E+10	18.336638	0.707841	0	0
0	0	0	0.110376	5.99837	-17.80599	5.99837	10249.5	-4.367041E-11	-2.28988E+10	18.408255	0.705227	0	0
0	0	0	0.092326	5.99837	-17.829214	5.99837	10150.5	-4.324859E-11	-2.312214E+10	18.455922	0.704593	0	0
0	0	0	0.082403	5.998594	-17.842652	5.998594	10096	-1.365956E-11	-7.320881E+10	18.27773	0.703326	0	0
0	0	0	0.076318	5.998482	-17.850145	5.998482	10062.5	-2.066609E-11	-4.838844E+10	18.514501	0.700632	0	0
0	0	0	0.068886	5.998647	-17.860201	5.998647	10022.5	-1.168393E-11	-8.558763E+10	18.310282	0.70083	0	0
0	0	0	0.059371	5.998614	-17.872344	5.998614	9971	-1.272423E-11	-7.859025E+10	18.412223	0.698256	0	0
0	0	0	0.048059	5.998502	-17.886563	5.998502	9910	-1.864829E-11	-5.362421E+10	18.407691	0.697781	0	0
0	0	0	0.037197	5.998535	-17.900638	5.998535	9852	-1.626831E-11	-6.14692E+10	18.267734	0.696473	0	0
0	0	0	0.025762	5.998548	-17.915389	5.998548	9791.5	-1.541323E-11	-6.487934E+10	18.482492	0.694176	0	0
0	0	0	0.018003	5.998172	-17.924246	5.998172	9750.5	4.634914E-11	2.157537E+10	18.25463	0.694216	0	0
0	0	0	0.013797	5.998377	-17.93027	5.998377	9728.5	-3.89862E-11	-2.56501E+10	18.408801	0.691324	0	0
0	0	0	0.00955	5.998476	-17.93603	5.998476	9706	-2.056038E-11	-4.863723E+10	18.365406	0.691087	0	0
0	0	0	0.005752	5.998449	-17.940838	5.998449	9686	-2.346812E-11	-4.261099E+10	18.268268	0.689383	0	0
0	0	0	0.004323	5.998357	-17.9424	5.998357	9678.5	-4.720533E-11	-2.118405E+10	18.461865	0.687561	0	0
0	0	0	0.002485	5.998304	-17.944607	5.998304	9669	-1.119824E-10	-8.929978E+9	18.228629	0.687363	0	0
0	0	0	0.000648	5.998357	-17.947129	5.998357	9659.5	-4.711266E-11	-2.122572E+10	18.407522	0.684987	0	0
0	0	0	-0.003518	5.998489	-17.952883	5.998489	9637.5	-1.920799E-11	-5.206168E+10	18.326287	0.684512	0	0
0	0	0	-0.005927	5.998733	-17.956714	5.998733	9625	-9.160851E-12	-1.091602E+11	18.264473	0.682888	0	0
0	0	0	-0.010541	5.998231	-17.96115	5.998231	9601	1.249332E-10	8.00428E+9	18.42315	0.681224	0	0
0	0	0	-0.0134	5.99835	-17.965183	5.99835	9586	-5.040115E-11	-1.984082E+10	18.195484	0.680669	0	0
0	0	0	-0.020751	5.998555	-17.975253	5.998555	9548.5	-1.46877E-11	-6.808418E+10	18.399384	0.678095	0	0
0	0	0	-0.024222	5.998357	-17.979126	5.998357	9530.5	-4.648348E-11	-2.151302E+10	18.265724	0.678095	0	0
0	0	0	-0.02998	5.998377	-17.986594	5.998377	9500.5	-3.807251E-11	-2.626567E+10	18.271491	0.676035	0	0
0	0	0	-0.035942	5.998555	-17.994798	5.998555	9470	-1.456695E-11	-6.864855E+10	18.380574	0.674768	0	0
0	0	0	-0.040475	5.998119	-17.999326	5.998119	9447	2.870935E-11	3.483185E+10	18.169995	0.674134	0	0
0	0	0	-0.04562	5.998337	-18.006599	5.998337	9420.5	-5.868643E-11	-1.703971E+10	18.379056	0.671757	0	0
0	0	0	-0.049826	5.998251	-18.011753	5.998251	9399.5	2.906292E-10	3.44081E+9	18.208564	0.671757	0	0
0	0	0	-0.055176	5.998284	-18.018735	5.998284	9372	-2.240135E-10	-4.464017E+9	18.259839	0.669579	0	0
0	0	0	-0.057667	5.998423	-18.022355	5.998423	9359.5	-2.648512E-11	-3.775705E+10	18.322854	0.668668	0	0
0	0	0	-0.061301	5.998462	-18.02715	5.998462	9341	-2.11143E-11	-4.736126E+10	18.155705	0.6674	0	0
0	0	0	-0.062281	5.998489	-18.02849	5.998489	9336	-1.860708E-11	-5.374298E+10	18.365812	0.665143	0	0
0	0	0	-0.063384	5.998297	-18.029335	5.998297	9330.5	-1.304815E-10	-7.663922E+9	18.15247	0.665103	0	0
0	0	0	-0.065099	5.998495	-18.032135	5.998495	9322	-1.80456E-11	-5.541517E+10	18.26681	0.662806	0	0
0	0	0	-0.067018	5.998522	-18.034684	5.998522	9312.5	-1.616969E-11	-6.184409E+10	18.271436	0.66237	0	0
0	0	0	-0.0671	5.998429	-18.034512	5.998429	9312	-2.528903E-11	-3.954283E+10	18.139751	0.661023	0	0
0	0	0	-0.068121	5.998542	-18.036162	5.998542	9307	-1.500088E-11	-6.666276E+10	18.353782	0.658845	0	0
0	0	0	-0.068774	5.998482	-18.036824	5.998482	9303.5	-1.910728E-11	-5.233608E+10	18.130634	0.658885	0	0
0	0	0	-0.069755	5.998436	-18.037947	5.998436	9298.5	-2.427435E-11	-4.119574E+10	18.289925	0.656072	0	0
0	0	0	-0.070694	5.998588	-18.03961	5.998588	9294	-1.283205E-11	-7.792989E+10	18.21484	0.655993	0	0
0	0	0	-0.071429	5.998495	-18.040279	5.998495	9290.5	-1.798462E-11	-5.560305E+10	18.126926	0.654488	0	0
0	0	0	-0.07147	5.998489	-18.040312	5.998489	9290	-1.85154E-11	-5.400909E+10	18.306759	0.652626	0	0
0	0	0	-0.073552	5.998456	-18.042893	5.998456	9279.5	-2.170309E-11	-4.607638E+10	18.067089	0.652428	0	0
0	0	0	-0.07343	5.998614	-18.043209	5.998614	9280	-1.184242E-11	-8.444217E+10	18.266525	0.649973	0	0
0	0	0	-0.073511	5.998324	-18.042445	5.998324	9280	-7.092028E-11	-1.410034E+10	18.151002	0.649616	0	0
0	0	0	-0.074328	5.998403	-18.043733	5.998403	9275.5	-3.002947E-11	-3.330062E+10	18.122298	0.647834	0	0
0	0	0	-0.074042	5.998297	-18.043049	5.998297	9277	-1.297333E-10	-7.70812E+9	18.256585	0.646487	0	0
0	0	0	-0.075757	5.998403	-18.045572	5.998403	9268.5	-3.00068E-11	-3.332577E+10	18.018011	0.646328	0	0
0	0	0	-0.076125	5.998542	-18.04646	5.998542	9266.5	-1.49356E-11	-6.695411E+10	18.239845	0.643635	0	0
0	0	0	-0.077473	5.998291	-18.047442	5.998291	9260	-1.63395E-10	-6.12014E+9	18.093846	0.643556	0	0
0	0	0	-0.076207	5.998482	-18.046387	5.998482	9266.5	-1.903129E-11	-5.254505E+10	18.138524	0.641219	0	0
0	0	0	-0.076411	5.998482	-18.04665	5.998482	9265.5	-1.902923E-11	-5.255072E+10	18.217732	0.640268	0	0
0	0	0	-0.07686	5.998594	-18.047564	5.998594	9263	-1.253254E-11	-7.979231E+10	18.000677	0.639833	0	0
0	0	0	-0.077309	5.998324	-18.047331	5.998324	9260.5	-7.077125E-11	-1.413003E+10	18.223803	0.637337	0	0
0	0	0	-0.077554	5.998462	-18.048061	5.998462	9259.5	-2.093008E-11	-4.777812E+10	18.017955	0.637654	0	0
0	0	0	-0.07686	5.998502	-18.047287	5.998502	9263	-1.743079E-11	-5.736974E+10	18.127799	0.63504	0	0
0	0	0	-0.07686	5.998482	-18.047228	5.998482	9263	-1.90241E-11	-5.256491E+10	18.149168	0.634604	0	0
0	0	0	-0.076656	5.998317	-18.046471	5.998317	9264	-7.985145E-11	-1.252325E+10	18.002443	0.633416	0	0
0	0	0	-0.07686	5.998555	-18.047445	5.998555	9263	-1.424854E-11	-7.018264E+10	18.224906	0.631277	0	0
0	0	0	-0.076003	5.998462	-18.046065	5.998462	9267.5	-2.094816E-11	-4.773688E+10	17.997024	0.631317	0	0
0	0	0	-0.076819	5.998377	-18.046859	5.998377	9263.5	-3.712275E-11	-2.693766E+10	18.13582	0.628821	0	0
0	0	0	-0.07637	5.998575	-18.046874	5.998575	9265.5	-1.333916E-11	-7.496724E+10	18.083749	0.628782	0	0
0	0	0	-0.075921	5.998627	-18.046454	5.998627	9267.5	-1.139501E-11	-8.775774E+10	17.997929	0.627197	0	0
0	0	0	-0.076411	5.998515	-18.046748	5.998515	9265.5	-1.651347E-11	-6.055662E+10	18.181098	0.625217	0	0
0	0	0	-0.076574	5.998548	-18.047057	5.998548	9264.5	-1.458365E-11	-6.856992E+10	17.932689	0.625613	0	0
0	0	0	-0.076288	5.998502	-18.046551	5.998502	9266	-1.743644E-11	-5.735117E+10	18.13633	0.62284	0	0
0	0	0	-0.078126	5.998443	-18.048738	5.998443	9256.5	-2.326371E-11	-4.29854E+10	18.0161	0.623078	0	0
0	0	0	-0.07735	5.998264	-18.047206	5.998264	9260.5	3.467791E-9	2.88368E+8	17.975722	0.621296	0	0
0	0	0	-0.077473	5.998522	-18.048134	5.998522	9260	-1.607854E-11	-6.219472E+10	18.120625	0.620028	0	0
0	0	0	-0.077963	5.998126	-18.047578	5.998126	9257.5	2.946177E-11	3.39423E+10	17.89869	0.619592	0	0
0	0	0	-0.077595	5.998449	-18.048074	5.998449	9259	-2.243355E-11	-4.457609E+10	18.133446	0.616978	0	0
0	0	0	-0.078739	5.998291	-18.049071	5.998291	9253.5	-1.632803E-10	-6.124439E+9	17.966575	0.617216	0	0
0	0	0	-0.077718	5.998284	-18.047738	5.998284	9258.5	-2.213006E-10	-4.518741E+9	18.003387	0.614998	0	0
0	0	0	-0.078943	5.998324	-18.049433	5.998324	9252.5	-7.071011E-11	-1.414225E+10	18.072212	0.614324	0	0
0	0	0	-0.07882	5.998192	-18.04888	5.998192	9253.5	5.578986E-11	1.79244E+10	17.865025	0.613889	0	0
0	0	0	-0.079759	5.998317	-18.050464	5.998317	9248.5	-7.971785E-11	-1.254424E+10	18.092499	0.611591	0	0
0	0	0	-0.080903	5.998443	-18.05231	5.998443	9242.5	-2.322853E-11	-4.305051E+10	17.895159	0.611473	0	0
0	0	0	-0.0827	5.998581	-18.055038	5.998581	9234	-1.301581E-11	-7.682962E+10	17.999699	0.609136	0	0
0	0	0	-0.083231	5.998495	-18.055464	5.998495	9231.5	-1.787041E-11	-5.595842E+10	18.008257	0.6087	0	0
0	0	0	-0.0827	5.998608	-18.055117	5.998608	9234	-1.201112E-11	-8.325619E+10	17.861444	0.607749	0	0
0	0	0	-0.084823	5.998535	-18.057631	5.998535	9223.5	-1.523049E-11	-6.565778E+10	18.0566	0.606046	0	0
0	0	0	-0.084905	5.998548	-18.057776	5.998548	9222.5	-1.451754E-11	-6.888219E+10	17.826924	0.606007	0	0
0	0	0	-0.086743	5.998403	-18.059705	5.998403	9213.5	-2.982874E-11	-3.352471E+10	17.997779	0.603432	0	0
0	0	0	-0.085395	5.998522	-18.058327	5.998522	9220.5	-1.600995E-11	-6.246116E+10	17.948358	0.603313	0	0
0	0	0	-0.086824	5.998773	-18.060918	5.998773	9213.5	-8.08428E-12	-1.236968E+11	17.871129	0.60161	0	0
0	0	0	-0.087233	5.998429	-18.060415	5.998429	9211.5	-2.50161E-11	-3.997426E+10	18.036778	0.600224	0	0
0	0	0	-0.08809	5.998317	-18.061182	5.998317	9207	-7.936014E-11	-1.260078E+10	17.783674	0.600144	0	0
0	0	0	-0.088172	5.998423	-18.061603	5.998423	9206.5	-2.605217E-11	-3.838453E+10	17.977304	0.597689	0	0
0	0	0	-0.089029	5.998456	-18.062806	5.998456	9202	-2.152183E-11	-4.646444E+10	17.856473	0.597768	0	0
0	0	0	-0.09005	5.998575	-18.064475	5.998575	9197	-1.324054E-11	-7.55256E+10	17.840564	0.596144	0	0
0	0	0	-0.088907	5.998502	-18.062787	5.998502	9202.5	-1.731694E-11	-5.774691E+10	17.977715	0.594797	0	0
0	0	0	-0.089029	5.998469	-18.062845	5.998469	9202	-2.012522E-11	-4.96889E+10	17.759854	0.594401	0	0
0	0	0	-0.090091	5.998548	-18.064449	5.998548	9197	-1.44774E-11	-6.907318E+10	17.979978	0.592143	0	0
0	0	0	-0.089969	5.998436	-18.063955	5.998436	9197.5	-2.401069E-11	-4.164812E+10	17.78677	0.592421	0	0
0	0	0	-0.08858	5.998515	-18.062406	5.998515	9204.5	-1.640475E-11	-6.095794E+10	17.84169	0.590321	0	0
0	0	0	-0.088825	5.998383	-18.062325	5.998383	9203.5	-3.481259E-11	-2.872524E+10	17.8866	0.589688	0	0
0	0	0	-0.087437	5.998594	-18.061172	5.998594	9210	-1.246083E-11	-8.025148E+10	17.723608	0.588697	0	0
0	0	0	-0.087804	5.998608	-18.061684	5.998608	9208.5	-1.197795E-11	-8.348674E+10	17.955179	0.586598	0	0
0	0	0	-0.087804	5.99837	-18.060972	5.99837	9208.5	-3.923498E-11	-2.548746E+10	17.725325	0.586955	0	0
0	0	0	-0.086702	5.99835	-18.059494	5.99835	9214	-4.844525E-11	-2.064186E+10	17.84853	0.584578	0	0
0	0	0	-0.085517	5.998198	-18.057516	5.998198	9220	6.104838E-11	1.638045E+10	17.824016	0.584459	0	0
0	0	0	-0.084742	5.99839	-18.057091	5.99839	9223.5	-3.303446E-11	-3.027142E+10	17.721951	0.582914	0	0
0	0	0	-0.084864	5.99839	-18.057249	5.99839	9223	-3.303267E-11	-3.027306E+10	17.899326	0.581726	0	0
0	0	0	-0.083394	5.998476	-18.055614	5.998476	9230.5	-1.955312E-11	-5.114273E+10	17.692761	0.58137	0	0
0	0	0	-0.083884	5.998363	-18.055909	5.998363	9228	-4.197111E-11	-2.382592E+10	17.88393	0.578835	0	0
0	0	0	-0.083802	5.998693	-18.056792	5.998693	9228.5	-9.596505E-12	-1.042046E+11	17.754597	0.579191	0	0
0	0	0	-0.083353	5.998522	-18.0557	5.998522	9230.5	-1.602731E-11	-6.239349E+10	17.719072	0.577567	0	0
0	0	0	-0.081311	5.998429	-18.052796	5.998429	9240.5	-2.509486E-11	-3.98488E+10	17.854629	0.576458	0	0
0	0	0	-0.079637	5.998548	-18.050998	5.998548	9249	-1.455925E-11	-6.868483E+10	17.623064	0.576181	0	0
0	0	0	-0.081107	5.99833	-18.052237	5.99833	9242	-6.343742E-11	-1.576357E+10	17.842569	0.573725	0	0
0	0	0	-0.08078	5.99833	-18.051817	5.99833	9243.5	-6.344771E-11	-1.576101E+10	17.670814	0.574161	0	0
0	0	0	-0.08176	5.998522	-18.053651	5.998522	9238.5	-1.60412E-11	-6.233946E+10	17.72979	0.571982	0	0
0	0	0	-0.080576	5.998337	-18.051574	5.998337	9244.5	-5.759002E-11	-1.736412E+10	17.793794	0.571428	0	0
0	0	0	-0.080331	5.998416	-18.051496	5.998416	9245.5	-2.7309E-11	-3.661797E+10	17.595426	0.571151	0	0
0	0	0	-0.080413	5.99837	-18.051462	5.99837	9245	-3.93905E-11	-2.538683E+10	17.828176	0.568932	0	0
0	0	0	-0.081842	5.998297	-18.053084	5.998297	9238	-1.291879E-10	-7.740661E+9	17.611932	0.56917	0	0
0	0	0	-0.081025	5.998099	-18.05144	5.998099	9242	2.474009E-11	4.042023E+10	17.717873	0.56715	0	0
0	0	0	-0.083026	5.998317	-18.054667	5.998317	9232	-7.957563E-11	-1.256666E+10	17.713073	0.566794	0	0
0	0	0	-0.081965	5.998403	-18.053558	5.998403	9237.5	-2.990644E-11	-3.343761E+10	17.593316	0.565685	0	0
0	0	0	-0.083884	5.998238	-18.055533	5.998238	9228	1.488066E-10	6.72013E+9	17.78474	0.564061	0	0
0	0	0	-0.083925	5.998443	-18.056199	5.998443	9227.5	-2.319083E-11	-4.312049E+10	17.533923	0.564338	0	0
0	0	0	-0.084211	5.998548	-18.056883	5.998548	9226.5	-1.452384E-11	-6.885233E+10	17.727121	0.561882	0	0
0	0	0	-0.084333	5.998291	-18.056269	5.998291	9225.5	-1.627862E-10	-6.143027E+9	17.632653	0.562159	0	0
0	0	0	-0.085477	5.998502	-18.058373	5.998502	9220	-1.734988E-11	-5.76373E+10	17.589217	0.560496	0	0
0	0	0	-0.086252	5.998429	-18.059154	5.998429	9216	-2.502832E-11	-3.995474E+10	17.739075	0.559268	0	0
0	0	0	-0.087478	5.998641	-18.061363	5.998641	9210	-1.09257E-11	-9.152728E+10	17.505162	0.559308	0	0
0	0	0	-0.088417	5.99841	-18.061879	5.99841	9205.5	-2.843699E-11	-3.516546E+10	17.733267	0.55701	0	0
0	0	0	-0.090459	5.998509	-18.064803	5.998509	9195	-1.68329E-11	-5.940747E+10	17.558992	0.557406	0	0
0	0	0	-0.090336	5.998449	-18.064467	5.998449	9195.5	-2.22797E-11	-4.488392E+10	17.613639	0.555228	0	0
0	0	0	-0.089846	5.998693	-18.064568	5.998693	9198.5	-9.565309E-12	-1.045445E+11	17.675088	0.554634	0	0
0	0	0	-0.091153	5.998396	-18.06536	5.998396	9191.5	-3.125891E-11	-3.199088E+10	17.483934	0.554119	0	0
0	0	0	-0.091561	5.998469	-18.066103	5.998469	9190	-2.009897E-11	-4.975378E+10	17.700582	0.552138	0	0
0	0	0	-0.092174	5.998476	-18.066911	5.998476	9186.5	-1.945991E-11	-5.138769E+10	17.460058	0.552614	0	0
0	0	0	-0.09148	5.998251	-18.065345	5.998251	9190	2.841516E-10	3.519249E+9	17.597022	0.550277	0	0
0	0	0	-0.092582	5.998522	-18.067575	5.998522	9184.5	-1.594744E-11	-6.270598E+10	17.571283	0.550316	0	0
0	0	0	-0.093358	5.998403	-18.068217	5.998403	9180.5	-2.97219E-11	-3.364522E+10	17.463641	0.549009	0	0
0	0	0	-0.090745	5.99835	-18.064696	5.99835	9193.5	-4.833747E-11	-2.068789E+10	17.659525	0.547346	0	0
0	0	0	-0.092746	5.998449	-18.067567	5.998449	9184	-2.225183E-11	-4.494012E+10	17.421643	0.547464	0	0
0	0	0	-0.092909	5.998522	-18.067995	5.998522	9183	-1.594484E-11	-6.271623E+10	17.61229	0.545088	0	0
0	0	0	-0.093358	5.998423	-18.068276	5.998423	9180.5	-2.597859E-11	-3.849323E+10	17.481624	0.545603	0	0
0	0	0	-0.091929	5.998594	-18.066951	5.998594	9187.5	-1.243039E-11	-8.044802E+10	17.462084	0.543979	0	0
0	0	0	-0.092582	5.998344	-18.067041	5.998344	9184.5	-5.237561E-11	-1.909286E+10	17.604151	0.542593	0	0
0	0	0	-0.091153	5.998641	-18.066092	5.998641	9191.5	-1.090376E-11	-9.17115E+10	17.374476	0.542394	0	0
0	0	0	-0.088744	5.998568	-18.062774	5.998568	9203.5	-1.353907E-11	-7.38603E+10	17.605856	0.540058	0	0
0	0	0	-0.088621	5.998423	-18.062181	5.998423	9204	-2.604509E-11	-3.839495E+10	17.397654	0.540771	0	0
0	0	0	-0.089397	5.998423	-18.06318	5.998423	9200.5	-2.603519E-11	-3.840956E+10	17.451599	0.538711	0	0
0	0	0	-0.089193	5.998291	-18.062522	5.998291	9201.5	-1.623627E-10	-6.15905E+9	17.503131	0.538196	0	0
0	0	0	-0.088662	5.998495	-18.062452	5.998495	9204	-1.781718E-11	-5.612562E+10	17.31868	0.537602	0	0
0	0	0	-0.087845	5.998535	-18.061519	5.998535	9208	-1.520489E-11	-6.576831E+10	17.559399	0.535582	0	0
0	0	0	-0.087069	5.998311	-18.059849	5.998311	9212	-9.104594E-11	-1.098347E+10	17.331682	0.53574	0	0
0	0	0	-0.085232	5.998509	-18.058078	5.998509	9221.5	-1.688141E-11	-5.923675E+10	17.472468	0.533403	0	0
0	0	0	-0.084742	5.998284	-18.056775	5.998284	9223.5	-2.20464E-10	-4.535888E+9	17.415352	0.533482	0	0
0	0	0	-0.082945	5.998443	-18.054938	5.998443	9232.5	-2.32034E-11	-4.309714E+10	17.305109	0.532453	0	0
0	0	0	-0.084211	5.998337	-18.05625	5.998337	9226.5	-5.747788E-11	-1.7398E+10	17.467949	0.531066	0	0
0	0	0	-0.083761	5.998429	-18.055949	5.998429	9228.5	-2.506227E-11	-3.990062E+10	17.235094	0.531225	0	0
0	0	0	-0.083476	5.998251	-18.055047	5.998251	9230	2.853883E-10	3.503997E+9	17.456622	0.52869	0	0
0	0	0	-0.083067	5.998575	-18.055491	5.998575	9232	-1.329093E-11	-7.523927E+10	17.308155	0.529125	0	0
0	0	0	-0.084292	5.998396	-18.056533	5.998396	9226	-3.137623E-11	-3.187126E+10	17.31596	0.527185	0	0
0	0	0	-0.082945	5.998311	-18.054542	5.998311	9232.5	-9.124855E-11	-1.095908E+10	17.413551	0.52663	0	0
0	0	0	-0.082863	5.998231	-18.0542	5.998231	9233	1.201446E-10	8.323307E+9	17.202565	0.526234	0	0
0	0	0	-0.082291	5.998469	-18.054176	5.998469	9236	-2.019958E-11	-4.950598E+10	17.424145	0.524135	0	0
0	0	0	-0.08319	5.998522	-18.05549	5.998522	9231.5	-1.602905E-11	-6.238673E+10	17.222839	0.524452	0	0
0	0	0	-0.084374	5.998535	-18.057053	5.998535	9225.5	-1.523379E-11	-6.564355E+10	17.3252	0.522471	0	0
0	0	0	-0.08368	5.998284	-18.055409	5.998284	9229	-2.205955E-10	-4.533185E+9	17.34397	0.522075	0	0
0	0	0	-0.084252	5.998469	-18.056698	5.998469	9226	-2.017771E-11	-4.955964E+10	17.171762	0.521283	0	0
0	0	0	-0.085272	5.99837	-18.057715	5.99837	9221	-3.928824E-11	-2.545291E+10	0	0	0	0
0	0	0	-0.08515	5.998337	-18.057458	5.998337	9221.5	-5.744673E-11	-1.740743E+10	0	0	0	0
0	0	0	-0.085272	5.998588	-18.058367	5.998588	9221	-1.273126E-11	-7.854684E+10	0	0	0	0
0	0	0	-0.086538	5.998396	-18.059423	5.998396	9215	-3.133883E-11	-3.19093E+10	0	0	0	0
0	0	0	-0.088784	5.998588	-18.062886	5.998588	9203.5	-1.270709E-11	-7.869619E+10	0	0	0	0
0	0	0	-0.089193	5.998608	-18.063471	5.998608	9201.5	-1.196885E-11	-8.355025E+10	0	0	0	0
0	0	0	-0.089928	5.998403	-18.063803	5.998403	9197.5	-2.977694E-11	-3.358303E+10	0	0	0	0
0	0	0	-0.090826	5.998489	-18.065216	5.998489	9193.5	-1.832307E-11	-5.4576E+10	0	0	0	0
0	0	0	-0.091643	5.998588	-18.066564	5.998588	9189	-1.268707E-11	-7.882038E+10	0	0	0	0
0	0	0	-0.09152	5.998542	-18.066268	5.998542	9190	-1.48123E-11	-6.751146E+10	0	0	0	0
0	0	0	-0.093399	5.998535	-18.068665	5.998535	9180.5	-1.515948E-11	-6.596531E+10	0	0	0	0
0	0	0	-0.092705	5.998542	-18.067792	5.998542	9184	-1.480263E-11	-6.755556E+10	0	0	0	0
0	0	0	-0.093072	5.998654	-18.068601	5.998654	9182	-1.052212E-11	-9.503787E+10	0	0	0	0
0	0	0	-0.093521	5.998561	-18.068902	5.998561	9180	-1.380581E-11	-7.243328E+10	0	0	0	0
0	0	0	-0.093766	5.998746	-18.069771	5.998746	9178.5	-8.495952E-12	-1.177031E+11	0	0	0	0
0	0	0	-0.09442	5.998377	-18.069504	5.998377	9175.5	-3.67701E-11	-2.719601E+10	0	0	0	0
0	0	0	-0.096217	5.998337	-18.071697	5.998337	9166.5	-5.71041E-11	-1.751188E+10	0	0	0	0
0	0	0	-0.0954	5.998357	-18.070706	5.998357	9170.5	-4.472764E-11	-2.235754E+10	0	0	0	0
0	0	0	-0.094583	5.998456	-18.069951	5.998456	9175	-2.145869E-11	-4.660118E+10	0	0	0	0
0	0	0	-0.096421	5.99839	-18.072118	5.99839	9165.5	-3.282673E-11	-3.046298E+10	0	0	0	0
0	0	0	-0.093481	5.998515	-18.068711	5.998515	9180	-1.636109E-11	-6.112063E+10	0	0	0	0
0	0	0	-0.094951	5.998522	-18.070622	5.998522	9172.5	-1.592661E-11	-6.278802E+10	0	0	0	0
0	0	0	-0.095114	5.998304	-18.07018	5.998304	9172	-1.062263E-10	-9.413864E+9	0	0	0	0
0	0	0	-0.094787	5.998614	-18.070689	5.998614	9173.5	-1.170652E-11	-8.542251E+10	0	0	0	0
0	0	0	-0.092582	5.998469	-18.067416	5.998469	9184.5	-2.008695E-11	-4.978358E+10	0	0	0	0
0	0	0	-0.092746	5.998561	-18.067903	5.998561	9184	-1.381182E-11	-7.240173E+10	0	0	0	0
0	0	0	-0.091398	5.99839	-18.065655	5.99839	9190.5	-3.291626E-11	-3.038012E+10	0	0	0	0
0	0	0	-0.091235	5.998456	-18.065643	5.998456	9191.5	-2.149728E-11	-4.651752E+10	0	0	0	0
0	0	0	-0.089764	5.998423	-18.063653	5.998423	9198.5	-2.602953E-11	-3.841791E+10	0	0	0	0
0	0	0	-0.088294	5.998568	-18.062196	5.998568	9206	-1.354275E-11	-7.384024E+10	0	0	0	0
0	0	0	-0.086906	5.998251	-18.059461	5.998251	9212.5	2.848473E-10	3.510653E+9	0	0	0	0
0	0	0	-0.087355	5.998429	-18.060572	5.998429	9210.5	-2.501338E-11	-3.99786E+10	0	0	0	0
0	0	0	-0.086375	5.998416	-18.059272	5.998416	9215.5	-2.722039E-11	-3.673717E+10	0	0	0	0
0	0	0	-0.087314	5.998165	-18.059729	5.998165	9210.5	4.089804E-11	2.445105E+10	0	0	0	0
0	0	0	-0.085885	5.998495	-18.058879	5.998495	9218	-1.784428E-11	-5.604038E+10	0	0	0	0
0	0	0	-0.084456	5.998522	-18.057119	5.998522	9225	-1.601776E-11	-6.243069E+10	0	0	0	0
0	0	0	-0.084987	5.998396	-18.057426	5.998396	9222.5	-3.136433E-11	-3.188335E+10	0	0	0	0
0	0	0	-0.084456	5.998311	-18.056486	5.998311	9225	-9.117442E-11	-1.096799E+10	0	0	0	0
0	0	0	-0.084252	5.998357	-18.056362	5.998357	9226	-4.499833E-11	-2.222305E+10	0	0	0	0
0	0	0	-0.08515	5.998654	-18.058408	5.998654	9221.5	-1.056739E-11	-9.463078E+10	0	0	0	0
0	0	0	-0.083966	5.998383	-18.056073	5.998383	9227.5	-3.490337E-11	-2.865053E+10	0	0	0	0
0	0	0	-0.084292	5.998522	-18.056909	5.998522	9226	-1.60195E-11	-6.242392E+10	0	0	0	0
0	0	0	-0.084701	5.998357	-18.05694	5.998357	9224	-4.498858E-11	-2.222786E+10	0	0	0	0
0	0	0	-0.084946	5.998456	-18.057552	5.998456	9222.5	-2.156978E-11	-4.636116E+10	0	0	0	0
0	0	0	-0.083884	5.998324	-18.05579	5.998324	9228	-7.052288E-11	-1.41798E+10	0	0	0	0
0	0	0	-0.085477	5.998588	-18.05863	5.998588	9220	-1.272988E-11	-7.855536E+10	0	0	0	0
0	0	0	-0.085477	5.998429	-18.058156	5.998429	9220	-2.503918E-11	-3.99374E+10	0	0	0	0
0	0	0	-0.087273	5.998528	-18.060764	5.998528	9211	-1.559181E-11	-6.413623E+10	0	0	0	0
0	0	0	-0.088335	5.99837	-18.061655	5.99837	9205.5	-3.92222E-11	-2.549577E+10	0	0	0	0
0	0	0	-0.087396	5.998357	-18.060407	5.998357	9210.5	-4.492274E-11	-2.226044E+10	0	0	0	0
0	0	0	-0.087314	5.998482	-18.060678	5.998482	9210.5	-1.891628E-11	-5.286453E+10	0	0	0	0
0	0	0	-0.088172	5.998522	-18.0619	5.998522	9206.5	-1.598564E-11	-6.255614E+10	0	0	0	0
0	0	0	-0.090173	5.998601	-18.064712	5.998601	9196.5	-1.219773E-11	-8.198248E+10	0	0	0	0
0	0	0	-0.090663	5.998443	-18.064868	5.998443	9194	-2.310664E-11	-4.327761E+10	0	0	0	0
0	0	0	-0.092092	5.99839	-18.066549	5.99839	9187	-3.290373E-11	-3.039169E+10	0	0	0	0
0	0	0	-0.093889	5.998337	-18.068702	5.998337	9178	-5.717574E-11	-1.748993E+10	0	0	0	0
0	0	0	-0.092909	5.998416	-18.067678	5.998416	9183	-2.712439E-11	-3.686719E+10	0	0	0	0
0	0	0	-0.094787	5.998509	-18.070372	5.998509	9173.5	-1.679354E-11	-5.95467E+10	0	0	0	0
0	0	0	-0.094501	5.998555	-18.070143	5.998555	9175	-1.411317E-11	-7.085578E+10	0	0	0	0
0	0	0	-0.094869	5.99837	-18.070062	5.99837	9173.5	-3.908585E-11	-2.55847E+10	0	0	0	0
0	0	0	-0.095686	5.998555	-18.071667	5.998555	9169	-1.410395E-11	-7.090215E+10	0	0	0	0
0	0	0	-0.095482	5.998581	-18.071483	5.998581	9170	-1.29256E-11	-7.736583E+10	0	0	0	0
0	0	0	-0.096339	5.998297	-18.071736	5.998297	9166	-1.281811E-10	-7.801465E+9	0	0	0	0
0	0	0	-0.096257	5.998641	-18.072659	5.998641	9166.5	-1.08741E-11	-9.196163E+10	0	0	0	0
0	0	0	-0.097442	5.998416	-18.073511	5.998416	9160.5	-2.705793E-11	-3.695774E+10	0	0	0	0
0	0	0	-0.0954	5.998324	-18.070607	5.998324	9170.5	-7.008345E-11	-1.42687E+10	0	0	0	0
0	0	0	-0.0954	5.998449	-18.070982	5.998449	9170.5	-2.221912E-11	-4.500628E+10	0	0	0	0
0	0	0	-0.096952	5.998542	-18.073256	5.998542	9163	-1.476878E-11	-6.771039E+10	0	0	0	0
0	0	0	-0.095196	5.998561	-18.071056	5.998561	9171.5	-1.379303E-11	-7.250041E+10	0	0	0	0
0	0	0	-0.093154	5.998357	-18.067816	5.998357	9182	-4.478373E-11	-2.232954E+10	0	0	0	0
0	0	0	-0.094175	5.998245	-18.068793	5.998245	9176.5	1.945096E-10	5.141135E+9	0	0	0	0
0	0	0	-0.091765	0	-0.091765	0	9188.5	0	0	0	0	0	0
0	0	0	-0.093521	0	-0.093521	0	9180	0	0	0	0	0	0
