Vload_(V)	ILoad_(A)	RsLoad (ohm)	SunsVoc_Voltage_(V)	SunsVoc_Current_(A)	Model_Voltage_(V)	Model_Current_(A)	Carrier_Density_(cm-3)	Lifetime_(s)	Inverse_Lifetime_(s-1)	Efficiency_(%)	Intensity_(suns)	Dark_IV_Voltage_(V)	Dark_IV_Current_(A)
2.695464	5.992581	0	51.594273	-0.680892	51.951205	-0.680892	6.684584E+15	0.000446	2170.066237	19.031843	1.120014	0	0
2.686326	5.991631	3.788973	52.050417	-0.850199	52.481225	-0.850199	7.890449E+15	0.000513	1846.147791	19.111358	1.118469	0	0
3.240982	5.99609	-0.548565	52.09546	-0.555026	52.37574	-0.555026	8.018757E+15	0.000545	1728.816543	19.094991	1.119935	0	0
6.744969	5.988842	4.124603	52.014155	-0.140608	52.085598	-0.140608	7.7884E+15	0.000565	1669.537121	18.974549	1.118945	0	0
10.721065	5.989786	3.232738	51.891522	0.266537	51.754839	0.266537	7.451407E+15	0.000579	1635.292437	19.122375	1.118271	0	0
14.126441	5.98828	2.999187	51.747002	0.647637	51.411296	0.647637	7.069934E+15	0.000588	1616.520928	18.919471	1.118152	0	0
17.938988	5.98779	2.444915	51.604809	0.997089	51.082524	0.997089	6.710594E+15	0.000598	1598.683555	19.05868	1.115974	0	0
21.610313	5.991208	0.878132	51.466046	1.322241	50.766405	1.322241	6.374675E+15	0.000607	1579.501014	18.948302	1.11633	0	0
25.314009	5.986695	1.358214	51.330142	1.623667	50.46254	1.623667	6.059317E+15	0.000617	1559.898611	18.89826	1.114508	0	0
28.823655	5.986002	0.851862	51.186029	1.910764	50.154455	1.910764	5.739153E+15	0.000625	1544.136432	18.99774	1.113439	0	0
32.449015	5.977919	0.776218	51.048206	2.175412	49.862251	2.175412	5.4462E+15	0.000635	1526.340022	18.789343	1.112964	0	0
36.053148	5.944814	0.81235	50.909811	2.420068	49.57763	2.420068	5.164608E+15	0.000643	1510.715611	18.955404	1.110785	0	0
37.115021	5.91854	0.838795	50.775458	2.642087	49.307443	2.642087	4.902889E+15	0.000651	1496.300062	18.776511	1.111102	0	0
38.160585	5.884743	0.831776	50.639881	2.84766	49.042832	2.84766	4.650024E+15	0.000658	1484.466509	18.810395	1.109438	0	0
39.225928	5.833824	0.817746	50.507774	3.040993	48.786887	3.040993	4.414133E+15	0.000665	1470.80529	18.814233	1.10932	0	0
40.293568	5.768624	0.783186	50.37232	3.224593	48.530776	3.224593	4.182666E+15	0.000672	1458.616725	18.667947	1.109003	0	0
41.324921	5.672134	0.760942	50.236211	3.395949	48.279075	3.395949	3.960335E+15	0.000678	1447.87265	18.83529	1.108131	0	0
42.385294	5.544628	0.723577	50.104717	3.554678	48.038171	3.554678	3.754973E+15	0.000685	1436.086019	18.638822	1.108488	0	0
43.436096	5.35696	0.69744	49.967343	3.702761	47.795192	3.702761	3.549989E+15	0.00069	1429.074184	18.791116	1.106626	0	0
44.448327	5.122235	0.667243	49.836339	3.841526	47.563478	3.841526	3.363307E+15	0.000696	1418.951351	18.726106	1.106983	0	0
45.452546	4.808891	0.640182	49.703253	3.970995	47.333515	3.970995	3.182147E+15	0.0007	1411.308425	18.688269	1.105636	0	0
46.432614	4.410125	0.617942	49.574413	4.08958	47.113694	4.08958	3.014646E+15	0.000705	1403.954213	18.816114	1.104804	0	0
47.373002	3.930566	0.599069	49.443328	4.201524	46.894122	4.201524	2.851906E+15	0.000708	1398.275738	18.639589	1.104289	0	0
48.280621	3.356607	0.586213	49.317592	4.30389	46.685516	4.30389	2.702841E+15	0.000712	1392.373392	18.835996	1.10223	0	0
49.173316	2.696445	0.573478	49.188222	4.401153	46.47482	4.401153	2.556409E+15	0.000715	1388.573493	18.692535	1.101992	0	0
49.96583	2.015007	0.591977	49.060689	4.491582	46.269559	4.491582	2.418713E+15	0.000717	1385.332529	18.752293	1.099497	0	0
50.724595	1.305638	0.593561	48.936138	4.57694	46.070095	4.57694	2.290393E+15	0.00072	1380.717571	18.776813	1.098863	0	0
51.356885	0.672963	0.54492	48.809054	4.657123	45.870096	4.657123	2.165514E+15	0.000721	1378.528023	18.63685	1.097516	0	0
41.998155	5.594258	0.739029	48.684707	4.731524	45.676225	4.731524	2.049032E+15	0.000723	1376.526342	18.814781	1.0951	0	0
51.890327	0	0	48.55942	4.802361	45.482814	4.802361	1.937177E+15	0.000724	1374.950114	18.61341	1.094506	0	0
0	0	0	48.437319	4.868005	45.295855	4.868005	1.833292E+15	0.000725	1373.373647	18.750489	1.091773	0	0
0	0	0	48.310725	4.931407	45.104396	4.931407	1.730733E+15	0.000726	1373.343364	18.684686	1.091099	0	0
0	0	0	48.1865	4.989143	44.918854	4.989143	1.634998E+15	0.000725	1375.200534	18.631187	1.089	0	0
0	0	0	48.067053	5.042617	44.741276	5.042617	1.547356E+15	0.000725	1376.120083	18.752728	1.087337	0	0
0	0	0	47.942502	5.094593	44.558101	5.094593	1.460399E+15	0.000723	1378.723201	18.561728	1.086426	0	0
0	0	0	47.825832	5.14342	44.385973	5.14342	1.382893E+15	0.000724	1377.189282	18.74317	1.083772	0	0
0	0	0	47.702423	5.190361	44.206597	5.190361	1.304905E+15	0.000724	1379.169238	18.58999	1.083811	0	0
0	0	0	47.579179	5.23337	44.02964	5.23337	1.230957E+15	0.000721	1383.957965	18.646094	1.081118	0	0
0	0	0	47.461814	5.272763	43.861816	5.272763	1.164048E+15	0.000719	1387.842978	18.687504	1.080247	0	0
0	0	0	47.342408	5.310635	43.692225	5.310635	1.099348E+15	0.000717	1392.455957	18.534757	1.079336	0	0
0	0	0	47.226963	5.345083	43.529429	5.345083	1.039898E+15	0.000714	1397.920335	18.719556	1.077197	0	0
0	0	0	47.110252	5.378442	43.365559	5.378442	9.827715E+14	0.000712	1403.170356	18.525708	1.076959	0	0
0	0	0	46.992479	5.410027	43.201351	5.410027	9.280327E+14	0.000709	1409.692679	18.667374	1.074226	0	0
0	0	0	46.881445	5.438454	43.04723	5.438454	8.789895E+14	0.000706	1415.874386	18.623028	1.073988	0	0
0	0	0	46.76261	5.467311	42.883125	5.467311	8.291411E+14	0.000702	1422.978182	18.580224	1.071929	0	0
0	0	0	46.652801	5.49301	42.731939	5.49301	7.85403E+14	0.000699	1428.846563	18.732609	1.069829	0	0
0	0	0	46.536702	5.518607	42.572989	5.518607	7.414831E+14	0.000696	1436.05069	18.541167	1.069275	0	0
0	0	0	46.42236	5.541847	42.417644	5.541847	7.004603E+14	0.000691	1445.720821	18.735661	1.066027	0	0
0	0	0	46.313285	5.563853	42.269385	5.563853	6.63302E+14	0.000688	1452.259549	18.592421	1.065591	0	0
0	0	0	46.197146	5.585136	42.112891	5.585136	6.257619E+14	0.000683	1463.047742	18.643205	1.062621	0	0
0	0	0	46.089786	5.604418	41.968348	5.604418	5.928355E+14	0.000679	1471.294458	18.696844	1.061115	0	0
0	0	0	45.975852	5.623079	41.816112	5.623079	5.596739E+14	0.000674	1483.617781	18.554813	1.059333	0	0
0	0	0	45.866002	5.640609	41.669522	5.640609	5.293594E+14	0.000669	1494.218529	18.736552	1.056798	0	0
0	0	0	45.755212	5.657201	41.522343	5.657201	5.00359E+14	0.000664	1506.356286	18.547179	1.056006	0	0
0	0	0	45.646832	5.672546	41.378895	5.672546	4.73448E+14	0.000658	1519.184607	18.653478	1.053233	0	0
0	0	0	45.53592	5.687361	41.232636	5.687361	4.473326E+14	0.000652	1533.488144	18.609466	1.052362	0	0
0	0	0	45.430071	5.701415	41.093001	5.701415	4.23691E+14	0.000647	1544.539727	18.550721	1.050025	0	0
0	0	0	45.317975	5.714975	40.946012	5.714975	3.999539E+14	0.000641	1560.045272	18.691561	1.048441	0	0
0	0	0	45.212453	5.727453	40.807758	5.727453	3.787736E+14	0.000636	1573.268707	18.507449	1.04749	0	0
0	0	0	45.102031	5.73964	40.663649	5.73964	3.57761E+14	0.000629	1589.134458	18.689095	1.044717	0	0
0	0	0	44.994835	5.750828	40.524151	5.750828	3.384348E+14	0.000623	1605.60248	18.548371	1.044559	0	0
0	0	0	44.892049	5.761699	40.390194	5.761699	3.208486E+14	0.000618	1617.470317	18.59074	1.041945	0	0
0	0	0	44.780688	5.771979	40.24614	5.771979	3.02789E+14	0.000611	1637.647467	18.644702	1.040875	0	0
0	0	0	44.676391	5.781798	40.110995	5.781798	2.867671E+14	0.000605	1652.20139	18.510483	1.03937	0	0
0	0	0	44.569481	5.790933	39.973119	5.790933	2.711953E+14	0.000598	1671.364621	18.714427	1.036558	0	0
0	0	0	44.463714	5.800011	39.836613	5.800011	2.56597E+14	0.000593	1686.941309	18.523592	1.036043	0	0
0	0	0	44.355457	5.808628	39.697356	5.808628	2.42445E+14	0.000586	1705.537344	18.66072	1.033112	0	0
0	0	0	44.25263	5.816534	39.565244	5.816534	2.297066E+14	0.00058	1722.763284	18.620879	1.032359	0	0
0	0	0	44.141636	5.824439	39.423078	5.824439	2.16687E+14	0.000573	1744.284056	18.549682	1.030379	0	0
0	0	0	44.03881	5.831601	39.291444	5.831601	2.052686E+14	0.000567	1762.89032	18.707541	1.0282	0	0
0	0	0	43.935248	5.838553	39.159025	5.838553	1.943624E+14	0.000561	1781.406945	18.523086	1.026854	0	0
0	0	0	43.825765	5.845261	39.019504	5.845261	1.83448E+14	0.000554	1805.209108	18.712838	1.023962	0	0
0	0	0	43.723143	5.851556	38.888667	5.851556	1.737629E+14	0.000548	1824.394027	18.582497	1.023012	0	0
0	0	0	43.611945	5.857543	38.747534	5.857543	1.638333E+14	0.00054	1852.828436	18.611617	1.020279	0	0
0	0	0	43.508057	5.86335	38.615454	5.86335	1.550599E+14	0.000534	1873.482846	18.662241	1.018813	0	0
0	0	0	43.399104	5.868901	38.477339	5.868901	1.463542E+14	0.000526	1899.672726	18.508105	1.017189	0	0
0	0	0	43.292317	5.874343	38.341921	5.874343	1.382877E+14	0.00052	1922.023905	18.692817	1.014496	0	0
0	0	0	43.182385	5.879574	38.202783	5.879574	1.304405E+14	0.000513	1947.502739	18.513237	1.013545	0	0
0	0	0	43.07572	5.884326	38.068014	5.884326	1.232457E+14	0.000506	1974.519185	18.643615	1.010495	0	0
0	0	0	42.964317	5.889255	37.927247	5.889255	1.161487E+14	0.0005	1999.788834	18.596551	1.009782	0	0
0	0	0	42.85708	5.893223	37.792371	5.893223	1.09698E+14	0.000491	2036.07461	18.533345	1.007524	0	0
0	0	0	42.746577	5.897515	37.653176	5.897515	1.034206E+14	0.000484	2066.359285	18.673469	1.005663	0	0
0	0	0	42.637747	5.901361	37.516386	5.901361	9.758512E+13	0.000476	2101.340424	18.485787	1.004514	0	0
0	0	0	42.531531	5.905054	37.382902	5.905054	9.220377E+13	0.000469	2133.935467	18.66931	1.001662	0	0
0	0	0	42.418005	5.908667	37.240492	5.908667	8.677617E+13	0.00046	2173.828179	18.541068	1.001029	0	0
0	0	0	42.297946	5.9125	37.08984	5.9125	8.137983E+13	0.000452	2212.078632	18.577872	0.998494	0	0
0	0	0	42.189321	5.915447	36.953968	5.915447	7.678435E+13	0.000443	2258.217097	18.642814	0.997028	0	0
0	0	0	42.075795	5.918522	36.811943	5.918522	7.225611E+13	0.000434	2304.065907	18.493013	0.995523	0	0
0	0	0	41.96913	5.921741	36.678182	5.921741	6.824303E+13	0.000429	2333.523388	18.684595	0.992552	0	0
0	0	0	41.85638	5.924492	36.537347	5.924492	6.424111E+13	0.00042	2382.615622	18.494349	0.991998	0	0
0	0	0	41.738607	5.927591	36.39001	5.927591	6.030935E+13	0.000413	2422.450386	18.636687	0.988591	0	0
0	0	0	41.627164	5.930413	36.250665	5.930413	5.680913E+13	0.000406	2460.041066	18.599258	0.98768	0	0
0	0	0	41.516334	5.932376	36.112831	5.932376	5.352826E+13	0.000396	2528.387027	18.539953	0.985304	0	0
0	0	0	41.401705	5.935162	35.969564	5.935162	5.033288E+13	0.00039	2564.466789	18.684488	0.983165	0	0
0	0	0	41.29014	5.937709	35.830253	5.937709	4.740504E+13	0.000384	2602.086087	18.490446	0.981858	0	0
0	0	0	41.173633	5.939615	35.685445	5.939615	4.452812E+13	0.000374	2673.961481	18.670764	0.97865	0	0
0	0	0	41.061496	5.941921	35.545614	5.941921	4.192323E+13	0.000368	2716.436566	18.528477	0.977937	0	0
0	0	0	40.944417	5.943974	35.399931	5.943974	3.93652E+13	0.00036	2775.743703	18.577845	0.974966	0	0
0	0	0	40.827665	5.945782	35.254861	5.945782	3.696901E+13	0.000351	2845.736247	18.626059	0.973382	0	0
0	0	0	40.714466	5.947763	35.113975	5.947763	3.478447E+13	0.000345	2896.417096	18.486319	0.97148	0	0
0	0	0	40.590609	5.949546	34.960168	5.949546	3.254123E+13	0.000336	2972.889762	18.661632	0.968866	0	0
0	0	0	40.47741	5.951209	34.81955	5.951209	3.06173E+13	0.000329	3037.584334	18.462554	0.968351	0	0
0	0	0	40.358004	5.953082	34.671092	5.953082	2.871055E+13	0.000323	3092.677437	18.607719	0.965024	0	0
0	0	0	40.239292	5.954324	34.524076	5.954324	2.693221E+13	0.000313	3193.255825	18.556127	0.964232	0	0
0	0	0	40.12401	5.955855	34.380984	5.955855	2.531039E+13	0.000307	3261.91579	18.505329	0.961736	0	0
0	0	0	40.00003	5.957372	34.227205	5.957372	2.36747E+13	0.000299	3343.238818	18.643032	0.959835	0	0
0	0	0	39.885443	5.958656	34.085179	5.958656	2.225681E+13	0.000292	3426.528799	18.458801	0.958726	0	0
0	0	0	39.762933	5.960218	33.933135	5.960218	2.083443E+13	0.000286	3491.92916	18.644537	0.955993	0	0
0	0	0	39.640505	5.961535	33.781418	5.961535	1.950359E+13	0.000279	3578.379523	18.506036	0.955161	0	0
0	0	0	39.520976	5.962523	33.633576	5.962523	1.828612E+13	0.000271	3695.143499	18.559791	0.952626	0	0
0	0	0	39.397282	5.963698	33.480422	5.963698	1.7106E+13	0.000263	3795.705398	18.603948	0.951319	0	0
0	0	0	39.274078	5.964891	33.327839	5.964891	1.600612E+13	0.000257	3888.876508	18.47329	0.949378	0	0
0	0	0	39.146913	5.965918	33.170545	5.965918	1.494485E+13	0.000249	4010.665198	18.665852	0.946883	0	0
0	0	0	39.022974	5.966838	33.017312	5.966838	1.397813E+13	0.000242	4139.957279	18.464747	0.946527	0	0
0	0	0	38.891889	5.967854	32.855192	5.967854	1.302351E+13	0.000234	4268.062689	18.611112	0.943714	0	0
0	0	0	38.761538	5.968756	32.69408	5.968756	1.21388E+13	0.000227	4412.090983	18.545602	0.943041	0	0
0	0	0	38.630779	5.969623	32.532494	5.969623	1.131161E+13	0.000219	4562.532862	18.51427	0.940625	0	0
0	0	0	38.496182	5.970708	32.365956	5.970708	1.051889E+13	0.000214	4674.40056	18.648454	0.938724	0	0
0	0	0	38.361176	5.971689	32.199014	5.971689	9.779491E+12	0.000208	4802.40617	18.463827	0.937773	0	0
0	0	0	38.220535	5.972451	32.025361	5.972451	9.064385E+12	0.0002	4992.214256	18.658273	0.934961	0	0
0	0	0	38.080261	5.97342	31.851935	5.97342	8.40318E+12	0.000195	5125.766728	18.505224	0.934565	0	0
0	0	0	37.937047	5.974097	31.675192	5.974097	7.777798E+12	0.000187	5342.307374	18.574219	0.931713	0	0
0	0	0	37.794609	5.974707	31.499466	5.974707	7.201933E+12	0.000179	5579.185198	18.605856	0.930564	0	0
0	0	0	37.64625	5.975357	31.316411	5.975357	6.647373E+12	0.000172	5824.679162	18.480952	0.928742	0	0
0	0	0	37.499157	5.976296	31.134598	5.976296	6.139679E+12	0.000168	5962.587731	18.660642	0.926405	0	0
0	0	0	37.34847	5.976958	30.948653	5.976958	5.659733E+12	0.000161	6205.394087	18.46187	0.92589	0	0
0	0	0	37.192719	5.977492	30.756613	5.977492	5.203028E+12	0.000153	6519.416294	18.615097	0.923157	0	0
0	0	0	37.035498	5.978166	30.562607	5.978166	4.779356E+12	0.000147	6780.082579	18.539143	0.922563	0	0
0	0	0	36.879951	5.978762	30.370737	5.978762	4.394135E+12	0.000141	7069.428154	18.517212	0.920028	0	0
0	0	0	36.718933	5.979434	30.172049	5.979434	4.028021E+12	0.000136	7336.943419	18.633482	0.918483	0	0
0	0	0	36.55285	5.979966	29.967282	5.979966	3.682308E+12	0.00013	7701.118776	18.464344	0.917058	0	0
0	0	0	36.384971	5.980173	29.760659	5.980173	3.362986E+12	0.000121	8294.141044	18.650368	0.914245	0	0
0	0	0	36.211375	5.980979	29.546337	5.980979	3.061871E+12	0.000117	8518.156608	18.491747	0.91373	0	0
0	0	0	36.038554	5.981367	29.333426	5.981367	2.788876E+12	0.000111	9039.047717	18.570017	0.911156	0	0
0	0	0	35.857526	5.982014	29.110128	5.982014	2.52897E+12	0.000106	9393.393449	18.580322	0.909888	0	0
0	0	0	35.674945	5.982591	28.88499	5.982591	2.291357E+12	0.000102	9800.645837	18.464805	0.908185	0	0
0	0	0	35.487179	5.982719	28.65398	5.982719	2.070252E+12	9.338638E-5	10708.20016	18.639574	0.905927	0	0
0	0	0	35.297779	5.983519	28.42019	5.983519	1.868827E+12	9.17362E-5	10900.822057	18.441535	0.904977	0	0
0	0	0	35.103968	5.983915	28.181431	5.983915	1.682979E+12	8.638932E-5	11575.504778	18.598799	0.902204	0	0
0	0	0	34.904972	5.984237	27.936375	5.984237	1.511366E+12	8.057411E-5	12410.934361	18.493669	0.90165	0	0
0	0	0	34.701319	5.984517	27.685639	5.984517	1.353839E+12	7.46862E-5	13389.354296	18.490964	0.899035	0	0
0	0	0	34.496483	5.985258	27.4329	5.985258	1.211953E+12	7.361643E-5	13583.924952	18.586308	0.897451	0	0
0	0	0	34.285113	5.985397	27.172829	5.985397	1.081109E+12	6.694093E-5	14938.542981	18.421477	0.896184	0	0
0	0	0	34.066515	5.985667	26.903712	5.985667	9.606297E+11	6.180364E-5	16180.275882	18.630365	0.893173	0	0
0	0	0	33.840403	5.986086	26.625171	5.986086	8.501152E+11	5.822249E-5	17175.493923	18.442353	0.892936	0	0
0	0	0	33.609267	5.986492	26.340461	5.986492	7.502737E+11	5.481232E-5	18244.072059	18.555069	0.889727	0	0
0	0	0	33.366208	5.986959	26.041008	5.986959	6.579029E+11	5.205273E-5	19211.288446	18.533478	0.888896	0	0
0	0	0	33.112368	5.98709	25.728702	5.98709	5.735514E+11	4.646451E-5	21521.803495	18.441096	0.887113	0	0
0	0	0	32.833495	5.987407	25.385379	5.987407	4.932939E+11	4.24097E-5	23579.511557	18.608562	0.885014	0	0
0	0	0	32.558869	5.987946	25.046995	5.987946	4.252413E+11	4.080772E-5	24505.168015	18.413338	0.884301	0	0
0	0	0	32.273911	5.988246	24.696195	5.988246	3.64535E+11	3.740841E-5	26731.955549	18.59351	0.881172	0	0
0	0	0	31.98732	5.988375	24.343598	5.988375	3.122188E+11	3.302116E-5	30283.609994	18.46411	0.880617	0	0
0	0	0	31.691336	5.988741	23.979144	5.988741	2.660562E+11	3.082163E-5	32444.750455	18.474575	0.87828	0	0
0	0	0	31.391718	5.988975	23.610383	5.988975	2.262737E+11	2.791023E-5	35829.154082	18.5455	0.877171	0	0
0	0	0	31.087118	5.989201	23.235501	5.989201	1.919221E+11	2.525484E-5	39596.365819	18.403891	0.875706	0	0
0	0	0	30.799588	5.989332	22.881729	5.989332	1.642944E+11	2.249607E-5	44452.204986	18.600553	0.873171	0	0
0	0	0	30.522103	5.989627	22.540091	5.989627	1.414096E+11	2.129799E-5	46952.783707	18.422702	0.872695	0	0
0	0	0	30.260259	5.989651	22.218046	5.989651	1.227458E+11	1.863535E-5	53661.446187	18.552709	0.869646	0	0
0	0	0	30.013565	5.989832	21.91442	5.989832	1.074215E+11	1.738061E-5	57535.383214	18.505715	0.86917	0	0
0	0	0	29.779776	5.989787	21.626967	5.989787	9.466838E+10	1.507453E-5	66337.050715	18.434711	0.867111	0	0
0	0	0	29.553377	5.990026	21.348216	5.990026	8.376334E+10	1.458458E-5	68565.556671	18.574142	0.865249	0	0
0	0	0	29.325223	5.990252	21.067321	5.990252	7.404414E+10	1.41397E-5	70722.879176	18.380623	0.864298	0	0
0	0	0	29.095395	5.990431	20.784426	5.990431	6.539345E+10	1.352745E-5	73923.783773	18.571217	0.861447	0	0
0	0	0	28.859074	5.990412	20.49382	5.990412	5.755107E+10	1.18021E-5	84730.664914	18.435611	0.860813	0	0
0	0	0	28.612747	5.990492	20.19077	5.990492	5.0376E+10	1.07274E-5	93219.193402	18.478859	0.858436	0	0
0	0	0	28.36148	5.990665	19.881511	5.990665	4.397783E+10	1.020819E-5	97960.606474	18.530923	0.85709	0	0
0	0	0	28.096736	5.99087	19.555628	5.99087	3.811361E+10	9.909804E-6	100910.170117	18.374805	0.855743	0	0
0	0	0	27.830155	5.991016	19.227567	5.991016	3.299856E+10	9.380718E-6	106601.643037	18.568879	0.853327	0	0
0	0	0	27.571496	5.990826	18.909733	5.990826	2.869259E+10	7.271871E-6	137516.199137	18.374664	0.852733	0	0
0	0	0	27.320229	5.991183	18.600196	5.991183	2.504838E+10	7.967391E-6	125511.603208	18.525821	0.849762	0	0
0	0	0	27.071901	5.991229	18.294722	5.991229	2.190181E+10	7.207151E-6	138751.08053	18.458562	0.849247	0	0
0	0	0	26.83121	5.991289	17.99862	5.991289	1.922972E+10	6.620633E-6	151042.955579	18.415897	0.847029	0	0
0	0	0	26.592643	5.991296	17.705207	5.991296	1.690303E+10	5.851172E-6	170905.935912	18.532564	0.845365	0	0
0	0	0	26.352932	5.99127	17.410436	5.99127	1.484867E+10	5.03794E-6	198493.835161	18.335898	0.844256	0	0
0	0	0	26.114937	5.991475	17.117429	5.991475	1.30561E+10	5.249171E-6	190506.288323	18.534022	0.841602	0	0
0	0	0	25.879269	5.991429	16.82766	5.991429	1.149438E+10	4.437142E-6	225370.304787	18.367581	0.841048	0	0
0	0	0	25.64503	5.99135	16.5397	5.99135	1.012729E+10	3.658842E-6	273310.485014	18.453558	0.838156	0	0
0	0	0	25.406585	5.991752	16.245832	5.991752	8.902531E+9	4.777658E-6	209307.56006	18.469137	0.837127	0	0
0	0	0	25.168345	5.991647	15.952988	5.991647	7.826754E+9	3.726741E-6	268330.954672	18.346663	0.835542	0	0
0	0	0	24.927	5.991733	15.656034	5.991733	6.869438E+9	3.601896E-6	277631.531244	18.508923	0.83372	0	0
0	0	0	24.683818	5.991805	15.356839	5.991805	6.023228E+9	3.453968E-6	289522.051231	18.313606	0.832849	0	0
0	0	0	24.434307	5.991924	15.049785	5.991924	5.263218E+9	3.563841E-6	280596.106574	18.485981	0.829918	0	0
0	0	0	24.183611	5.991997	14.741345	5.991997	4.596163E+9	3.498926E-6	285802.006769	18.386484	0.829363	0	0
0	0	0	23.922788	5.992089	14.420417	5.992089	3.991736E+9	3.609545E-6	277043.193478	18.385744	0.827185	0	0
0	0	0	23.662087	5.991977	14.099964	5.991977	3.467025E+9	2.553683E-6	391591.29214	18.481578	0.825482	0	0
0	0	0	23.377783	5.992149	13.750029	5.992149	2.973108E+9	3.05846E-6	326961.955276	18.302835	0.824333	0	0
0	0	0	23.098011	5.99234	13.405632	5.99234	2.55581E+9	4.714613E-6	212106.506552	18.489138	0.822075	0	0
0	0	0	22.812808	5.992096	13.05526	5.992096	2.190642E+9	2.009077E-6	497740.885619	18.300036	0.821639	0	0
0	0	0	22.529076	5.992386	12.705826	5.992386	1.879141E+9	4.289213E-6	233143.012906	18.414638	0.818788	0	0
0	0	0	22.235665	5.992254	12.345179	5.992254	1.603523E+9	2.183315E-6	458019.053313	18.398553	0.817837	0	0
0	0	0	21.936537	5.992221	11.977339	5.992221	1.364108E+9	1.687271E-6	592672.925378	18.321653	0.816094	0	0
0	0	0	21.620503	5.992142	11.588784	5.992142	1.149882E+9	1.16591E-6	857699.425714	18.481977	0.814153	0	0
0	0	0	21.29626	5.992241	11.189836	5.992241	9.650073E+8	1.263327E-6	791560.475094	18.269748	0.813599	0	0
0	0	0	20.954131	5.992083	10.769324	5.992083	8.020636E+8	7.164356E-7	1395798.786615	18.454992	0.810707	0	0
0	0	0	20.58848	5.992492	10.318915	5.992492	6.582105E+8	3.2826E-6	304636.601783	18.320299	0.810351	0	0
0	0	0	20.20282	5.992498	9.84458	5.992498	5.343466E+8	2.878455E-6	347408.537511	18.361788	0.807776	0	0
0	0	0	19.789431	5.992426	9.336279	5.992426	4.27338E+8	1.225798E-6	815795.123808	18.416113	0.806707	0	0
0	0	0	19.347579	5.992485	8.792742	5.992485	3.365408E+8	1.564028E-6	639374.815921	18.275724	0.805043	0	0
0	0	0	18.879102	5.992499	8.216539	5.992499	2.61248E+8	1.408426E-6	710012.566493	18.471049	0.802706	0	0
0	0	0	18.379425	5.992597	7.601809	5.992597	1.994085E+8	-5.407893E-6	-184914.893552	18.252802	0.802825	0	0
0	0	0	17.850591	5.992663	6.951274	5.992663	1.498267E+8	-8.093366E-7	-1235579.789809	18.400822	0.799696	0	0
0	0	0	17.275	5.992677	6.243326	5.992677	1.097633E+8	-5.110129E-7	-1956897.950288	18.325565	0.799221	0	0
0	0	0	16.646688	5.992604	5.470697	5.992604	7.815342E+7	-1.509157E-6	-662621.502509	18.283865	0.797082	0	0
0	0	0	15.966064	5.992723	4.633371	5.992723	5.409507E+7	-1.697878E-7	-5889704.149246	18.409739	0.795418	0	0
0	0	0	15.213283	5.99269	3.707582	5.99269	3.60103E+7	-1.4727E-7	-6790250.584118	18.222956	0.794507	0	0
0	0	0	14.390793	5.992848	2.695687	5.992848	2.308502E+7	-3.845866E-8	-2.600195E+7	18.41659	0.791774	0	0
0	0	0	13.611958	5.992631	1.738218	5.992631	1.515244E+7	-1.36325E-7	-7335414.064435	18.244859	0.791457	0	0
0	0	0	12.949384	5.992518	0.92354	5.992518	1.059083E+7	7.521126E-8	1.329588E+7	18.331707	0.788804	0	0
0	0	0	12.359091	5.99271	0.19715	5.99271	7697443.5	-2.663321E-8	-3.754711E+7	18.344068	0.787734	0	0
0	0	0	11.816454	5.992551	-0.469918	5.992551	5740522.5	8.606253E-8	1.161946E+7	18.219006	0.786427	0	0
0	0	0	11.30126	5.992743	-1.103953	5.992743	4345091.5	-1.196574E-8	-8.357197E+7	18.399296	0.784051	0	0
0	0	0	10.807178	5.992921	-1.712	5.992921	3326619	-4.358128E-9	-2.294563E+8	18.184629	0.783496	0	0
0	0	0	10.325021	5.992723	-2.304597	5.992723	2563342.5	-8.044025E-9	-1.243159E+8	18.36627	0.780525	0	0
0	0	0	9.847314	5.992696	-2.892076	5.992696	1979954.5	-7.633474E-9	-1.31002E+8	18.243475	0.780248	0	0
0	0	0	9.385003	5.992809	-3.460916	5.992809	1542120	-3.015802E-9	-3.315868E+8	18.265141	0.777634	0	0
0	0	0	8.928777	5.992729	-4.021863	5.992729	1205063	-3.613525E-9	-2.767381E+8	18.335274	0.776406	0	0
0	0	0	8.480064	5.992749	-4.573782	5.992749	945508	-2.501661E-9	-3.997343E+8	18.175455	0.775099	0	0
0	0	0	8.036171	5.992868	-5.119991	5.992868	743793	-1.153628E-9	-8.668302E+8	18.377247	0.772722	0	0
0	0	0	7.599668	5.992696	-5.656472	5.992696	587454.5	-2.264851E-9	-4.415302E+8	18.168897	0.772643	0	0
0	0	0	7.165126	5.992993	-6.19158	5.992993	464469	-5.013946E-10	-1.994437E+9	18.296064	0.769989	0	0
0	0	0	6.73916	5.992855	-6.715174	5.992855	368937	-5.998009E-10	-1.66722E+9	18.247904	0.769356	0	0
0	0	0	6.315521	5.992756	-7.235989	5.992756	293423	-7.470528E-10	-1.338593E+9	18.189304	0.767177	0	0
0	0	0	5.891678	5.992716	-7.757188	5.992716	233339.5	-7.679579E-10	-1.302155E+9	18.324848	0.765395	0	0
0	0	0	5.464813	5.992901	-8.282616	5.992901	185256	-2.577113E-10	-3.880311E+9	18.115374	0.764642	0	0
0	0	0	5.030639	5.992973	-8.816781	5.992973	146501.5	-1.661223E-10	-6.019661E+9	18.307225	0.762068	0	0
0	0	0	4.584295	5.992716	-9.365149	5.992716	115094	-3.787928E-10	-2.639966E+9	18.138311	0.762028	0	0
0	0	0	4.142484	5.993026	-9.909263	5.993026	90642	-9.060007E-11	-1.103752E+10	18.229107	0.759216	0	0
0	0	0	3.694629	5.992822	-10.459606	5.992822	71152	-1.315216E-10	-7.603314E+9	18.239259	0.758503	0	0
0	0	0	3.253022	5.992749	-11.002571	5.992749	56041.5	-1.482765E-10	-6.744156E+9	18.136743	0.756641	0	0
0	0	0	2.820522	5.993118	-11.535392	5.993118	44358	-3.672122E-11	-2.723221E+10	18.31	0.75474	0	0
0	0	0	2.422773	5.992729	-12.023654	5.992729	35776	-1.072784E-10	-9.321545E+9	18.105759	0.754423	0	0
0	0	0	2.063493	5.993006	-12.466207	5.993006	29460.5	-3.081649E-11	-3.245016E+10	18.262809	0.751769	0	0
0	0	0	1.748806	5.992967	-12.85315	5.992967	24852	-2.866212E-11	-3.488926E+10	18.159296	0.751492	0	0
0	0	0	1.478835	5.993	-13.185273	5.993	21477.5	-2.281985E-11	-4.38215E+10	18.162518	0.749076	0	0
0	0	0	1.249252	5.992993	-13.467625	5.992993	18970.5	-2.047866E-11	-4.883132E+10	18.256267	0.747769	0	0
0	0	0	1.056299	5.99294	-13.704812	5.99294	17091.5	-2.115858E-11	-4.726215E+10	18.077797	0.74662	0	0
0	0	0	0.887032	5.992894	-13.912883	5.992894	15597.5	-2.215461E-11	-4.513732E+10	18.273834	0.744283	0	0
0	0	0	0.747779	5.992907	-14.084185	5.992907	14466	-1.971724E-11	-5.071704E+10	18.071948	0.744164	0	0
0	0	0	0.626943	5.992881	-14.232737	5.992881	13551.5	-2.009457E-11	-4.976468E+10	18.196009	0.74155	0	0
0	0	0	0.525546	5.992776	-14.357185	5.992776	12828.5	-2.933977E-11	-3.408343E+10	18.155682	0.740916	0	0
0	0	0	0.442689	5.992993	-14.459633	5.992993	12267	-1.324223E-11	-7.551598E+10	18.084373	0.739094	0	0
0	0	0	0.370857	5.992888	-14.547717	5.992888	11799.5	-1.712038E-11	-5.840991E+10	18.239971	0.73751	0	0
0	0	0	0.312175	5.993079	-14.620368	5.993079	11431	-1.021504E-11	-9.789487E+10	18.045527	0.736757	0	0
0	0	0	0.263743	5.992973	-14.679673	5.992973	11135.5	-1.262687E-11	-7.919622E+10	18.226296	0.73442	0	0
0	0	0	0.222334	5.99296	-14.730569	5.99296	10889	-1.277683E-11	-7.82667E+10	18.064794	0.734302	0	0
0	0	0	0.191503	5.993099	-14.768835	5.993099	10709	-9.204116E-12	-1.08647E+11	18.122606	0.731767	0	0
0	0	0	0.165122	5.993178	-14.801478	5.993178	10557.5	-7.870735E-12	-1.270529E+11	18.149638	0.730935	0	0
0	0	0	0.132902	5.99296	-14.840563	5.99296	10375	-1.217371E-11	-8.214421E+10	18.01864	0.729311	0	0
0	0	0	0.116853	5.992828	-14.859972	5.992828	10285.5	-1.850533E-11	-5.403847E+10	18.208936	0.727093	0	0
0	0	0	0.105909	5.99294	-14.873712	5.99294	10225	-1.265813E-11	-7.90006E+10	17.983157	0.727053	0	0
0	0	0	0.085695	5.993099	-14.89897	5.993099	10114	-8.692728E-12	-1.150387E+11	18.142781	0.724479	0	0
0	0	0	0.063562	5.993092	-14.926176	5.993092	9993.5	-8.699989E-12	-1.149427E+11	18.035832	0.724122	0	0
0	0	0	0.052128	5.992809	-14.93953	5.992809	9932	-1.942318E-11	-5.148487E+10	18.042889	0.722062	0	0
0	0	0	0.045389	5.993092	-14.948526	5.993092	9896	-8.615109E-12	-1.160751E+11	18.130096	0.720874	0	0
0	0	0	0.041183	5.992782	-14.952924	5.992782	9873	-2.183997E-11	-4.57876E+10	17.966479	0.719607	0	0
0	0	0	0.036528	5.992809	-14.958716	5.992809	9848.5	-1.925989E-11	-5.192138E+10	18.175806	0.71727	0	0
0	0	0	0.029953	5.992973	-14.967215	5.992973	9813.5	-1.112781E-11	-8.986493E+10	17.969701	0.717309	0	0
0	0	0	0.022072	5.992769	-14.976397	5.992769	9772	-2.31335E-11	-4.322735E+10	18.099924	0.714656	0	0
0	0	0	0.013782	5.992809	-14.986691	5.992809	9728.5	-1.902522E-11	-5.256182E+10	18.035499	0.714537	0	0
0	0	0	0.005533	5.992973	-14.997249	5.992973	9685	-1.09821E-11	-9.105725E+10	17.966126	0.712715	0	0
0	0	0	-0.000388	5.992947	-15.004466	5.992947	9654	-1.173592E-11	-8.520849E+10	18.111505	0.71117	0	0
0	0	0	-0.006269	5.992835	-15.011418	5.992835	9623.5	-1.686456E-11	-5.929593E+10	17.912688	0.710417	0	0
0	0	0	-0.012762	5.992987	-15.019784	5.992987	9589.5	-1.052019E-11	-9.50553E+10	18.117361	0.707962	0	0
0	0	0	-0.015294	5.992842	-15.022534	5.992842	9576.5	-1.635733E-11	-6.113466E+10	17.946267	0.707962	0	0
0	0	0	-0.020439	5.993	-15.029259	5.993	9549.5	-1.014635E-11	-9.855764E+10	18.014388	0.705387	0	0
0	0	0	-0.02146	5.99294	-15.030366	5.99294	9544.5	-1.18157E-11	-8.463315E+10	18.013288	0.704872	0	0
0	0	0	-0.023584	5.992749	-15.032499	5.992749	9533.5	-2.522406E-11	-3.964469E+10	17.904569	0.703407	0	0
0	0	0	-0.02489	5.992789	-15.034205	5.992789	9527	-2.040556E-11	-4.900626E+10	18.086897	0.701505	0	0
0	0	0	-0.02681	5.992894	-15.03683	5.992894	9517	-1.35179E-11	-7.397598E+10	17.88297	0.701109	0	0
0	0	0	-0.027422	5.992934	-15.037682	5.992934	9514	-1.199809E-11	-8.334659E+10	18.062786	0.698416	0	0
0	0	0	-0.028647	5.992921	-15.039156	5.992921	9507.5	-1.245552E-11	-8.028568E+10	17.925075	0.698455	0	0
0	0	0	-0.029015	5.993099	-15.040054	5.993099	9505.5	-8.169738E-12	-1.22403E+11	17.94466	0.696237	0	0
0	0	0	-0.030036	5.992894	-15.040798	5.992894	9500.5	-1.349446E-11	-7.410446E+10	18.003038	0.695168	0	0
0	0	0	-0.030893	5.992954	-15.042001	5.992954	9496	-1.133953E-11	-8.818708E+10	17.841132	0.694297	0	0
0	0	0	-0.032078	5.992973	-15.043507	5.992973	9490	-1.076099E-11	-9.292829E+10	18.038003	0.692118	0	0
0	0	0	-0.031588	5.993052	-15.043103	5.993052	9492.5	-8.957305E-12	-1.116407E+11	17.839014	0.692039	0	0
0	0	0	-0.032282	5.99294	-15.043676	5.99294	9489	-1.174699E-11	-8.512816E+10	17.984993	0.689623	0	0
0	0	0	-0.033384	5.992927	-15.044999	5.992927	9483.5	-1.218743E-11	-8.205175E+10	17.908571	0.689306	0	0
0	0	0	-0.032976	5.99296	-15.044579	5.99296	9485.5	-1.113E-11	-8.984726E+10	17.871273	0.687642	0	0
0	0	0	-0.033915	5.992835	-15.045421	5.992835	9480.5	-1.661397E-11	-6.019032E+10	18.001111	0.686137	0	0
0	0	0	-0.033874	5.993059	-15.045932	5.993059	9480.5	-8.822589E-12	-1.133454E+11	17.814603	0.685186	0	0
0	0	0	-0.034773	5.992993	-15.046872	5.992993	9476	-1.022935E-11	-9.775797E+10	18.003692	0.683246	0	0
0	0	0	-0.035344	5.992987	-15.047558	5.992987	9473.5	-1.039293E-11	-9.621922E+10	17.828961	0.683206	0	0
0	0	0	-0.035467	5.993026	-15.047808	5.993026	9472.5	-9.468118E-12	-1.056176E+11	17.922874	0.680909	0	0
0	0	0	-0.034691	5.993178	-15.047234	5.993178	9476.5	-7.064838E-12	-1.415461E+11	17.895446	0.680433	0	0
0	0	0	-0.036651	5.992868	-15.048868	5.992868	9466.5	-1.46826E-11	-6.810783E+10	17.797145	0.67877	0	0
0	0	0	-0.036733	5.992901	-15.049051	5.992901	9466	-1.316823E-11	-7.594032E+10	17.958523	0.677265	0	0
0	0	0	-0.036161	5.99302	-15.048645	5.99302	9469	-9.606944E-12	-1.040914E+11	17.756886	0.676789	0	0
0	0	0	-0.037182	5.993072	-15.050033	5.993072	9464	-8.570798E-12	-1.166752E+11	17.951377	0.674175	0	0
0	0	0	-0.036406	5.992795	-15.048385	5.992795	9467.5	-1.965417E-11	-5.087978E+10	17.790656	0.674492	0	0
0	0	0	-0.035998	5.992809	-15.047916	5.992809	9470	-1.851969E-11	-5.399659E+10	17.840887	0.672076	0	0
0	0	0	-0.036937	5.992881	-15.049253	5.992881	9465	-1.403499E-11	-7.125051E+10	17.872928	0.671363	0	0
0	0	0	-0.035916	5.992901	-15.048047	5.992901	9470.5	-1.317449E-11	-7.590424E+10	17.723023	0.670531	0	0
0	0	0	-0.036202	5.993072	-15.048828	5.993072	9469	-8.575326E-12	-1.166136E+11	17.925963	0.668075	0	0
0	0	0	-0.03514	5.992716	-15.04663	5.992716	9474	-3.118045E-11	-3.207138E+10	17.718761	0.668075	0	0
0	0	0	-0.035344	5.993013	-15.047624	5.993013	9473.5	-9.75825E-12	-1.024774E+11	17.89385	0.665382	0	0
0	0	0	-0.035916	5.993026	-15.048361	5.993026	9470.5	-9.466119E-12	-1.056399E+11	17.779739	0.665422	0	0
0	0	0	-0.035222	5.993178	-15.047887	5.993178	9474	-7.062974E-12	-1.415834E+11	17.76412	0.663441	0	0
0	0	0	-0.034119	5.993046	-15.0462	5.993046	9479.5	-9.071918E-12	-1.102303E+11	17.842778	0.66253	0	0
0	0	0	-0.034446	5.993118	-15.046784	5.993118	9477.5	-7.845832E-12	-1.274562E+11	17.664339	0.661619	0	0
0	0	0	-0.034364	5.992795	-15.045874	5.992795	9478.5	-1.967701E-11	-5.082074E+10	17.858608	0.65948	0	0
0	0	0	-0.033384	5.993026	-15.045247	5.993026	9483.5	-9.479112E-12	-1.054951E+11	17.667733	0.659322	0	0
0	0	0	-0.034119	5.992815	-15.045622	5.992815	9479.5	-1.801606E-11	-5.550602E+10	17.790122	0.657064	0	0
0	0	0	-0.033058	5.992809	-15.0443	5.992809	9485	-1.854902E-11	-5.391119E+10	17.72197	0.656747	0	0
0	0	0	-0.033098	5.993	-15.044829	5.993	9485	-1.007782E-11	-9.922785E+10	17.677075	0.654965	0	0
0	0	0	-0.033548	5.993026	-15.045448	5.993026	9482.5	-9.478113E-12	-1.055062E+11	17.80538	0.653499	0	0
0	0	0	-0.033343	5.993013	-15.045163	5.993013	9483.5	-9.768551E-12	-1.023693E+11	17.610775	0.653064	0	0
0	0	0	-0.033507	5.993138	-15.045678	5.993138	9482.5	-7.571274E-12	-1.320782E+11	17.809227	0.650806	0	0
0	0	0	-0.033303	5.992855	-15.044717	5.992855	9483.5	-1.541783E-11	-6.485996E+10	17.632989	0.650845	0	0
0	0	0	-0.03318	5.992967	-15.044847	5.992967	9484.5	-1.093859E-11	-9.141945E+10	17.733824	0.648192	0	0
0	0	0	-0.033793	5.992696	-15.044923	5.992696	9481	-3.655265E-11	-2.73578E+10	17.706526	0.648033	0	0
0	0	0	-0.033997	5.992802	-15.045438	5.992802	9480	-1.909266E-11	-5.237616E+10	17.607059	0.64637	0	0
0	0	0	-0.03465	5.992888	-15.046457	5.992888	9477	-1.375057E-11	-7.272425E+10	17.75744	0.644825	0	0
0	0	0	-0.034569	5.992954	-15.046522	5.992954	9477	-1.131684E-11	-8.836388E+10	17.540247	0.644548	0	0
0	0	0	-0.034446	5.992842	-15.04609	5.992842	9477.5	-1.618823E-11	-6.177326E+10	17.731547	0.642052	0	0
0	0	0	-0.034936	5.992789	-15.046561	5.992789	9475.5	-2.029525E-11	-4.927262E+10	17.583434	0.641854	0	0
0	0	0	-0.035835	5.993026	-15.04826	5.993026	9470.5	-9.466119E-12	-1.056399E+11	17.626917	0.639874	0	0
0	0	0	-0.036692	5.992927	-15.049067	5.992927	9466	-1.216494E-11	-8.220344E+10	17.660249	0.639319	0	0
0	0	0	-0.037468	5.99302	-15.050253	5.99302	9462.5	-9.60035E-12	-1.041629E+11	17.536883	0.637775	0	0
0	0	0	-0.038203	5.992769	-15.050529	5.992769	9458.5	-2.239135E-11	-4.466011E+10	17.718733	0.635953	0	0
0	0	0	-0.038326	5.992842	-15.050861	5.992842	9458	-1.615493E-11	-6.190062E+10	17.501908	0.635873	0	0
0	0	0	-0.037958	5.993158	-15.051202	5.993158	9460	-7.294338E-12	-1.370926E+11	17.671239	0.633457	0	0
0	0	0	-0.039306	5.992822	-15.052017	5.992822	9453	-1.747349E-11	-5.722956E+10	17.554363	0.633338	0	0
0	0	0	-0.039591	5.993092	-15.053046	5.993092	9451.5	-8.228143E-12	-1.215341E+11	17.553172	0.631318	0	0
0	0	0	-0.041388	5.992888	-15.054744	5.992888	9442.5	-1.370051E-11	-7.298997E+10	17.624965	0.630407	0	0
0	0	0	-0.040939	5.992987	-15.054439	5.992987	9445	-1.036167E-11	-9.650956E+10	17.462144	0.629496	0	0
0	0	0	-0.041102	5.992855	-15.05431	5.992855	9444	-1.535362E-11	-6.513124E+10	17.650517	0.627437	0	0
0	0	0	-0.040653	5.993092	-15.054352	5.993092	9446	-8.223355E-12	-1.216049E+11	17.43554	0.627516	0	0
0	0	0	-0.040531	5.993231	-15.054548	5.993231	9447	-6.470837E-12	-1.545395E+11	17.590977	0.624862	0	0
0	0	0	-0.041633	5.993092	-15.055557	5.993092	9441	-8.219002E-12	-1.216693E+11	17.509228	0.624664	0	0
0	0	0	-0.041429	5.993105	-15.055339	5.993105	9442	-8.013084E-12	-1.247959E+11	17.475884	0.622961	0	0
0	0	0	-0.041633	5.993026	-15.055392	5.993026	9441	-9.436632E-12	-1.0597E+11	17.592093	0.62205	0	0
0	0	0	-0.044982	5.993072	-15.059626	5.993072	9424	-8.534573E-12	-1.171705E+11	17.413938	0.62106	0	0
0	0	0	-0.043553	5.992842	-15.05729	5.992842	9431	-1.610881E-11	-6.207783E+10	17.603502	0.619039	0	0
0	0	0	-0.042205	5.99296	-15.05593	5.99296	9438.5	-1.107485E-11	-9.029466E+10	17.401187	0.619158	0	0
0	0	0	-0.041878	5.993066	-15.055793	5.993066	9440	-8.665377E-12	-1.154018E+11	17.514291	0.616584	0	0
0	0	0	-0.041878	5.992987	-15.055594	5.992987	9440	-1.035618E-11	-9.656068E+10	17.468252	0.616504	0	0
0	0	0	-0.041307	5.993039	-15.055023	5.993039	9442.5	-9.166531E-12	-1.090925E+11	17.392803	0.614762	0	0
0	0	0	-0.041756	5.993092	-15.055708	5.993092	9440.5	-8.218567E-12	-1.216757E+11	17.521635	0.613613	0	0
0	0	0	-0.040286	5.992861	-15.053322	5.992861	9448	-1.49987E-11	-6.667242E+10	17.313867	0.613296	0	0
0	0	0	-0.039551	5.992907	-15.052533	5.992907	9452	-1.288313E-11	-7.76209E+10	17.513589	0.610642	0	0
0	0	0	-0.04	5.992822	-15.052871	5.992822	9449.5	-1.746702E-11	-5.725076E+10	17.338395	0.610642	0	0
0	0	0	-0.038897	5.992901	-15.051713	5.992901	9455	-1.315293E-11	-7.602867E+10	17.409865	0.608385	0	0
0	0	0	-0.038775	5.99302	-15.05186	5.99302	9455.5	-9.593248E-12	-1.0424E+11	17.39957	0.608385	0	0
0	0	0	-0.037713	5.993151	-15.050884	5.993151	9461	-7.379446E-12	-1.355115E+11	17.298502	0.6068	0	0
0	0	0	-0.038203	5.993112	-15.051388	5.993112	9458.5	-7.927371E-12	-1.261452E+11	17.46157	0.605256	0	0
0	0	0	-0.03759	5.992842	-15.049957	5.992842	9462	-1.616176E-11	-6.187445E+10	17.264121	0.604859	0	0
0	0	0	-0.035875	5.992749	-15.047617	5.992749	9470.5	-2.505737E-11	-3.990841E+10	17.445783	0.602523	0	0
0	0	0	-0.037713	5.992927	-15.050323	5.992927	9461	-1.215852E-11	-8.224689E+10	17.286245	0.602721	0	0
0	0	0	-0.03608	5.993013	-15.048529	5.993013	9469.5	-9.75413E-12	-1.025207E+11	17.335606	0.600542	0	0
0	0	0	-0.035916	5.992855	-15.047931	5.992855	9470.5	-1.53967E-11	-6.494899E+10	17.361011	0.600067	0	0
0	0	0	-0.035712	5.992973	-15.047977	5.992973	9471	-1.073944E-11	-9.311472E+10	17.216307	0.599077	0	0
0	0	0	-0.037019	5.992848	-15.049271	5.992848	9465	-1.57677E-11	-6.342078E+10	17.408945	0.597096	0	0
0	0	0	-0.03563	5.992809	-15.047464	5.992809	9472	-1.85236E-11	-5.398519E+10	17.19297	0.596819	0	0
0	0	0	-0.036815	5.992947	-15.049267	5.992947	9465.5	-1.150677E-11	-8.690537E+10	17.370727	0.594482	0	0
0	0	0	-0.035998	5.992802	-15.0479	5.992802	9470	-1.907252E-11	-5.243147E+10	17.216959	0.594918	0	0
0	0	0	-0.03563	5.992907	-15.047712	5.992907	9472	-1.291039E-11	-7.745701E+10	17.248201	0.592699	0	0
0	0	0	-0.036815	5.992842	-15.049003	5.992842	9465.5	-1.616774E-11	-6.185157E+10	17.311666	0.591947	0	0
0	0	0	-0.036243	5.992762	-15.048102	5.992762	9468.5	-2.323011E-11	-4.304758E+10	17.166606	0.591036	0	0
0	0	0	-0.036815	5.993092	-15.049631	5.993092	9465.5	-8.240331E-12	-1.213543E+11	17.351946	0.589135	0	0
0	0	0	-0.038611	5.992855	-15.051246	5.992855	9456.5	-1.537394E-11	-6.504514E+10	17.141426	0.589293	0	0
0	0	0	-0.037713	5.992967	-15.050422	5.992967	9461	-1.091149E-11	-9.164653E+10	17.305591	0.5866	0	0
0	0	0	-0.038979	5.992756	-15.05145	5.992756	9455	-2.407235E-11	-4.154144E+10	17.173142	0.587075	0	0
0	0	0	-0.038162	5.992795	-15.050545	5.992795	9459	-1.963653E-11	-5.09255E+10	17.161317	0.585015	0	0
0	0	0	-0.039387	5.993165	-15.052977	5.993165	9452.5	-7.206198E-12	-1.387694E+11	17.248901	0.584184	0	0
0	0	0	-0.04049	5.992987	-15.053887	5.992987	9447	-1.036386E-11	-9.648913E+10	17.087578	0.583273	0	0
0	0	0	-0.041878	5.992993	-15.055611	5.992993	9440	-1.019048E-11	-9.813077E+10	17.275077	0.581411	0	0
0	0	0	-0.043063	5.99298	-15.057035	5.99298	9434	-1.052067E-11	-9.5051E+10	17.076761	0.581371	0	0
0	0	0	-0.043838	5.993099	-15.058286	5.993099	9430	-8.104847E-12	-1.23383E+11	17.209319	0.578995	0	0
0	0	0	-0.044247	5.993059	-15.058689	5.993059	9427.5	-8.773267E-12	-1.139826E+11	17.111044	0.579351	0	0
0	0	0	-0.044247	5.993013	-15.058574	5.993013	9427.5	-9.710868E-12	-1.029774E+11	17.07854	0.57749	0	0
0	0	0	-0.044859	5.992901	-15.059046	5.992901	9425	-1.31112E-11	-7.627067E+10	17.196894	0.576499	0	0
0	0	0	-0.044124	5.992973	-15.058324	5.992973	9428.5	-1.069125E-11	-9.353444E+10	17.018902	0.575826	0	0
0	0	0	-0.0449	5.993006	-15.059361	5.993006	9424.5	-9.858286E-12	-1.014375E+11	17.223345	0.573687	0	0
0	0	0	-0.045513	5.992954	-15.059982	5.992954	9421	-1.124997E-11	-8.888913E+10	17.016911	0.573727	0	0
0	0	0	-0.046125	5.993125	-15.061165	5.993125	9418.5	-7.70248E-12	-1.298283E+11	17.121879	0.571746	0	0
0	0	0	-0.046084	5.992987	-15.060768	5.992987	9418.5	-1.03326E-11	-9.67811E+10	17.068123	0.571231	0	0
0	0	0	-0.045839	5.993112	-15.06078	5.993112	9420	-7.895103E-12	-1.266608E+11	16.989268	0.569924	0	0
0	0	0	-0.045799	5.99294	-15.060301	5.99294	9420	-1.166157E-11	-8.575171E+10	17.124336	0.568776	0	0
0	0	0	-0.046575	5.992993	-15.061387	5.992993	9416	-1.016458E-11	-9.838089E+10	16.930432	0.56834	0	0
0	0	0	-0.046166	5.99298	-15.060852	5.99298	9418	-1.050282E-11	-9.521248E+10	17.120988	0.566399	0	0
0	0	0	-0.04633	5.992954	-15.060986	5.992954	9417	-1.124519E-11	-8.892688E+10	16.931612	0.566518	0	0
0	0	0	-0.045472	5.993026	-15.060113	5.993026	9421.5	-9.417141E-12	-1.061893E+11	17.035035	0.564221	0	0
0	0	0	-0.045839	5.992769	-15.059921	5.992769	9420	-2.23002E-11	-4.484264E+10	16.997305	0.563943	0	0
0	0	0	-0.044655	5.992973	-15.058977	5.992973	9425.5	-1.068785E-11	-9.356421E+10	16.921975	0.562557	0	0
0	0	0	-0.043634	5.992749	-15.05716	5.992749	9431	-2.495286E-11	-4.007556E+10	17.068828	0.561369	0	0
0	0	0	-0.043103	5.993138	-15.057481	5.993138	9433.5	-7.53215E-12	-1.327642E+11	16.86729	0.560814	0	0
0	0	0	-0.042613	5.993046	-15.056647	5.993046	9436	-9.030288E-12	-1.107384E+11	17.056737	0.558913	0	0
0	0	0	-0.042001	5.993085	-15.055993	5.993085	9439	-8.324676E-12	-1.201248E+11	16.868126	0.559349	0	0
0	0	0	-0.040817	5.993039	-15.054421	5.993039	9445.5	-9.169443E-12	-1.090579E+11	16.960184	0.556814	0	0
0	0	0	-0.041429	5.993006	-15.055092	5.993006	9442	-9.876591E-12	-1.012495E+11	16.941233	0.556536	0	0
0	0	0	-0.039428	5.993085	-15.052829	5.993085	9452.5	-8.336583E-12	-1.199532E+11	16.83341	0.555467	0	0
0	0	0	-0.03951	5.992848	-15.052335	5.992848	9452	-1.574605E-11	-6.350801E+10	16.981853	0.554041	0	0
0	0	0	-0.037672	5.992914	-15.05024	5.992914	9461	-1.264004E-11	-7.911367E+10	16.769994	0.553843	0	0
0	0	0	-0.039142	5.993033	-15.052345	5.993033	9454	-9.311675E-12	-1.073921E+11	16.958011	0.551625	0	0
0	0	0	-0.038571	5.992815	-15.051097	5.992815	9457	-1.79733E-11	-5.563808E+10	16.782259	0.5521	0	0
0	0	0	-0.038448	5.992861	-15.051062	5.992861	9457.5	-1.501379E-11	-6.660545E+10	16.856451	0.549882	0	0
0	0	0	-0.036978	5.993085	-15.049815	5.993085	9465	-8.347607E-12	-1.197948E+11	16.870699	0.549288	0	0
0	0	0	-0.038448	5.992954	-15.051293	5.992954	9457.5	-1.129356E-11	-8.854607E+10	16.756718	0.548021	0	0
0	0	0	-0.037999	5.993006	-15.050873	5.993006	9460	-9.89542E-12	-1.010569E+11	16.923664	0.546634	0	0
0	0	0	-0.038489	5.992769	-15.050881	5.992769	9457	-2.23878E-11	-4.466719E+10	16.71297	0.546634	0	0
0	0	0	-0.037345	5.992901	-15.049805	5.992901	9463	-1.316406E-11	-7.59644E+10	16.894566	0.544575	0	0
0	0	0	-0.037264	5.99298	-15.049902	5.99298	9463.5	-1.055357E-11	-9.475471E+10	16.729646	0.544773	0	0
0	0	0	-0.037345	5.992749	-15.049425	5.992749	9463	-2.503753E-11	-3.994004E+10	16.794885	0.542436	0	0
0	0	0	-0.03853	5.992894	-15.051245	5.992894	9457	-1.343268E-11	-7.444532E+10	16.794358	0.542238	0	0
0	0	0	-0.039142	5.99298	-15.052213	5.99298	9454	-1.054297E-11	-9.484992E+10	16.674861	0.541049	0	0
0	0	0	-0.038693	5.99294	-15.051561	5.99294	9456	-1.170614E-11	-8.542525E+10	16.846646	0.539465	0	0
0	0	0	-0.039877	5.992921	-15.052968	5.992921	9450	-1.238019E-11	-8.077419E+10	16.63836	0.539227	0	0
0	0	0	-0.039877	5.992901	-15.052919	5.992901	9450	-1.314598E-11	-7.60689E+10	16.798189	0.537326	0	0
0	0	0	-0.040531	5.992927	-15.053788	5.992927	9447	-1.214052E-11	-8.236877E+10	16.644009	0.537524	0	0
0	0	0	-0.041633	5.993105	-15.05559	5.993105	9441	-8.012235E-12	-1.248091E+11	16.683577	0.535742	0	0
0	0	0	-0.042368	5.993026	-15.056296	5.993026	9437.5	-9.433134E-12	-1.060093E+11	16.717359	0.53495	0	0
0	0	0	-0.042654	5.993046	-15.056697	5.993046	9436	-9.030288E-12	-1.107384E+11	16.590075	0.534039	0	0
0	0	0	-0.043757	5.992828	-15.057508	5.992828	9430.5	-1.696705E-11	-5.893778E+10	16.775026	0.532335	0	0
0	0	0	-0.045064	5.992795	-15.059033	5.992795	9423.5	-1.956283E-11	-5.111735E+10	16.553181	0.532573	0	0
0	0	0	-0.044165	5.992815	-15.057978	5.992815	9428.5	-1.791914E-11	-5.580626E+10	16.726878	0.530474	0	0
0	0	0	-0.045064	5.993006	-15.059562	5.993006	9423.5	-9.85724E-12	-1.014483E+11	16.566713	0.53083	0	0
0	0	0	-0.046493	5.992921	-15.061105	5.992921	9416	-1.233565E-11	-8.106586E+10	16.627668	0.528454	0	0
0	0	0	-0.046983	5.99294	-15.061757	5.99294	9414	-1.165415E-11	-8.580637E+10	16.647745	0.528137	0	0
0	0	0	-0.046656	5.993085	-15.061719	5.993085	9415.5	-8.303951E-12	-1.204246E+11	16.519135	0.526949	0	0
0	0	0	-0.046044	5.993033	-15.060833	5.993033	9418.5	-9.27671E-12	-1.077968E+11	16.685865	0.525523	0	0
0	0	0	-0.046738	5.992881	-15.061307	5.992881	9415	-1.396085E-11	-7.16289E+10	16.45869	0.5258	0	0
0	0	0	-0.047759	5.992993	-15.062844	5.992993	9410	-1.01581E-11	-9.844362E+10	16.623906	0.523503	0	0
0	0	0	-0.048535	5.99294	-15.063666	5.99294	9406	-1.164424E-11	-8.587935E+10	16.47863	0.52374	0	0
0	0	0	-0.048576	5.993138	-15.064211	5.993138	9405.5	-7.509793E-12	-1.331595E+11	16.512617	0.521839	0	0
0	0	0	-0.050209	5.993006	-15.06589	5.993006	9397.5	-9.830043E-12	-1.01729E+11	0	0	0	0
0	0	0	-0.049188	5.99298	-15.064568	5.99298	9402.5	-1.048554E-11	-9.536944E+10	0	0	0	0
0	0	0	-0.04784	5.992848	-15.062581	5.992848	9409.5	-1.567524E-11	-6.379486E+10	0	0	0	0
0	0	0	-0.047473	5.993118	-15.062806	5.993118	9411	-7.79078E-12	-1.283568E+11	0	0	0	0
0	0	0	-0.047269	5.993013	-15.06229	5.993013	9412.5	-9.695417E-12	-1.031415E+11	0	0	0	0
0	0	0	-0.045962	5.993059	-15.060799	5.993059	9419	-8.765357E-12	-1.140855E+11	0	0	0	0
0	0	0	-0.045145	5.992729	-15.058968	5.992729	9423.5	-2.825742E-11	-3.538893E+10	0	0	0	0
0	0	0	-0.046166	5.992789	-15.060373	5.992789	9418	-2.017209E-11	-4.957344E+10	0	0	0	0
0	0	0	-0.044206	5.992901	-15.058243	5.992901	9428	-1.311537E-11	-7.62464E+10	0	0	0	0
0	0	0	-0.044737	5.992987	-15.05911	5.992987	9425.5	-1.034027E-11	-9.670923E+10	0	0	0	0
0	0	0	-0.042981	5.992914	-15.056769	5.992914	9434	-1.260397E-11	-7.934009E+10	0	0	0	0
0	0	0	-0.042001	5.992835	-15.055365	5.992835	9439	-1.654124E-11	-6.045496E+10	0	0	0	0
0	0	0	-0.040041	5.992894	-15.053103	5.992894	9449	-1.342131E-11	-7.450835E+10	0	0	0	0
0	0	0	-0.041021	5.992914	-15.054358	5.992914	9444	-1.261733E-11	-7.925608E+10	0	0	0	0
0	0	0	-0.039796	5.992993	-15.053049	5.992993	9450.5	-1.020182E-11	-9.802174E+10	0	0	0	0
0	0	0	-0.040898	5.993006	-15.054439	5.993006	9445	-9.879729E-12	-1.012173E+11	0	0	0	0
0	0	0	-0.039101	5.992848	-15.051832	5.992848	9454	-1.574938E-11	-6.349458E+10	0	0	0	0
0	0	0	-0.040327	5.992934	-15.053554	5.992934	9447.5	-1.191423E-11	-8.393326E+10	0	0	0	0
0	0	0	-0.03853	5.992934	-15.051344	5.992934	9457	-1.192621E-11	-8.384894E+10	0	0	0	0
0	0	0	-0.038407	5.992901	-15.051111	5.992901	9457.5	-1.315641E-11	-7.600857E+10	0	0	0	0
0	0	0	-0.038448	5.992703	-15.050665	5.992703	9457.5	-3.449113E-11	-2.899296E+10	0	0	0	0
0	0	0	-0.039101	5.992782	-15.051667	5.992782	9454	-2.091311E-11	-4.78169E+10	0	0	0	0
0	0	0	-0.038816	5.993204	-15.052373	5.993204	9455.5	-6.750804E-12	-1.481305E+11	0	0	0	0
0	0	0	-0.039673	5.992868	-15.052585	5.992868	9451	-1.465856E-11	-6.821953E+10	0	0	0	0
0	0	0	-0.039673	5.993046	-15.053031	5.993046	9451	-9.044643E-12	-1.105627E+11	0	0	0	0
0	0	0	-0.038816	5.992907	-15.051629	5.992907	9455.5	-1.28879E-11	-7.759217E+10	0	0	0	0
0	0	0	-0.039714	5.992809	-15.052487	5.992809	9451	-1.848253E-11	-5.410514E+10	0	0	0	0
0	0	0	-0.040367	5.992921	-15.053571	5.992921	9447.5	-1.237692E-11	-8.079557E+10	0	0	0	0
0	0	0	-0.040817	5.992954	-15.054206	5.992954	9445.5	-1.127923E-11	-8.865856E+10	0	0	0	0
0	0	0	-0.041552	5.993052	-15.055358	5.993052	9441.5	-8.90918E-12	-1.122438E+11	0	0	0	0
0	0	0	-0.041674	5.992967	-15.055294	5.992967	9441	-1.088842E-11	-9.184067E+10	0	0	0	0
0	0	0	-0.042042	5.992762	-15.055234	5.992762	9439	-2.315774E-11	-4.318211E+10	0	0	0	0
0	0	0	-0.043348	5.993171	-15.057865	5.993171	9432.5	-7.110605E-12	-1.40635E+11	0	0	0	0
0	0	0	-0.043308	5.993	-15.057385	5.993	9432.5	-1.002203E-11	-9.978014E+10	0	0	0	0
0	0	0	-0.045145	5.992973	-15.05958	5.992973	9423.5	-1.068558E-11	-9.358407E+10	0	0	0	0
0	0	0	-0.045676	5.993085	-15.060513	5.993085	9420.5	-8.30836E-12	-1.203607E+11	0	0	0	0
0	0	0	-0.046983	5.993033	-15.061988	5.993033	9414	-9.272278E-12	-1.078484E+11	0	0	0	0
0	0	0	-0.047555	5.99298	-15.062559	5.99298	9411	-1.049502E-11	-9.52833E+10	0	0	0	0
0	0	0	-0.047595	5.993112	-15.06294	5.993112	9410.5	-7.887141E-12	-1.267887E+11	0	0	0	0
0	0	0	-0.048535	5.993085	-15.064029	5.993085	9406	-8.295572E-12	-1.205462E+11	0	0	0	0
0	0	0	-0.047391	5.992927	-15.062226	5.992927	9412	-1.209554E-11	-8.267507E+10	0	0	0	0
0	0	0	-0.047024	5.993118	-15.062253	5.993118	9413.5	-7.79285E-12	-1.283228E+11	0	0	0	0
0	0	0	-0.048453	5.992901	-15.063466	5.992901	9406	-1.308477E-11	-7.642474E+10	0	0	0	0
0	0	0	-0.050291	5.993138	-15.066321	5.993138	9397	-7.503006E-12	-1.332799E+11	0	0	0	0
0	0	0	-0.050168	5.99294	-15.065675	5.99294	9397.5	-1.163372E-11	-8.595702E+10	0	0	0	0
0	0	0	-0.049311	5.993112	-15.065049	5.993112	9402	-7.880017E-12	-1.269033E+11	0	0	0	0
0	0	0	-0.049515	5.992967	-15.064937	5.992967	9401	-1.084229E-11	-9.223144E+10	0	0	0	0
0	0	0	-0.049515	5.993059	-15.065168	5.993059	9401	-8.748606E-12	-1.143039E+11	0	0	0	0
0	0	0	-0.049147	5.993079	-15.064766	5.993079	9402.5	-8.40232E-12	-1.190148E+11	0	0	0	0
0	0	0	-0.048616	5.993105	-15.064179	5.993105	9405.5	-7.982107E-12	-1.252802E+11	0	0	0	0
0	0	0	-0.048821	5.993105	-15.06443	5.993105	9404.5	-7.981259E-12	-1.252935E+11	0	0	0	0
0	0	0	-0.047065	5.993066	-15.062171	5.993066	9413.5	-8.641051E-12	-1.157267E+11	0	0	0	0
0	0	0	-0.047269	5.993013	-15.06229	5.993013	9412.5	-9.695417E-12	-1.031415E+11	0	0	0	0
0	0	0	-0.047922	5.992868	-15.062731	5.992868	9409	-1.459342E-11	-6.852404E+10	0	0	0	0
0	0	0	-0.044574	5.993072	-15.059124	5.993072	9426	-8.536384E-12	-1.171456E+11	0	0	0	0
0	0	0	-0.045554	5.993099	-15.060396	5.993099	9421	-8.097112E-12	-1.235008E+11	0	0	0	0
0	0	0	-0.044206	5.993072	-15.058672	5.993072	9428	-8.538196E-12	-1.171208E+11	0	0	0	0
0	0	0	-0.042981	5.993066	-15.057149	5.993066	9434	-8.659869E-12	-1.154752E+11	0	0	0	0
0	0	0	-0.041715	5.99294	-15.055278	5.99294	9440.5	-1.168695E-11	-8.55655E+10	0	0	0	0
0	0	0	-0.043634	5.992921	-15.057589	5.992921	9431	-1.23553E-11	-8.093692E+10	0	0	0	0
0	0	0	-0.042246	5.992736	-15.055419	5.992736	9438	-2.709661E-11	-3.690499E+10	0	0	0	0
0	0	0	-0.041347	5.992868	-15.054644	5.992868	9442.5	-1.464538E-11	-6.828094E+10	0	0	0	0
0	0	0	-0.040204	5.992907	-15.053337	5.992907	9448.5	-1.287836E-11	-7.764965E+10	0	0	0	0
0	0	0	-0.040204	5.992927	-15.053387	5.992927	9448.5	-1.214245E-11	-8.235569E+10	0	0	0	0
0	0	0	-0.038979	5.992776	-15.0515	5.992776	9455	-2.162431E-11	-4.624424E+10	0	0	0	0
0	0	0	-0.039306	5.992822	-15.052017	5.992822	9453	-1.747349E-11	-5.722956E+10	0	0	0	0
0	0	0	-0.040735	5.992874	-15.053907	5.992874	9445.5	-1.432082E-11	-6.982843E+10	0	0	0	0
0	0	0	-0.039836	5.992802	-15.052621	5.992802	9450.5	-1.903324E-11	-5.253966E+10	0	0	0	0
0	0	0	-0.039469	5.992921	-15.052466	5.992921	9452	-1.238281E-11	-8.07571E+10	0	0	0	0
0	0	0	-0.039877	5.993006	-15.053183	5.993006	9450	-9.88496E-12	-1.011638E+11	0	0	0	0
0	0	0	-0.039591	5.992947	-15.052683	5.992947	9451.5	-1.148975E-11	-8.70341E+10	0	0	0	0
0	0	0	-0.03902	0	-0.03902	0	9454.5	0	0	0	0	0	0
0	0	0	-0.041552	0	-0.041552	0	9441.5	0	0	0	0	0	0
