Vload_(V)	ILoad_(A)	RsLoad (ohm)	SunsVoc_Voltage_(V)	SunsVoc_Current_(A)	Model_Voltage_(V)	Model_Current_(A)	Carrier_Density_(cm-3)	Lifetime_(s)	Inverse_Lifetime_(s-1)	Efficiency_(%)	Intensity_(suns)	Dark_IV_Voltage_(V)	Dark_IV_Current_(A)
2.974478	6.415253	0	65.136385	-0.987253	65.399049	-0.987253	3.949744E+15	0.000224	4438.728232	19.611927	1.11188	0	0
2.959715	6.415978	-0.484267	65.136712	-0.768412	65.341137	-0.768412	3.950048E+15	0.000231	4306.401248	19.775974	1.110652	0	0
7.080692	6.409007	5.390932	64.973529	-0.28555	65.052155	-0.28555	3.800358E+15	0.000238	4176.297157	19.679131	1.111049	0	0
12.296755	6.384213	5.989765	64.793072	0.186031	64.739934	0.186031	3.64065E+15	0.000245	4053.959332	19.710297	1.109464	0	0
16.952477	6.383089	5.279376	64.610492	0.622665	64.426143	0.622665	3.485078E+15	0.000253	3939.291108	19.763711	1.109068	0	0
21.737775	6.378005	4.605956	64.429872	1.019372	64.117566	1.019372	3.336923E+15	0.00026	3833.560622	19.628238	1.108514	0	0
26.907412	6.287732	4.408581	64.256765	1.375331	63.821819	1.375331	3.200109E+15	0.000267	3734.752768	19.786856	1.106335	0	0
31.754104	6.280459	3.666066	64.084762	1.703223	63.529403	1.703223	3.069016E+15	0.000273	3641.861806	19.599131	1.106533	0	0
36.639983	6.276485	2.902256	63.915371	2.005959	63.241913	2.005959	2.944484E+15	0.00028	3552.869791	19.728217	1.10376	0	0
41.146667	6.341295	1.889305	63.743899	2.293808	62.951356	2.293808	2.822887E+15	0.000288	3464.784452	19.655224	1.103919	0	0
45.968719	6.315545	1.264617	63.576591	2.560572	62.667432	2.560572	2.708433E+15	0.000295	3378.179759	19.620121	1.102176	0	0
47.383153	6.302412	1.096688	63.404016	2.81074	62.378353	2.81074	2.59457E+15	0.000302	3298.278523	19.722079	1.101305	0	0
48.793391	6.276048	0.967381	63.236055	3.045392	62.095577	3.045392	2.48771E+15	0.00031	3216.639964	19.542754	1.101542	0	0
50.218452	6.233144	0.861452	63.06887	3.261743	61.816253	3.261743	2.385095E+15	0.000317	3140.216067	19.726837	1.099443	0	0
51.655183	6.164055	0.777153	62.899112	3.460365	61.536698	3.460365	2.284609E+15	0.000325	3072.42481	19.56398	1.100433	0	0
53.075557	6.061688	0.705647	62.740462	3.642184	61.273489	3.642184	2.193969E+15	0.000332	3002.971526	19.658761	1.098532	0	0
54.452867	5.908876	0.651023	62.577197	3.81173	61.006424	3.81173	2.10389E+15	0.000339	2940.557509	19.661114	1.098651	0	0
55.851856	5.682317	0.600987	62.421202	3.97089	60.749493	3.97089	2.02076E+15	0.000347	2874.771585	19.592201	1.097819	0	0
57.215219	5.359963	0.559422	62.257896	4.118954	60.485471	4.118954	1.936717E+15	0.000354	2818.246454	19.735475	1.097185	0	0
58.55088	4.914642	0.525645	62.097898	4.257373	60.22704	4.257373	1.857247E+15	0.000361	2762.061644	19.559487	1.097423	0	0
59.854957	4.323764	0.495392	61.939207	4.387162	59.971587	4.387162	1.781147E+15	0.000369	2707.189924	19.7428	1.095046	0	0
61.123418	3.563365	0.466876	61.781782	4.507746	59.719588	4.507746	1.708252E+15	0.000376	2655.202634	19.615068	1.095799	0	0
62.293018	2.665467	0.44611	61.622601	4.620353	59.466923	4.620353	1.637098E+15	0.000383	2607.356789	19.6631	1.093779	0	0
63.347582	1.69446	0.449233	61.467586	4.724711	59.221425	4.724711	1.5702E+15	0.00039	2560.663217	19.705509	1.093145	0	0
64.232722	0.76471	0.456721	61.314734	4.822204	58.980165	4.822204	1.506483E+15	0.000397	2515.3023	19.585738	1.092234	0	0
53.768744	5.988914	0.681745	61.160372	4.912781	58.738678	4.912781	1.444335E+15	0.000404	2474.607332	19.755341	1.090254	0	0
64.898617	0	0	61.004009	4.997934	58.495745	4.997934	1.383569E+15	0.00041	2437.11403	19.568513	1.090373	0	0
0	0	0	60.854383	5.077228	58.262976	5.077228	1.327425E+15	0.000416	2398.280891	19.707817	1.08764	0	0
0	0	0	60.706555	5.150587	58.034257	5.150587	1.273826E+15	0.000423	2362.360736	19.627088	1.087204	0	0
0	0	0	60.557624	5.219143	57.805402	5.219143	1.221653E+15	0.000429	2329.896815	19.621234	1.084709	0	0
0	0	0	60.408407	5.284317	57.576822	5.284317	1.17117E+15	0.000435	2298.07037	19.705148	1.08352	0	0
0	0	0	60.264458	5.345836	57.355997	5.345836	1.124119E+15	0.000441	2264.163057	19.539675	1.082926	0	0
0	0	0	60.119447	5.403816	57.134727	5.403816	1.078315E+15	0.000448	2232.507744	19.723278	1.080391	0	0
0	0	0	59.974069	5.45814	56.914064	5.45814	1.033959E+15	0.000453	2203.361313	19.547908	1.080708	0	0
0	0	0	59.833387	5.509359	56.700439	5.509359	9.92485E+14	0.00046	2172.711245	19.664111	1.077856	0	0
0	0	0	59.690908	5.558594	56.484769	5.558594	9.518967E+14	0.000466	2142.339648	19.632712	1.077935	0	0
0	0	0	59.549573	5.603781	56.272176	5.603781	9.130039E+14	0.000472	2115.884733	19.575145	1.076311	0	0
0	0	0	59.409544	5.646384	56.062114	5.646384	8.757806E+14	0.000478	2090.103269	19.710567	1.074846	0	0
0	0	0	59.266493	5.68623	55.849025	5.68623	8.390646E+14	0.000483	2068.595475	19.532115	1.075123	0	0
0	0	0	59.129405	5.723701	55.644641	5.723701	8.050889E+14	0.000489	2045.162246	19.721435	1.072588	0	0
0	0	0	58.993052	5.758769	55.44213	5.758769	7.724395E+14	0.000494	2023.590729	19.578745	1.073024	0	0
0	0	0	58.858168	5.791803	55.242299	5.791803	7.412356E+14	0.000499	2002.732993	19.650341	1.070608	0	0
0	0	0	58.721284	5.822918	55.040507	5.822918	7.106519E+14	0.000504	1984.733656	19.671034	1.070132	0	0
0	0	0	58.5893	5.852855	54.845519	5.852855	6.821696E+14	0.000509	1963.16034	19.564121	1.068786	0	0
0	0	0	58.453396	5.880608	54.646258	5.880608	6.53847E+14	0.000513	1947.1825	19.735473	1.066647	0	0
0	0	0	58.323332	5.906917	54.455321	5.906917	6.276723E+14	0.000518	1928.61821	19.553093	1.066409	0	0
0	0	0	58.190653	5.931835	54.261415	5.931835	6.018854E+14	0.000523	1912.702952	19.722281	1.063201	0	0
0	0	0	58.060956	5.955478	54.071982	5.955478	5.775469E+14	0.000527	1895.863289	19.612261	1.06324	0	0
0	0	0	57.928319	5.977604	53.879282	5.977604	5.535219E+14	0.000531	1882.995524	19.632421	1.06023	0	0
0	0	0	57.799235	5.99866	53.691749	5.99866	5.309585E+14	0.000535	1868.606799	19.696028	1.058923	0	0
0	0	0	57.673499	6.018582	53.509189	6.018582	5.097361E+14	0.000539	1853.357179	19.552672	1.057299	0	0
0	0	0	57.541923	6.037579	53.319139	6.037579	4.883054E+14	0.000543	1842.077851	19.719783	1.054804	0	0
0	0	0	57.416269	6.054955	53.137916	6.054955	4.685619E+14	0.000546	1831.401335	19.535442	1.054408	0	0
0	0	0	57.288124	6.071755	52.953502	6.071755	4.491346E+14	0.000549	1821.559047	19.665841	1.051239	0	0
0	0	0	57.166472	6.087322	52.778479	6.087322	4.313354E+14	0.000552	1810.793043	19.611213	1.050368	0	0
0	0	0	57.039225	6.102316	52.596115	6.102316	4.133706E+14	0.000555	1803.118904	19.583966	1.047833	0	0
0	0	0	56.912713	6.11667	52.414995	6.11667	3.961536E+14	0.000557	1795.206532	19.69733	1.046169	0	0
0	0	0	56.789632	6.130072	52.239004	6.130072	3.800027E+14	0.000559	1787.517945	19.522668	1.045258	0	0
0	0	0	56.665979	6.142889	52.062493	6.142889	3.643558E+14	0.000562	1780.518269	19.711177	1.042367	0	0
0	0	0	56.544367	6.155357	51.888822	6.155357	3.495176E+14	0.000565	1771.152675	19.554671	1.04205	0	0
0	0	0	56.423083	6.166797	51.716206	6.166797	3.352479E+14	0.000566	1765.276501	19.648434	1.039158	0	0
0	0	0	56.30188	6.177952	51.543761	6.177952	3.215005E+14	0.000569	1758.132924	19.650364	1.038208	0	0
0	0	0	56.18182	6.188527	51.373159	6.188527	3.083738E+14	0.000571	1751.301082	19.56945	1.036425	0	0
0	0	0	56.063884	6.198286	51.205927	6.198286	2.959418E+14	0.000573	1746.335197	19.72159	1.034207	0	0
0	0	0	55.943988	6.207844	51.036067	6.207844	2.837597E+14	0.000574	1741.078055	19.543463	1.033375	0	0
0	0	0	55.8216	6.216898	50.863105	6.216898	2.717854E+14	0.000575	1738.453172	19.709025	1.030325	0	0
0	0	0	55.706523	6.225639	50.700174	6.225639	2.609388E+14	0.000578	1730.929477	19.579125	1.029969	0	0
0	0	0	55.588546	6.233589	50.533839	6.233589	2.502216E+14	0.000578	1729.392514	19.629844	1.02684	0	0
0	0	0	55.472815	6.241073	50.370823	6.241073	2.400932E+14	0.000579	1728.100282	19.666376	1.025572	0	0
0	0	0	55.357003	6.248592	50.20757	6.248592	2.303278E+14	0.00058	1723.61787	19.554004	1.023394	0	0
0	0	0	55.238454	6.255798	50.040764	6.255798	2.207037E+14	0.000581	1721.013821	19.730304	1.020423	0	0
0	0	0	55.123458	6.262719	49.878922	6.262719	2.117167E+14	0.000583	1716.200372	19.538818	1.019948	0	0
0	0	0	55.008013	6.268732	49.717146	6.268732	2.030294E+14	0.000582	1719.095864	19.700306	1.016027	0	0
0	0	0	54.892364	6.275133	49.554683	6.275133	1.946527E+14	0.000583	1714.748631	19.592993	1.015591	0	0
0	0	0	54.77794	6.28082	49.394411	6.28082	1.86676E+14	0.000583	1715.447394	19.592017	1.012779	0	0
0	0	0	54.661106	6.286516	49.230784	6.286516	1.788405E+14	0.000583	1714.746322	19.691101	1.010442	0	0
0	0	0	54.54513	6.291776	49.068626	6.291776	1.713617E+14	0.000583	1716.465881	19.538437	1.009055	0	0
0	0	0	54.430584	6.297008	48.908366	6.297008	1.642582E+14	0.000583	1714.828625	19.724288	1.005728	0	0
0	0	0	54.313669	6.301923	48.745097	6.301923	1.572885E+14	0.000583	1716.3802	19.539804	1.005411	0	0
0	0	0	54.201695	6.306488	48.588793	6.306488	1.508704E+14	0.000582	1717.316185	19.661569	1.002203	0	0
0	0	0	54.085964	6.311031	48.427342	6.311031	1.444926E+14	0.000582	1718.235709	19.602961	1.001609	0	0
0	0	0	53.969539	6.315242	48.265185	6.315242	1.383299E+14	0.000581	1722.27206	19.563895	0.999114	0	0
0	0	0	53.858504	6.319235	48.110505	6.319235	1.326813E+14	0.00058	1723.892422	19.699416	0.996975	0	0
0	0	0	53.738853	6.323357	47.943931	6.323357	1.268357E+14	0.000579	1725.943416	19.522922	0.996222	0	0
0	0	0	53.631167	6.326775	47.794235	6.326775	1.217815E+14	0.000578	1730.717381	19.718175	0.992974	0	0
0	0	0	53.512006	6.330474	47.628616	6.330474	1.16409E+14	0.000576	1734.892387	19.564154	0.992459	0	0
0	0	0	53.399827	6.333956	47.472657	6.333956	1.115556E+14	0.000576	1736.020255	19.64886	0.989766	0	0
0	0	0	53.287486	6.336973	47.316869	6.336973	1.068866E+14	0.000573	1744.6219	19.644191	0.988696	0	0
0	0	0	53.171633	6.340501	47.155775	6.340501	1.022651E+14	0.000574	1741.276196	19.56658	0.986478	0	0
0	0	0	53.059822	6.343313	47.000824	6.343313	9.798464E+13	0.000572	1748.984188	19.727394	0.984062	0	0
0	0	0	52.942294	6.346394	46.837792	6.346394	9.366859E+13	0.000571	1751.222125	19.543152	0.98323	0	0
0	0	0	52.829136	6.348984	46.681146	6.348984	8.968403E+13	0.000568	1760.234295	19.7122	0.980022	0	0
0	0	0	52.713446	6.351435	46.521152	6.351435	8.577733E+13	0.000564	1772.31576	19.582583	0.979428	0	0
0	0	0	52.596694	6.354059	46.359511	6.354059	8.199952E+13	0.000562	1777.767704	19.621391	0.976299	0	0
0	0	0	52.479738	6.356513	46.197723	6.356513	7.837472E+13	0.00056	1785.379246	19.659824	0.974912	0	0
0	0	0	52.363803	6.358918	46.037343	6.358918	7.493315E+13	0.000558	1790.916282	19.539562	0.972932	0	0
0	0	0	52.243866	6.361181	45.87162	6.361181	7.152539E+13	0.000555	1800.897264	19.721926	0.970001	0	0
0	0	0	52.122581	6.363492	45.703979	6.363492	6.823087E+13	0.000553	1807.174031	19.530435	0.969526	0	0
0	0	0	52.002889	6.365377	45.53891	6.365377	6.512295E+13	0.000548	1824.449038	19.694083	0.965802	0	0
0	0	0	51.886383	6.367486	45.377929	6.367486	6.222894E+13	0.000547	1828.567312	19.598333	0.965406	0	0
0	0	0	51.763464	6.369238	45.208546	6.369238	5.931027E+13	0.000541	1848.172187	19.598719	0.96295	0	0
0	0	0	51.632461	6.371047	45.028054	6.371047	5.634527E+13	0.000535	1868.977434	19.687985	0.961089	0	0
0	0	0	51.510073	6.372936	44.859202	6.372936	5.370521E+13	0.000533	1877.05911	19.53518	0.959623	0	0
0	0	0	51.385195	6.374814	44.686936	6.374814	5.11351E+13	0.000531	1883.88157	19.726524	0.956573	0	0
0	0	0	51.266279	6.376328	44.523161	6.376328	4.879885E+13	0.000526	1900.16799	19.545267	0.956217	0	0
0	0	0	51.140625	6.377848	44.35017	6.377848	4.644297E+13	0.000521	1918.628594	19.67944	0.953127	0	0
0	0	0	51.013337	6.379242	44.175063	6.379242	4.416938E+13	0.000515	1942.180417	19.615936	0.952652	0	0
0	0	0	50.89438	6.380703	44.011227	6.380703	4.214282E+13	0.000512	1952.9957	19.589256	0.950117	0	0
0	0	0	50.774157	6.381984	43.84584	6.381984	4.01869E+13	0.000507	1972.111841	19.703312	0.948097	0	0
0	0	0	50.651443	6.383238	43.677067	6.383238	3.828192E+13	0.000502	1992.238927	19.52785	0.946988	0	0
0	0	0	50.52779	6.384347	43.507154	6.384347	3.64517E+13	0.000495	2019.75003	19.723173	0.943819	0	0
0	0	0	50.407526	6.385334	43.341984	6.385334	3.475388E+13	0.000488	2050.759202	19.556525	0.943661	0	0
0	0	0	50.279014	6.386606	43.16523	6.386606	3.302518E+13	0.000484	2066.387246	19.663546	0.940334	0	0
0	0	0	50.15193	6.387608	42.990709	6.387608	3.139868E+13	0.000477	2097.424115	19.648231	0.939542	0	0
0	0	0	50.024561	6.388861	42.8155	6.388861	2.984745E+13	0.000475	2106.446088	19.573135	0.937323	0	0
0	0	0	49.886411	6.389679	42.626055	6.389679	2.824996E+13	0.000464	2156.549145	19.718432	0.935026	0	0
0	0	0	49.75361	6.390474	42.443924	6.390474	2.679367E+13	0.000454	2203.055997	19.533599	0.934194	0	0
0	0	0	49.615052	6.391592	42.253551	6.391592	2.535297E+13	0.00045	2223.220113	19.722251	0.930788	0	0
0	0	0	49.475227	6.392592	42.06157	6.392592	2.397648E+13	0.000444	2251.508405	19.57736	0.930273	0	0
0	0	0	49.326623	6.393426	41.857784	6.393426	2.259424E+13	0.000435	2301.335241	19.642741	0.927223	0	0
0	0	0	49.177569	6.39439	41.653217	6.39439	2.128683E+13	0.000428	2334.749439	19.654699	0.926233	0	0
0	0	0	49.02239	6.395075	41.440603	6.395075	2.000502E+13	0.000416	2402.760517	19.560768	0.924094	0	0
0	0	0	48.865006	6.39582	41.224896	6.39582	1.878289E+13	0.000406	2464.655727	19.727578	0.92148	0	0
0	0	0	48.701864	6.396556	41.001328	6.396556	1.759395E+13	0.000395	2531.625848	19.538654	0.920767	0	0
0	0	0	48.536639	6.397124	40.775105	6.397124	1.646573E+13	0.000381	2622.858112	19.706806	0.917677	0	0
0	0	0	48.365207	6.39802	40.539997	6.39802	1.537081E+13	0.000374	2670.774484	19.584923	0.917321	0	0
0	0	0	48.185322	6.398873	40.293387	6.398873	1.42994E+13	0.000366	2728.904476	19.615509	0.914509	0	0
0	0	0	48.003762	6.39945	40.044815	6.39945	1.32931E+13	0.000353	2832.062844	19.67895	0.913043	0	0
0	0	0	47.809707	6.40006	39.77913	6.40006	1.229512E+13	0.00034	2943.652609	19.538719	0.911696	0	0
0	0	0	47.605851	6.40055	39.500204	6.40055	1.132674E+13	0.000323	3092.229278	19.729509	0.908845	0	0
0	0	0	47.391826	6.401164	39.207226	6.401164	1.03915E+13	0.00031	3229.885199	19.541902	0.908449	0	0
0	0	0	47.167102	6.401819	38.899571	6.401819	9.491998E+12	0.000297	3371.469101	19.68612	0.90524	0	0
0	0	0	46.92682	6.402397	38.570758	6.402397	8.615714E+12	0.000281	3554.683736	19.592814	0.904963	0	0
0	0	0	46.672081	6.403107	38.222016	6.403107	7.774455E+12	0.000269	3721.880018	19.596265	0.902151	0	0
0	0	0	46.404438	6.403569	37.855964	6.403569	6.978531E+12	0.000251	3988.478746	19.68268	0.900527	0	0
0	0	0	46.131405	6.404113	37.482428	6.404113	6.25015E+12	0.000236	4245.824447	19.524672	0.899536	0	0
0	0	0	45.846039	6.404579	37.092142	6.404579	5.569704E+12	0.000219	4565.409206	19.720705	0.896605	0	0
0	0	0	45.546829	6.405	36.683	6.405	4.935414E+12	0.000202	4949.131166	19.539879	0.896091	0	0
0	0	0	45.235287	6.405475	36.256925	6.405475	4.351406E+12	0.000187	5352.849178	19.667517	0.892961	0	0
0	0	0	44.903122	6.406187	35.802338	6.406187	3.804471E+12	0.000176	5676.742048	19.607021	0.892684	0	0
0	0	0	44.554663	6.406425	35.326155	6.406425	3.304282E+12	0.000157	6364.314153	19.584482	0.889951	0	0
0	0	0	44.182479	6.406904	34.817212	6.406904	2.842312E+12	0.000143	6997.752654	19.705317	0.888248	0	0
0	0	0	43.790488	6.407314	34.281302	6.407314	2.425306E+12	0.000128	7798.133206	19.544358	0.886862	0	0
0	0	0	43.375343	6.407913	33.713469	6.407913	2.05009E+12	0.000117	8529.36181	19.737915	0.884168	0	0
0	0	0	42.935452	6.408307	33.112124	6.408307	1.715578E+12	0.000104	9644.662772	19.565789	0.88401	0	0
0	0	0	42.463871	6.408384	32.467977	6.408384	1.417288E+12	8.661705E-5	11545.071113	19.662681	0.881198	0	0
0	0	0	41.950677	6.408943	31.766231	6.408943	1.151251E+12	7.658443E-5	13057.484527	19.643895	0.880168	0	0
0	0	0	41.402895	6.409266	31.017595	6.409266	9.221072E+11	6.464977E-5	15467.958109	19.56844	0.878187	0	0
0	0	0	40.821341	6.409556	30.222868	6.409556	7.285114E+11	5.36809E-5	18628.601333	19.716913	0.876246	0	0
0	0	0	40.192335	6.409794	29.363403	6.409794	5.645831E+11	4.34094E-5	23036.487486	19.535747	0.875494	0	0
0	0	0	39.526577	6.410145	28.453528	6.410145	4.310618E+11	3.542527E-5	28228.439171	19.72837	0.872325	0	0
0	0	0	38.815775	6.410282	27.482486	6.410282	3.231566E+11	2.728952E-5	36644.099994	19.574626	0.872563	0	0
0	0	0	38.046904	6.410821	26.431393	6.410821	2.366224E+11	2.241132E-5	44620.308219	19.654208	0.869552	0	0
0	0	0	37.206609	6.41121	25.282979	6.41121	1.683129E+11	1.747343E-5	57229.736202	19.659703	0.86876	0	0
0	0	0	36.288194	6.411481	24.028051	6.411481	1.159897E+11	1.290603E-5	77483.139742	19.562033	0.867176	0	0
0	0	0	35.322205	6.411696	22.708223	6.411696	7.84044E+10	9.251287E-6	108093.074094	19.732508	0.864839	0	0
0	0	0	34.386924	6.411954	21.43023	6.411954	5.366178E+10	6.827319E-6	146470.369688	19.544911	0.864205	0	0
0	0	0	33.484762	6.412166	20.197541	6.412166	3.722364E+10	5.060935E-6	197591.945125	19.731412	0.861195	0	0
0	0	0	32.599466	6.412439	18.987738	6.412439	2.599805E+10	3.877485E-6	257899.104399	19.590229	0.861235	0	0
0	0	0	31.748391	6.41254	17.825023	6.41254	1.841142E+10	2.849052E-6	350993.927563	19.638858	0.858462	0	0
0	0	0	30.929331	6.412458	16.706438	6.412458	1.320902E+10	1.983513E-6	504155.947986	19.668383	0.857393	0	0
0	0	0	30.12971	6.412974	15.613055	6.412974	9.551595E+9	1.759428E-6	568366.437757	19.546152	0.855769	0	0
0	0	0	29.334377	6.412855	14.526949	6.412855	6.918883E+9	1.211212E-6	825619.333096	19.721117	0.853471	0	0
0	0	0	28.522954	6.412891	13.418512	6.412891	4.979237E+9	8.849618E-7	1129992.279049	19.535503	0.852719	0	0
0	0	0	27.693399	6.41316	12.284746	6.41316	3.557108E+9	7.133964E-7	1401745.215141	19.704214	0.849629	0	0
0	0	0	26.828807	6.413443	11.10306	6.413443	2.505311E+9	5.80939E-7	1721351.269632	19.595269	0.849431	0	0
0	0	0	25.959069	6.413436	9.915041	6.413436	1.760842E+9	4.067929E-7	2458253.394052	19.610135	0.846896	0	0
0	0	0	25.120531	6.41345	8.769586	6.41345	1.25335E+9	2.918518E-7	3426397.019091	19.684622	0.84547	0	0
0	0	0	24.313028	6.413811	7.665627	6.413811	9.034186E+8	2.628806E-7	3804008.705918	19.539491	0.844163	0	0
0	0	0	23.524473	6.413719	6.588711	6.413719	6.562088E+8	1.795387E-7	5569829.492718	19.722392	0.841589	0	0
0	0	0	22.750865	6.413613	5.532257	6.413613	4.795421E+8	1.227383E-7	8147416.0239	19.541169	0.841272	0	0
0	0	0	22.015725	6.414044	4.526896	6.414044	3.559466E+8	1.23539E-7	8094608.382238	19.68725	0.83838	0	0
0	0	0	21.298104	6.414065	3.546564	6.414065	2.660894E+8	9.400026E-8	1.063827E+7	19.597809	0.838063	0	0
0	0	0	20.601717	6.414241	2.594801	6.414241	2.006362E+8	8.324054E-8	1.201338E+7	19.584533	0.835806	0	0
0	0	0	19.920971	6.414009	1.665554	6.414009	1.522457E+8	5.134496E-8	1.947611E+7	19.68078	0.834102	0	0
0	0	0	19.253334	6.414249	0.752868	6.414249	1.161419E+8	4.852513E-8	2.060788E+7	19.513794	0.832993	0	0
0	0	0	18.599703	6.41427	-0.140064	6.41427	8.910436E+7	3.803045E-8	2.629472E+7	19.7196	0.830062	0	0
0	0	0	17.964368	6.414234	-1.007839	6.414234	6.887005E+7	2.837626E-8	3.524073E+7	19.53641	0.829943	0	0
0	0	0	17.340426	6.414326	-1.860428	6.414326	5.347711E+7	2.421496E-8	4.129679E+7	19.67314	0.826933	0	0
0	0	0	16.728571	6.414425	-2.696533	6.414425	4.17286E+7	2.114957E-8	4.728228E+7	19.612816	0.826418	0	0
0	0	0	16.132561	6.414467	-3.510828	6.414467	3.2771E+7	1.750465E-8	5.712768E+7	19.576952	0.824319	0	0
0	0	0	15.553335	6.414538	-4.302286	6.414538	2.591199E+7	1.520672E-8	6.576041E+7	19.695492	0.822497	0	0
0	0	0	14.987503	6.414361	-5.074679	6.414361	2.060014E+7	9.697205E-9	1.031225E+8	19.517204	0.821665	0	0
0	0	0	14.432411	6.41446	-5.833258	6.41446	1.644867E+7	8.707911E-9	1.148381E+8	19.725247	0.818655	0	0
0	0	0	13.882383	6.414467	-6.584635	6.414467	1.316082E+7	7.029912E-9	1.422493E+8	19.531964	0.818932	0	0
0	0	0	13.344647	6.414877	-7.320516	6.414877	1.058278E+7	1.17995E-8	8.474938E+7	19.66587	0.815447	0	0
0	0	0	12.824185	6.41458	-8.030531	6.41458	8569543.125	5.345656E-9	1.870678E+8	19.612556	0.815288	0	0
0	0	0	12.315524	6.414601	-8.725449	6.414601	6972584.375	4.490789E-9	2.22678E+8	19.549979	0.813228	0	0
0	0	0	11.816746	6.414771	-9.407358	6.414771	5695999.875	4.95694E-9	2.017374E+8	19.686825	0.811169	0	0
0	0	0	11.328177	6.414898	-10.075189	6.414898	4672440.375	5.520127E-9	1.811553E+8	19.504408	0.810337	0	0
0	0	0	10.850144	6.414707	-10.727567	6.414707	3849219.625	2.959972E-9	3.37841E+8	19.700526	0.807683	0	0
0	0	0	10.378441	6.414997	-11.372915	6.414997	3179187.5	5.202952E-9	1.921986E+8	19.528268	0.807644	0	0
0	0	0	9.908126	6.41499	-12.015369	6.41499	2627266	4.184548E-9	2.389744E+8	19.628763	0.804752	0	0
0	0	0	9.441078	6.415018	-12.653481	6.415018	2174038.375	3.878114E-9	2.578573E+8	19.614346	0.803841	0	0
0	0	0	8.979297	6.41499	-13.284202	6.41499	1802843	2.87146E-9	3.482549E+8	19.539579	0.802217	0	0
0	0	0	8.519314	6.415046	-13.912763	6.415046	1496115.125	3.032662E-9	3.297433E+8	19.688399	0.800316	0	0
0	0	0	8.05684	6.414997	-14.544358	6.414997	1240319.25	2.029868E-9	4.926428E+8	19.49872	0.799524	0	0
0	0	0	7.599837	6.41523	-15.169476	6.41523	1030541.5	1.834994E-8	5.44961E+7	19.702698	0.796474	0	0
0	0	0	7.138629	6.414926	-15.798435	6.414926	854784.875	1.097035E-9	9.115483E+8	19.540707	0.796593	0	0
0	0	0	6.672193	6.415131	-16.436349	6.415131	707502.25	2.426598E-9	4.120995E+8	19.617217	0.793939	0	0
0	0	0	6.198857	6.415272	-17.083471	6.415272	583960.75	-1.305645E-8	-7.65905E+7	19.62591	0.793107	0	0
0	0	0	5.706653	6.41523	-17.755702	6.41523	478318.875	8.517043E-9	1.174116E+8	19.541473	0.791127	0	0
0	0	0	5.183741	6.415088	-18.469518	6.415088	386940.5	9.859683E-10	1.014231E+9	19.697773	0.789305	0	0
0	0	0	4.623258	6.41523	-19.235697	6.41523	308287.25	5.489441E-9	1.821679E+8	19.493651	0.78875	0	0
0	0	0	4.149105	6.415385	-19.884007	6.415385	254371	-8.107292E-10	-1.233457E+9	19.675674	0.785938	0	0
0	0	0	3.843484	6.415399	-20.301563	6.415399	224726.625	-6.469103E-10	-1.545809E+9	19.532743	0.785859	0	0
0	0	0	3.656738	6.415505	-20.557072	6.415505	208340	-3.474651E-10	-2.877987E+9	19.607698	0.783086	0	0
0	0	0	3.494739	6.415484	-20.778297	6.415484	195096	-3.552647E-10	-2.814803E+9	19.63349	0.782294	0	0
0	0	0	3.335191	6.415159	-20.995022	6.415159	182875.375	8.153032E-10	1.226538E+9	19.519845	0.780789	0	0
0	0	0	3.165719	6.415519	-21.227901	6.415519	170732.125	-2.696216E-10	-3.708901E+9	19.698787	0.778373	0	0
0	0	0	2.995145	6.415286	-21.460033	6.415286	159323.75	-2.033361E-9	-4.917965E+8	19.493889	0.778095	0	0
0	0	0	2.819302	6.415307	-21.700328	6.415307	148360.625	-1.151887E-9	-8.681409E+8	19.668777	0.775164	0	0
0	0	0	2.653383	6.415357	-21.927175	6.415357	138708.875	-5.627171E-10	-1.777092E+9	19.536466	0.775164	0	0
0	0	0	2.487913	6.415448	-22.153573	6.415448	129708.5	-2.78892E-10	-3.585617E+9	19.580347	0.772708	0	0
0	0	0	2.324036	6.415477	-22.377551	6.415477	121370.5	-2.279933E-10	-4.386094E+9	19.640525	0.771322	0	0
0	0	0	2.168081	6.415406	-22.590327	6.415406	113933.875	-3.128342E-10	-3.196581E+9	19.508874	0.770055	0	0
0	0	0	2.014331	6.415484	-22.800662	6.415484	107048.625	-1.949327E-10	-5.129975E+9	19.685371	0.767916	0	0
0	0	0	1.865809	6.415554	-23.00383	6.415554	100792.75	-1.405168E-10	-7.116587E+9	19.473175	0.767797	0	0
0	0	0	1.713488	6.415448	-23.211503	6.415448	94756.5	-2.037402E-10	-4.908213E+9	19.650435	0.764707	0	0
0	0	0	1.563904	6.415258	-23.415105	6.415258	89180.625	-8.03613E-9	-1.24438E+8	19.525834	0.764787	0	0
0	0	0	1.411175	6.41542	-23.624378	6.41542	83826	-2.107094E-10	-4.745874E+9	19.560149	0.762371	0	0
0	0	0	1.26204	6.415371	-23.827916	6.415371	78907.625	-2.81685E-10	-3.550064E+9	19.621818	0.761301	0	0
0	0	0	1.103104	6.415498	-24.045533	6.415498	73983.375	-1.269479E-10	-7.87725E+9	19.493481	0.760073	0	0
0	0	0	0.946373	6.415597	-24.260029	6.415597	69428.375	-8.485642E-11	-1.178461E+10	19.691489	0.757578	0	0
0	0	0	0.788621	6.415731	-24.476061	6.415731	65127	-5.724649E-11	-1.746832E+10	19.477055	0.757538	0	0
0	0	0	0.644019	6.415413	-24.672349	6.415413	61418.5	-1.611978E-10	-6.203559E+9	19.636776	0.754647	0	0
0	0	0	0.506644	6.415427	-24.860069	6.415427	58091.25	-1.400998E-10	-7.13777E+9	19.526698	0.754766	0	0
0	0	0	0.381889	6.41535	-25.030188	6.41535	55226	-2.404433E-10	-4.158985E+9	19.545647	0.752389	0	0
0	0	0	0.275305	6.415604	-25.176798	6.415604	52890.375	-6.33417E-11	-1.578739E+10	19.619053	0.751122	0	0
0	0	0	0.191345	6.4153	-25.29029	6.4153	51120.25	-4.564976E-10	-2.190592E+9	19.466153	0.750092	0	0
0	0	0	0.131438	6.415512	-25.372969	6.415512	49893.625	-8.094171E-11	-1.235457E+10	19.671304	0.747517	0	0
0	0	0	0.090642	6.415456	-25.428475	6.415456	49075.125	-1.018369E-10	-9.819627E+9	19.458807	0.747794	0	0
0	0	0	0.045436	6.415604	-25.490821	6.415604	48183.875	-5.770518E-11	-1.732947E+10	19.614891	0.744863	0	0
0	0	0	0.024854	6.415583	-25.518853	6.415583	47783.5	-6.090501E-11	-1.641901E+10	19.517024	0.744982	0	0
0	0	0	-0.00026	6.415519	-25.552908	6.415519	47299.5	-7.469577E-11	-1.338764E+10	19.530944	0.742487	0	0
0	0	0	-0.024925	6.415519	-25.586603	6.415519	46828.75	-7.395236E-11	-1.352222E+10	19.624614	0.741338	0	0
0	0	0	-0.039872	6.415646	-25.607528	6.415646	46545.875	-4.97345E-11	-2.010677E+10	19.465203	0.740388	0	0
0	0	0	-0.045466	6.415477	-25.614495	6.415477	46440.375	-8.723778E-11	-1.146292E+10	19.66975	0.737853	0	0
0	0	0	-0.052163	6.415364	-25.623194	6.415364	46314.5	-1.758916E-10	-5.685321E+9	19.468592	0.737892	0	0
0	0	0	-0.063598	6.415441	-25.639124	6.415441	46100.25	-1.028402E-10	-9.723824E+9	19.61	0.735238	0	0
0	0	0	-0.074215	6.41571	-25.654697	6.41571	45902.25	-4.221998E-11	-2.368547E+10	19.524459	0.73508	0	0
0	0	0	-0.086997	6.415568	-25.671596	6.415568	45665	-6.081133E-11	-1.64443E+10	19.5131	0.732822	0	0
0	0	0	-0.096063	6.41554	-25.683868	6.41554	45497.5	-6.654876E-11	-1.502658E+10	19.605282	0.731832	0	0
0	0	0	-0.104516	6.415519	-25.695331	6.415519	45341.75	-7.160408E-11	-1.396569E+10	19.441924	0.731119	0	0
0	0	0	-0.107864	6.415491	-25.699793	6.415491	45280.25	-8.000451E-11	-1.249929E+10	19.644462	0.728465	0	0
0	0	0	-0.111009	6.41542	-25.703807	6.41542	45222.625	-1.136739E-10	-8.797093E+9	19.447014	0.728544	0	0
0	0	0	-0.113745	6.415364	-25.707319	6.415364	45172.5	-1.715545E-10	-5.829051E+9	19.597993	0.725693	0	0
0	0	0	-0.115501	6.415434	-25.71	6.415434	45140.375	-1.046233E-10	-9.558103E+9	19.520735	0.725495	0	0
0	0	0	-0.116522	6.415773	-25.712746	6.415773	45121.625	-3.643114E-11	-2.744904E+10	19.500478	0.723554	0	0
0	0	0	-0.118074	6.415519	-25.713852	6.415519	45093.25	-7.121164E-11	-1.404265E+10	19.61683	0.722128	0	0
0	0	0	-0.118809	6.415667	-25.715448	6.415667	45079.875	-4.570465E-11	-2.187961E+10	19.445721	0.721454	0	0
0	0	0	-0.119585	6.415477	-25.715747	6.415477	45065.625	-8.465532E-11	-1.181261E+10	19.644216	0.718999	0	0
0	0	0	-0.121014	6.415625	-25.718291	6.415625	45039.5	-5.086658E-11	-1.965928E+10	19.43576	0.719236	0	0
0	0	0	-0.122035	6.415583	-25.719517	6.415583	45020.875	-5.738376E-11	-1.742653E+10	19.593103	0.716266	0	0
0	0	0	-0.122688	6.415632	-25.720607	6.415632	45009	-4.988483E-11	-2.004617E+10	19.522026	0.716068	0	0
0	0	0	-0.123872	6.415597	-25.722084	6.415597	44987.375	-5.498425E-11	-1.818702E+10	19.492211	0.714008	0	0
0	0	0	-0.124934	6.415576	-25.72345	6.415576	44968	-5.857165E-11	-1.707311E+10	19.587605	0.712939	0	0
0	0	0	-0.127262	6.41566	-25.726967	6.41566	44925.625	-4.633821E-11	-2.158046E+10	19.414456	0.712028	0	0
0	0	0	-0.127793	6.415251	-25.726059	6.415251	44915.875	7.85671E-9	1.272797E+8	19.618019	0.709611	0	0
0	0	0	-0.129345	6.415519	-25.729249	6.415519	44887.625	-7.088692E-11	-1.410698E+10	19.422124	0.709611	0	0
0	0	0	-0.130447	6.415625	-25.731178	6.415625	44867.625	-5.067246E-11	-1.973458E+10	19.570095	0.706799	0	0
0	0	0	-0.130978	6.415639	-25.73196	6.415639	44858	-4.880789E-11	-2.048849E+10	19.498976	0.706601	0	0
0	0	0	-0.129998	6.415484	-25.730001	6.415484	44875.75	-8.171755E-11	-1.223727E+10	19.462558	0.704739	0	0
0	0	0	-0.130243	6.415674	-25.731096	6.415674	44871.375	-4.473072E-11	-2.2356E+10	19.588401	0.703155	0	0
0	0	0	-0.131509	6.415703	-25.732938	6.415703	44848.25	-4.189852E-11	-2.386719E+10	19.406095	0.702601	0	0
0	0	0	-0.132326	6.415597	-25.733631	6.415597	44833.5	-5.479619E-11	-1.824945E+10	19.614142	0.700224	0	0
0	0	0	-0.130855	6.415434	-25.730975	6.415434	44860.125	-1.039737E-10	-9.617814E+9	19.414208	0.700422	0	0
0	0	0	-0.131917	6.415533	-25.73282	6.415533	44840.875	-6.724208E-11	-1.487164E+10	19.55888	0.697531	0	0
0	0	0	-0.131182	6.415399	-25.731281	6.415399	44854.25	-1.291199E-10	-7.744742E+9	19.499103	0.697253	0	0
0	0	0	-0.131019	6.41547	-25.731339	6.41547	44857.25	-8.701223E-11	-1.149264E+10	19.454559	0.695273	0	0
0	0	0	-0.130937	6.415604	-25.731763	6.415604	44858.625	-5.372285E-11	-1.861405E+10	19.577295	0.694005	0	0
0	0	0	-0.131754	6.415604	-25.732879	6.415604	44843.875	-5.370518E-11	-1.862018E+10	19.392939	0.69353	0	0
0	0	0	-0.130284	6.41547	-25.730335	6.41547	44870.5	-8.703793E-11	-1.148924E+10	19.591068	0.691154	0	0
0	0	0	-0.130937	6.415681	-25.732073	6.415681	44858.625	-4.398082E-11	-2.273718E+10	19.405211	0.691193	0	0
0	0	0	-0.131223	6.41535	-25.731139	6.41535	44853.5	-1.952834E-10	-5.120762E+9	19.538687	0.688381	0	0
0	0	0	-0.131182	6.41571	-25.73252	6.41571	44854.25	-4.125605E-11	-2.423887E+10	19.496058	0.688262	0	0
0	0	0	-0.129426	6.415484	-25.72922	6.415484	44886.125	-8.173644E-11	-1.223445E+10	19.453559	0.686282	0	0
0	0	0	-0.131386	6.415392	-25.731532	6.415392	44850.5	-1.356762E-10	-7.370491E+9	19.574081	0.684935	0	0
0	0	0	-0.129304	6.415526	-25.729222	6.415526	44888.375	-6.905447E-11	-1.448132E+10	19.378102	0.68446	0	0
0	0	0	-0.131141	6.415561	-25.731873	6.415561	44855	-6.11008E-11	-1.63664E+10	19.588555	0.681727	0	0
0	0	0	-0.130365	6.415463	-25.730419	6.415463	44869.125	-8.996969E-11	-1.111485E+10	19.386844	0.682242	0	0
0	0	0	-0.131305	6.415512	-25.731899	6.415512	44852	-7.276276E-11	-1.374329E+10	19.52925	0.679429	0	0
0	0	0	-0.132326	6.415554	-25.733462	6.415554	44833.5	-6.25031E-11	-1.599921E+10	19.468148	0.679231	0	0
0	0	0	-0.132979	6.415561	-25.734383	6.415561	44821.625	-6.105534E-11	-1.637858E+10	19.423952	0.67737	0	0
0	0	0	-0.131754	6.415434	-25.732203	6.415434	44843.875	-1.039361E-10	-9.621299E+9	19.536853	0.676023	0	0
0	0	0	-0.132652	6.415406	-25.733317	6.415406	44827.5	-1.230852E-10	-8.124453E+9	19.358076	0.675468	0	0
0	0	0	-0.133387	6.415413	-25.73435	6.415413	44814.125	-1.176183E-10	-8.50208E+9	19.553428	0.673013	0	0
0	0	0	-0.134408	6.415371	-25.735575	6.415371	44795.625	-1.599118E-10	-6.253449E+9	19.376628	0.673171	0	0
0	0	0	-0.135511	6.41518	-25.736321	6.41518	44775.625	2.575378E-10	3.882926E+9	19.514848	0.670557	0	0
0	0	0	-0.136042	6.415328	-25.737638	6.415328	44765.875	-2.497524E-10	-4.003966E+9	19.458652	0.670438	0	0
0	0	0	-0.13596	6.415794	-25.739385	6.415794	44767.375	-3.473063E-11	-2.879303E+10	19.418335	0.668695	0	0
0	0	0	-0.136654	6.41578	-25.740277	6.41578	44754.875	-3.565104E-11	-2.804968E+10	19.537397	0.66719	0	0
0	0	0	-0.138614	6.415632	-25.742363	6.415632	44719.25	-4.956369E-11	-2.017606E+10	19.352066	0.666596	0	0
0	0	0	-0.137389	6.415505	-25.740183	6.415505	44741.5	-7.461893E-11	-1.340143E+10	19.556579	0.664259	0	0
0	0	0	-0.137594	6.415646	-25.741025	6.415646	44737.75	-4.780251E-11	-2.09194E+10	19.374794	0.664338	0	0
0	0	0	-0.139962	6.415328	-25.742993	6.415328	44694.875	-2.493563E-10	-4.010326E+9	19.521098	0.661447	0	0
0	0	0	-0.140493	6.415597	-25.744789	6.415597	44685.25	-5.461499E-11	-1.830999E+10	19.442657	0.661684	0	0
0	0	0	-0.141759	6.41554	-25.746293	6.41554	44662.25	-6.532705E-11	-1.53076E+10	19.397383	0.659744	0	0
0	0	0	-0.141432	6.415491	-25.745649	6.415491	44668.25	-7.892319E-11	-1.267055E+10	19.50786	0.658516	0	0
0	0	0	-0.14082	6.415674	-25.745545	6.415674	44679.25	-4.45392E-11	-2.245213E+10	19.320817	0.657922	0	0
0	0	0	-0.142045	6.415512	-25.746571	6.415512	44657.125	-7.244661E-11	-1.380327E+10	19.546412	0.655268	0	0
0	0	0	-0.141881	6.415724	-25.747193	6.415724	44660.125	-3.984505E-11	-2.509722E+10	19.343012	0.655704	0	0
0	0	0	-0.141228	6.415456	-25.74523	6.415456	44671.875	-9.269958E-11	-1.078753E+10	19.489575	0.652931	0	0
0	0	0	-0.142004	6.415625	-25.746966	6.415625	44657.875	-5.043558E-11	-1.982727E+10	19.42619	0.65301	0	0
0	0	0	-0.143842	6.415667	-25.749645	6.415667	44624.625	-4.52431E-11	-2.210282E+10	19.396388	0.651188	0	0
0	0	0	-0.142943	6.415448	-25.747544	6.415448	44640.875	-9.598432E-11	-1.041837E+10	19.516947	0.649683	0	0
0	0	0	-0.141473	6.415611	-25.746184	6.415611	44667.5	-5.243802E-11	-1.907013E+10	19.315695	0.649326	0	0
0	0	0	-0.141351	6.415456	-25.745397	6.415456	44669.75	-9.269517E-11	-1.078805E+10	19.545904	0.646475	0	0
0	0	0	-0.142249	6.41571	-25.747638	6.41571	44653.375	-4.107129E-11	-2.434791E+10	19.324346	0.647069	0	0
0	0	0	-0.141718	6.415554	-25.746293	6.415554	44663	-6.226541E-11	-1.606028E+10	19.480855	0.644296	0	0
0	0	0	-0.140207	6.415533	-25.744145	6.415533	44690.375	-6.70164E-11	-1.492172E+10	19.406911	0.644058	0	0
0	0	0	-0.140779	6.415441	-25.74456	6.415441	44680.125	-9.96722E-11	-1.003289E+10	19.35972	0.642474	0	0
0	0	0	-0.14086	6.415505	-25.744925	6.415505	44678.625	-7.451406E-11	-1.342029E+10	19.476113	0.641127	0	0
0	0	0	-0.140044	6.415533	-25.743922	6.415533	44693.375	-6.70209E-11	-1.492072E+10	19.294995	0.640533	0	0
0	0	0	-0.139023	6.415491	-25.742358	6.415491	44711.875	-7.900027E-11	-1.265819E+10	19.518114	0.637998	0	0
0	0	0	-0.137349	6.415576	-25.740409	6.415576	44742.25	-5.827761E-11	-1.715925E+10	19.311635	0.638276	0	0
0	0	0	-0.138614	6.415653	-25.742448	6.415653	44719.25	-4.693942E-11	-2.130405E+10	19.473158	0.635384	0	0
0	0	0	-0.13645	6.415604	-25.739294	6.415604	44758.5	-5.360294E-11	-1.865569E+10	19.389883	0.635463	0	0
0	0	0	-0.136368	6.415519	-25.738845	6.415519	44760	-7.068537E-11	-1.41472E+10	19.365598	0.633562	0	0
0	0	0	-0.137349	6.415477	-25.740014	6.415477	44742.25	-8.404787E-11	-1.189798E+10	19.468332	0.632453	0	0
0	0	0	-0.136287	6.415766	-25.739719	6.415766	44761.5	-3.663777E-11	-2.729424E+10	19.290659	0.631938	0	0
0	0	0	-0.135715	6.415639	-25.738431	6.415639	44771.875	-4.871419E-11	-2.05279E+10	19.517889	0.629205	0	0
0	0	0	-0.133714	6.415427	-25.734852	6.415427	44808.25	-1.080649E-10	-9.253698E+9	19.29965	0.629641	0	0
0	0	0	-0.135103	6.415427	-25.736749	6.415427	44783	-1.08004E-10	-9.258915E+9	19.455416	0.627264	0	0
0	0	0	-0.132856	6.415583	-25.7343	6.415583	44823.75	-5.71325E-11	-1.750317E+10	19.353428	0.627423	0	0
0	0	0	-0.133632	6.415434	-25.734769	6.415434	44809.75	-1.03857E-10	-9.628627E+9	19.356541	0.625086	0	0
0	0	0	-0.133673	6.415681	-25.73581	6.415681	44809	-4.393217E-11	-2.276236E+10	19.439314	0.624135	0	0
0	0	0	-0.134041	6.415561	-25.735834	6.415561	44802.25	-6.102895E-11	-1.638567E+10	19.27541	0.623303	0	0
0	0	0	-0.133877	6.415632	-25.735892	6.415632	44805.25	-4.965901E-11	-2.013733E+10	19.487703	0.621046	0	0
0	0	0	-0.133837	6.415498	-25.735301	6.415498	44806	-7.688248E-11	-1.300686E+10	19.278029	0.621481	0	0
0	0	0	-0.134653	6.415639	-25.73698	6.415639	44791.125	-4.873513E-11	-2.051908E+10	19.46804	0.618352	0	0
0	0	0	-0.134939	6.415583	-25.737145	6.415583	44786	-5.708439E-11	-1.751793E+10	19.334392	0.619144	0	0
0	0	0	-0.13547	6.415427	-25.737251	6.415427	44776.375	-1.07988E-10	-9.260285E+9	19.348657	0.616807	0	0
0	0	0	-0.136695	6.415625	-25.739713	6.415625	44754.125	-5.054428E-11	-1.978463E+10	19.436369	0.616015	0	0
0	0	0	-0.136246	6.41566	-25.739241	6.41566	44762.25	-4.61697E-11	-2.165923E+10	19.273508	0.615342	0	0
0	0	0	-0.137757	6.415568	-25.740938	6.415568	44734.875	-5.95727E-11	-1.678621E+10	19.489389	0.612807	0	0
0	0	0	-0.13694	6.415625	-25.740048	6.415625	44749.625	-5.05392E-11	-1.978662E+10	19.259025	0.613243	0	0
0	0	0	-0.137675	6.415547	-25.740742	6.415547	44736.25	-6.386459E-11	-1.565813E+10	19.439042	0.61051	0	0
0	0	0	-0.140085	6.415618	-25.744315	6.415618	44692.625	-5.145188E-11	-1.943564E+10	19.314364	0.610906	0	0
0	0	0	-0.138451	6.415681	-25.742337	6.415681	44722.25	-4.384712E-11	-2.280652E+10	19.333404	0.608767	0	0
0	0	0	-0.14086	6.415484	-25.74484	6.415484	44678.625	-8.135859E-11	-1.229127E+10	19.399727	0.607816	0	0
0	0	0	-0.1418	6.415512	-25.746236	6.415512	44661.625	-7.245391E-11	-1.380188E+10	19.252507	0.606905	0	0
0	0	0	-0.141432	6.415434	-25.745424	6.415434	44668.25	-1.03529E-10	-9.659128E+9	19.44476	0.604727	0	0
0	0	0	-0.141963	6.415604	-25.746825	6.415604	44658.625	-5.348333E-11	-1.869742E+10	19.222913	0.605123	0	0
0	0	0	-0.14376	6.415611	-25.749308	6.415611	44626.125	-5.238944E-11	-1.908782E+10	19.417032	0.60235	0	0
0	0	0	-0.143515	6.415766	-25.749593	6.415766	44630.5	-3.653054E-11	-2.737435E+10	19.285391	0.602667	0	0
0	0	0	-0.142126	6.41542	-25.746316	6.41542	44655.625	-1.122487E-10	-8.908791E+9	19.33446	0.600489	0	0
0	0	0	-0.142576	6.41559	-25.747606	6.41559	44647.5	-5.571382E-11	-1.794887E+10	19.383005	0.599934	0	0
0	0	0	-0.142331	6.415731	-25.747834	6.415731	44652	-3.924901E-11	-2.547835E+10	19.25223	0.598825	0	0
0	0	0	-0.143474	6.415533	-25.748608	6.415533	44631.25	-6.692774E-11	-1.494149E+10	19.433979	0.596963	0	0
0	0	0	-0.145312	6.415406	-25.750611	6.415406	44598	-1.224551E-10	-8.166261E+9	19.215519	0.597122	0	0
0	0	0	-0.144087	6.415604	-25.749726	6.415604	44620.25	-5.343737E-11	-1.87135E+10	19.409364	0.594626	0	0
0	0	0	-0.14327	6.415667	-25.748864	6.415667	44635	-4.525361E-11	-2.209768E+10	19.270445	0.594785	0	0
0	0	0	-0.144454	6.415448	-25.749609	6.415448	44613.5	-9.592546E-11	-1.042476E+10	19.338469	0.592488	0	0
0	0	0	-0.143801	6.415731	-25.749843	6.415731	44625.375	-3.922561E-11	-2.549355E+10	19.3638	0.592012	0	0
0	0	0	-0.143556	6.415448	-25.748381	6.415448	44629.75	-9.59604E-11	-1.042096E+10	19.242753	0.590784	0	0
0	0	0	-0.142902	6.415773	-25.748784	6.415773	44641.625	-3.604359E-11	-2.774418E+10	19.409526	0.5892	0	0
0	0	0	-0.142331	6.415568	-25.747187	6.415568	44652	-5.946234E-11	-1.681737E+10	19.177006	0.589279	0	0
0	0	0	-0.14131	6.415625	-25.746017	6.415625	44670.5	-5.044983E-11	-1.982167E+10	19.379628	0.586705	0	0
0	0	0	-0.140207	6.415752	-25.745018	6.415752	44690.375	-3.761492E-11	-2.658519E+10	19.225785	0.587061	0	0
0	0	0	-0.141555	6.415448	-25.745648	6.415448	44666	-9.603835E-11	-1.041251E+10	19.318195	0.584368	0	0
0	0	0	-0.140534	6.415674	-25.745154	6.415674	44684.5	-4.454443E-11	-2.244949E+10	19.320735	0.584249	0	0
0	0	0	-0.139472	6.415533	-25.743141	6.415533	44703.75	-6.703645E-11	-1.491726E+10	19.217768	0.582981	0	0
0	0	0	-0.138778	6.415519	-25.742136	6.415519	44716.375	-7.061648E-11	-1.4161E+10	19.365854	0.581635	0	0
0	0	0	-0.136287	6.415618	-25.739127	6.415618	44761.5	-5.153117E-11	-1.940573E+10	19.151189	0.581595	0	0
0	0	0	-0.138002	6.415441	-25.740766	6.415441	44730.375	-9.978429E-11	-1.002162E+10	19.3737	0.57906	0	0
0	0	0	-0.135674	6.41554	-25.737981	6.41554	44772.625	-6.548849E-11	-1.526986E+10	19.196281	0.579456	0	0
0	0	0	-0.137185	6.41566	-25.740524	6.41566	44745.25	-4.615217E-11	-2.166746E+10	19.299485	0.577159	0	0
0	0	0	-0.138247	6.415696	-25.742115	6.415696	44726	-4.245115E-11	-2.355649E+10	19.289163	0.576644	0	0
0	0	0	-0.136491	6.415314	-25.738195	6.415314	44757.75	-3.073761E-10	-3.253343E+9	19.204498	0.575416	0	0
0	0	0	-0.135878	6.415364	-25.737555	6.415364	44768.875	-1.700216E-10	-5.881604E+9	19.343455	0.57403	0	0
0	0	0	-0.134653	6.415681	-25.737149	6.415681	44791.125	-4.391464E-11	-2.277145E+10	19.123485	0.574109	0	0
0	0	0	-0.134327	6.415392	-25.735548	6.415392	44797.125	-1.355147E-10	-7.379273E+9	19.342381	0.571614	0	0
0	0	0	-0.135797	6.415533	-25.73812	6.415533	44770.375	-6.713636E-11	-1.489506E+10	19.159801	0.57197	0	0
0	0	0	-0.135266	6.415223	-25.736155	6.415223	44780	6.136407E-10	1.629618E+9	19.293452	0.569396	0	0
0	0	0	-0.136164	6.41542	-25.738171	6.41542	44763.75	-1.125205E-10	-8.887272E+9	19.25273	0.569356	0	0
0	0	0	-0.135388	6.41571	-25.738266	6.41571	44777.875	-4.118581E-11	-2.428021E+10	19.189259	0.568009	0	0
0	0	0	-0.137185	6.415703	-25.740693	6.415703	44745.25	-4.180229E-11	-2.392213E+10	19.317747	0.566663	0	0
0	0	0	-0.13792	6.415484	-25.740824	6.415484	44731.875	-8.145556E-11	-1.227663E+10	19.098375	0.566821	0	0
0	0	0	-0.13743	6.415413	-25.739872	6.415413	44740.75	-1.174257E-10	-8.516024E+9	19.330872	0.564246	0	0
0	0	0	-0.137063	6.415597	-25.740103	6.415597	44747.375	-5.469092E-11	-1.828457E+10	19.129282	0.564761	0	0
0	0	0	-0.139186	6.415526	-25.742722	6.415526	44708.875	-6.877834E-11	-1.453946E+10	19.294733	0.562028	0	0
0	0	0	-0.138614	6.41566	-25.742476	6.41566	44719.25	-4.612535E-11	-2.168005E+10	19.20786	0.562306	0	0
0	0	0	-0.139268	6.415385	-25.74227	6.415385	44707.5	-1.424914E-10	-7.017969E+9	19.196924	0.560246	0	0
0	0	0	-0.140534	6.415484	-25.744394	6.415484	44684.5	-8.136929E-11	-1.228965E+10	19.283464	0.559533	0	0
0	0	0	-0.141596	6.415498	-25.745901	6.415498	44665.25	-7.664097E-11	-1.304785E+10	19.099453	0.559137	0	0
0	0	0	-0.141391	6.415456	-25.745453	6.415456	44669	-9.269362E-11	-1.078823E+10	19.327332	0.556721	0	0
0	0	0	-0.143066	6.415484	-25.747853	6.415484	44638.625	-8.128575E-11	-1.230228E+10	19.113736	0.557275	0	0
0	0	0	-0.143801	6.415463	-25.748772	6.415463	44625.375	-8.948094E-11	-1.117556E+10	19.282601	0.55474	0	0
0	0	0	-0.142861	6.415413	-25.747292	6.415413	44642.375	-1.171675E-10	-8.53479E+9	19.176501	0.555176	0	0
0	0	0	-0.142453	6.415681	-25.747805	6.415681	44649.75	-4.377603E-11	-2.284355E+10	19.177266	0.553354	0	0
0	0	0	-0.143597	6.415597	-25.749029	6.415597	44629.125	-5.45464E-11	-1.833302E+10	19.266222	0.552522	0	0
0	0	0	-0.143842	6.415554	-25.749194	6.415554	44624.625	-6.221191E-11	-1.607409E+10	19.087865	0.552047	0	0
0	0	0	-0.144005	6.41578	-25.750319	6.41578	44621.625	-3.554489E-11	-2.813344E+10	19.305997	0.549948	0	0
0	0	0	-0.144699	6.41559	-25.750507	6.41559	44609.125	-5.566593E-11	-1.796431E+10	19.090362	0.549987	0	0
0	0	0	-0.145271	6.415696	-25.75171	6.415696	44598.75	-4.233037E-11	-2.36237E+10	19.274074	0.54769	0	0
0	0	0	-0.145924	6.415463	-25.751673	6.415463	44587	-8.940399E-11	-1.118518E+10	19.118067	0.548125	0	0
0	0	0	-0.144577	6.415611	-25.750424	6.415611	44611.375	-5.237213E-11	-1.909413E+10	19.14981	0.546264	0	0
0	0	0	-0.145026	6.415456	-25.750418	6.415456	44603.125	-9.255692E-11	-1.080416E+10	19.201687	0.545511	0	0
0	0	0	-0.145516	6.415688	-25.752017	6.415688	44594.375	-4.301267E-11	-2.324897E+10	19.067752	0.544481	0	0
0	0	0	-0.144454	6.415639	-25.750369	6.415639	44613.5	-4.854187E-11	-2.060077E+10	19.26489	0.542778	0	0
0	0	0	-0.145475	6.415526	-25.751313	6.415526	44595.125	-6.860335E-11	-1.457655E+10	19.048666	0.542858	0	0
0	0	0	-0.141677	6.415625	-25.746519	6.415625	44663.75	-5.044221E-11	-1.982467E+10	19.240637	0.540679	0	0
0	0	0	-0.143147	6.415526	-25.748133	6.415526	44637.125	-6.866796E-11	-1.456283E+10	19.084468	0.540996	0	0
0	0	0	-0.142739	6.41566	-25.748111	6.41566	44644.5	-4.604825E-11	-2.171635E+10	19.1455	0.539134	0	0
0	0	0	-0.142371	6.415505	-25.746989	6.415505	44651.25	-7.446841E-11	-1.342851E+10	19.160852	0.538619	0	0
0	0	0	-0.143556	6.415759	-25.749621	6.415759	44629.75	-3.70397E-11	-2.699806E+10	19.059241	0.537471	0	0
0	0	0	-0.140615	6.415604	-25.744984	6.415604	44683	-5.351252E-11	-1.868722E+10	19.245504	0.535688	0	0
0	0	0	-0.141024	6.415491	-25.745091	6.415491	44675.625	-7.893622E-11	-1.266846E+10	19.034019	0.535926	0	0
0	0	0	-0.140085	6.41578	-25.744963	6.41578	44692.625	-3.560145E-11	-2.808874E+10	19.245807	0.533431	0	0
0	0	0	-0.138288	6.415477	-25.741297	6.415477	44725.125	-8.40157E-11	-1.190254E+10	19.052153	0.534183	0	0
0	0	0	-0.139104	6.415674	-25.743202	6.415674	44710.375	-4.457023E-11	-2.24365E+10	19.173008	0.531609	0	0
0	0	0	-0.140166	6.415815	-25.745216	6.415815	44691.125	-3.336574E-11	-2.997086E+10	19.124295	0.531688	0	0
0	0	0	-0.138124	6.415448	-25.740962	6.415448	44728.125	-9.617192E-11	-1.039804E+10	19.058517	0.530183	0	0
0	0	0	-0.137308	6.415632	-25.740578	6.415632	44743	-4.959001E-11	-2.016535E+10	19.202512	0.529034	0	0
0	0	0	-0.136858	6.415667	-25.740105	6.415667	44751.125	-4.537135E-11	-2.204034E+10	19.004231	0.528677	0	0
0	0	0	-0.135593	6.415413	-25.737362	6.415413	44774.125	-1.175133E-10	-8.509676E+9	19.209119	0.526618	0	0
0	0	0	-0.13547	6.415427	-25.737251	6.415427	44776.375	-1.07988E-10	-9.260285E+9	18.991666	0.527331	0	0
0	0	0	-0.135143	6.415505	-25.737115	6.415505	44782.25	-7.468689E-11	-1.338923E+10	19.146191	0.524954	0	0
0	0	0	-0.137349	6.415717	-25.740972	6.415717	44742.25	-4.052628E-11	-2.467535E+10	19.080631	0.524954	0	0
0	0	0	-0.135838	6.41554	-25.738204	6.41554	44769.625	-6.54841E-11	-1.527088E+10	19.062835	0.523053	0	0
0	0	0	-0.137022	6.415434	-25.739399	6.415434	44748.125	-1.037141E-10	-9.641887E+9	19.176056	0.522221	0	0
0	0	0	-0.137226	6.415625	-25.740439	6.415625	44744.5	-5.053341E-11	-1.978889E+10	18.985258	0.522023	0	0
0	0	0	-0.136328	6.415583	-25.739042	6.415583	44760.75	-5.70522E-11	-1.752781E+10	19.186251	0.520043	0	0
0	0	0	-0.137267	6.41559	-25.740353	6.41559	44743.75	-5.583392E-11	-1.791026E+10	0	0	0	0
0	0	0	-0.137553	6.415505	-25.740406	6.415505	44738.5	-7.461392E-11	-1.340232E+10	0	0	0	0
0	0	0	-0.137594	6.41542	-25.740124	6.41542	44737.75	-1.124551E-10	-8.892437E+9	0	0	0	0
0	0	0	-0.138574	6.415625	-25.74228	6.415625	44720	-5.050574E-11	-1.979973E+10	0	0	0	0
0	0	0	-0.139472	6.415808	-25.744239	6.415808	44703.75	-3.379946E-11	-2.958627E+10	0	0	0	0
0	0	0	-0.140983	6.415674	-25.745768	6.415674	44676.375	-4.453633E-11	-2.245358E+10	0	0	0	0
0	0	0	-0.139227	6.415653	-25.743285	6.415653	44708.125	-4.692774E-11	-2.130936E+10	0	0	0	0
0	0	0	-0.140493	6.415632	-25.74493	6.415632	44685.25	-4.952601E-11	-2.019141E+10	0	0	0	0
0	0	0	-0.141922	6.415392	-25.745924	6.415392	44659.375	-1.35098E-10	-7.402034E+9	0	0	0	0
0	0	0	-0.141065	6.415766	-25.746246	6.415766	44674.875	-3.656687E-11	-2.734716E+10	0	0	0	0
0	0	0	-0.144046	6.415688	-25.750008	6.415688	44620.875	-4.303823E-11	-2.323516E+10	0	0	0	0
0	0	0	-0.143229	6.415646	-25.748724	6.415646	44635.625	-4.769339E-11	-2.096727E+10	0	0	0	0
0	0	0	-0.142698	6.415745	-25.748393	6.415745	44645.375	-3.811648E-11	-2.623537E+10	0	0	0	0
0	0	0	-0.1467	6.415787	-25.754029	6.415787	44572.875	-3.503677E-11	-2.854144E+10	0	0	0	0
0	0	0	-0.143637	6.415427	-25.748408	6.415427	44628.25	-1.076308E-10	-9.291021E+9	0	0	0	0
0	0	0	-0.144087	6.415441	-25.749078	6.415441	44620.25	-9.953863E-11	-1.004635E+10	0	0	0	0
0	0	0	-0.146455	6.415667	-25.753215	6.415667	44577.375	-4.519519E-11	-2.212625E+10	0	0	0	0
0	0	0	-0.147108	6.415597	-25.753826	6.415597	44565.5	-5.446863E-11	-1.835919E+10	0	0	0	0
0	0	0	-0.147068	6.415456	-25.753207	6.415456	44566.25	-9.24804E-11	-1.08131E+10	0	0	0	0
0	0	0	-0.146578	6.415611	-25.753157	6.415611	44575.125	-5.232957E-11	-1.910965E+10	0	0	0	0
0	0	0	-0.148456	6.415576	-25.755583	6.415576	44541.25	-5.80158E-11	-1.723668E+10	0	0	0	0
0	0	0	-0.146169	6.415717	-25.753022	6.415717	44582.5	-4.038158E-11	-2.476376E+10	0	0	0	0
0	0	0	-0.145026	6.415667	-25.751263	6.415667	44603.125	-4.52213E-11	-2.211347E+10	0	0	0	0
0	0	0	-0.14621	6.415646	-25.752796	6.415646	44581.75	-4.763583E-11	-2.09926E+10	0	0	0	0
0	0	0	-0.142943	6.415519	-25.747826	6.415519	44640.875	-7.049725E-11	-1.418495E+10	0	0	0	0
0	0	0	-0.145026	6.415561	-25.75084	6.415561	44603.125	-6.07577E-11	-1.645882E+10	0	0	0	0
0	0	0	-0.143147	6.415604	-25.748443	6.415604	44637.125	-5.345758E-11	-1.870642E+10	0	0	0	0
0	0	0	-0.142045	6.415604	-25.746937	6.415604	44657.125	-5.348153E-11	-1.869804E+10	0	0	0	0
0	0	0	-0.142086	6.415526	-25.746683	6.415526	44656.375	-6.869758E-11	-1.455655E+10	0	0	0	0
0	0	0	-0.142208	6.415533	-25.746878	6.415533	44654.125	-6.696204E-11	-1.493383E+10	0	0	0	0
0	0	0	-0.140003	6.415618	-25.744204	6.415618	44694.125	-5.145361E-11	-1.943498E+10	0	0	0	0
0	0	0	-0.142045	6.415448	-25.746317	6.415448	44657.125	-9.601926E-11	-1.041458E+10	0	0	0	0
0	0	0	-0.141881	6.415456	-25.746122	6.415456	44660.125	-9.26752E-11	-1.079037E+10	0	0	0	0
0	0	0	-0.139554	6.415512	-25.743168	6.415512	44702.25	-7.251982E-11	-1.378933E+10	0	0	0	0
0	0	0	-0.139921	6.415434	-25.74336	6.415434	44695.625	-1.035925E-10	-9.653212E+9	0	0	0	0
0	0	0	-0.137226	6.41559	-25.740298	6.41559	44744.5	-5.583486E-11	-1.790996E+10	0	0	0	0
0	0	0	-0.138124	6.415611	-25.74161	6.415611	44728.125	-5.250919E-11	-1.904429E+10	0	0	0	0
0	0	0	-0.138696	6.415547	-25.742137	6.415547	44717.75	-6.383818E-11	-1.566461E+10	0	0	0	0
0	0	0	-0.137349	6.415653	-25.740719	6.415653	44742.25	-4.696356E-11	-2.12931E+10	0	0	0	0
0	0	0	-0.137308	6.415434	-25.73979	6.415434	44743	-1.037023E-10	-9.642991E+9	0	0	0	0
0	0	0	-0.136246	6.415731	-25.739522	6.415731	44762.25	-3.934592E-11	-2.54156E+10	0	0	0	0
0	0	0	-0.135674	6.415491	-25.737783	6.415491	44772.625	-7.910761E-11	-1.264101E+10	0	0	0	0
0	0	0	-0.13596	6.415484	-25.738146	6.415484	44767.375	-8.15202E-11	-1.22669E+10	0	0	0	0
0	0	0	-0.137471	6.415561	-25.74052	6.415561	44740	-6.094415E-11	-1.640847E+10	0	0	0	0
0	0	0	-0.136164	6.415406	-25.738115	6.415406	44763.75	-1.229102E-10	-8.136024E+9	0	0	0	0
0	0	0	-0.137022	6.415505	-25.739681	6.415505	44748.125	-7.462997E-11	-1.339944E+10	0	0	0	0
0	0	0	-0.138084	6.415441	-25.740878	6.415441	44728.875	-9.978095E-11	-1.002195E+10	0	0	0	0
0	0	0	-0.137267	6.415406	-25.739621	6.415406	44743.75	-1.228552E-10	-8.13966E+9	0	0	0	0
0	0	0	-0.139186	6.415223	-25.741511	6.415223	44708.875	6.12666E-10	1.632211E+9	0	0	0	0
0	0	0	-0.139554	6.415448	-25.742914	6.415448	44702.25	-9.611629E-11	-1.040406E+10	0	0	0	0
0	0	0	-0.139472	6.415484	-25.742943	6.415484	44703.75	-8.140434E-11	-1.228436E+10	0	0	0	0
0	0	0	-0.140656	6.415448	-25.74442	6.415448	44682.25	-9.607329E-11	-1.040872E+10	0	0	0	0
0	0	0	-0.140697	6.415667	-25.745349	6.415667	44681.5	-4.530076E-11	-2.207469E+10	0	0	0	0
0	0	0	-0.141065	6.41547	-25.745063	6.41547	44674.875	-8.665846E-11	-1.153955E+10	0	0	0	0
0	0	0	-0.142821	6.415505	-25.747602	6.415505	44643.125	-7.445486E-11	-1.343096E+10	0	0	0	0
0	0	0	-0.142943	6.415456	-25.747573	6.415456	44640.875	-9.263526E-11	-1.079503E+10	0	0	0	0
0	0	0	-0.143106	6.415717	-25.748838	6.415717	44637.875	-4.043174E-11	-2.473304E+10	0	0	0	0
0	0	0	-0.145271	6.415547	-25.751119	6.415547	44598.75	-6.366829E-11	-1.57064E+10	0	0	0	0
0	0	0	-0.143433	6.415533	-25.748552	6.415533	44632	-6.692886E-11	-1.494124E+10	0	0	0	0
0	0	0	-0.145189	6.415583	-25.751148	6.415583	44600.25	-5.684763E-11	-1.759088E+10	0	0	0	0
0	0	0	-0.143637	6.415639	-25.749253	6.415639	44628.25	-4.855791E-11	-2.059397E+10	0	0	0	0
0	0	0	-0.145965	6.415674	-25.752574	6.415674	44586.25	-4.444649E-11	-2.249896E+10	0	0	0	0
0	0	0	-0.145965	6.41571	-25.752715	6.41571	44586.25	-4.100955E-11	-2.438456E+10	0	0	0	0
0	0	0	-0.146496	6.415639	-25.753158	6.415639	44576.625	-4.850174E-11	-2.061782E+10	0	0	0	0
0	0	0	-0.147353	6.415611	-25.754217	6.415611	44561.125	-5.231314E-11	-1.911566E+10	0	0	0	0
0	0	0	-0.147762	6.415759	-25.755367	6.415759	44553.75	-3.697662E-11	-2.704411E+10	0	0	0	0
0	0	0	-0.146251	6.415717	-25.753134	6.415717	44581	-4.038022E-11	-2.47646E+10	0	0	0	0
0	0	0	-0.147435	6.415561	-25.754132	6.415561	44559.625	-6.069845E-11	-1.647489E+10	0	0	0	0
0	0	0	-0.146373	6.415526	-25.75254	6.415526	44578.875	-6.857835E-11	-1.458186E+10	0	0	0	0
0	0	0	-0.145312	6.415724	-25.751879	6.415724	44598	-3.978963E-11	-2.513218E+10	0	0	0	0
0	0	0	-0.145475	6.415456	-25.751031	6.415456	44595.125	-9.254032E-11	-1.08061E+10	0	0	0	0
0	0	0	-0.145271	6.415568	-25.751203	6.415568	44598.75	-5.939143E-11	-1.683745E+10	0	0	0	0
0	0	0	-0.144617	0	-0.144617	0	44610.5	0	0	0	0	0	0
0	0	0	-0.142535	0	-0.142535	0	44648.25	0	0	0	0	0	0
