Vload_(V)	ILoad_(A)	RsLoad (ohm)	SunsVoc_Voltage_(V)	SunsVoc_Current_(A)	Model_Voltage_(V)	Model_Current_(A)	Carrier_Density_(cm-3)	Lifetime_(s)	Inverse_Lifetime_(s-1)	Efficiency_(%)	Intensity_(suns)	Dark_IV_Voltage_(V)	Dark_IV_Current_(A)
2.677394	6.043767	0	52.046584	-0.086593	52.088813	-0.086593	7.87961E+15	0.000572	1645.866769	19.720571	1.107521	0	0
2.672254	6.045325	-0.457156	52.672772	-0.442387	52.870771	-0.442387	9.824246E+15	0.000674	1323.941076	19.663522	1.107098	0	0
3.433664	6.043264	3.116015	52.835465	-0.35142	52.989089	-0.35142	1.039071E+16	0.000723	1204.341688	19.577867	1.10488	0	0
6.900254	6.036421	4.516189	52.823459	-0.056971	52.848408	-0.056971	1.034798E+16	0.000755	1147.559264	19.439017	1.101989	0	0
10.728968	6.022225	4.665353	52.743828	0.287038	52.616665	0.287038	1.006835E+16	0.000778	1117.036863	19.329419	1.098899	0	0
14.133415	6.019041	4.18652	52.638388	0.64105	52.350062	0.64105	9.707923E+15	0.000799	1094.614477	19.261041	1.097064	0	0
17.847394	6.016461	3.629058	52.522575	0.986693	52.071472	0.986693	9.324613E+15	0.00082	1074.824796	19.231486	1.095823	0	0
21.450012	6.003796	3.251228	52.403292	1.314577	51.792244	1.314577	8.943189E+15	0.000841	1055.970605	19.208031	1.094714	0	0
25.081049	5.999579	2.70095	52.281231	1.612938	51.518892	1.612938	8.566516E+15	0.00086	1040.894051	19.168284	1.09272	0	0
28.639528	5.996887	2.139849	52.159375	1.888873	51.25188	1.888873	8.203809E+15	0.000878	1026.786552	19.152404	1.089327	0	0
32.241285	5.993215	1.578597	52.035926	2.144102	50.98886	2.144102	7.849535E+15	0.000895	1014.518575	19.149592	1.08497	0	0
35.835391	5.973114	1.148962	51.918398	2.379849	50.738296	2.379849	7.524202E+15	0.000914	1000.67618	19.151752	1.080283	0	0
36.876549	5.954414	1.089528	51.79499	2.607908	50.481193	2.607908	7.194757E+15	0.000932	987.593239	19.099691	1.076612	0	0
37.93806	5.927407	1.035935	51.664803	2.819661	50.220825	2.819661	6.86031E+15	0.000947	978.344645	19.044569	1.07314	0	0
39.0022	5.893931	0.972632	51.542375	3.007313	49.978724	3.007313	6.557681E+15	0.000961	969.513281	19.014544	1.070037	0	0
40.044606	5.843708	0.928128	51.419906	3.184692	49.739053	3.184692	6.26612E+15	0.000975	960.517433	19.035088	1.066116	0	0
41.107363	5.774341	0.881907	51.304012	3.352295	49.509823	3.352295	6.000193E+15	0.000992	948.598202	19.066983	1.061838	0	0
42.148276	5.686498	0.831337	51.179746	3.515414	49.270282	3.515414	5.725519E+15	0.001007	938.274996	19.060521	1.057112	0	0
43.220453	5.567568	0.777242	51.053561	3.66693	49.032171	3.66693	5.457346E+15	0.001021	929.621965	19.019443	1.052187	0	0
44.253453	5.416411	0.724733	50.933869	3.807104	48.80603	3.807104	5.212673E+15	0.001037	919.460436	18.979867	1.047025	0	0
45.273599	5.193133	0.691429	50.812543	3.937107	48.581459	3.937107	4.974006E+15	0.00105	911.024643	18.98033	1.042337	0	0
46.278497	4.886289	0.66637	50.693464	4.057175	48.363404	4.057175	4.748636E+15	0.001063	903.00886	19.003046	1.037756	0	0
47.261378	4.49253	0.644343	50.573608	4.169037	48.147311	4.169037	4.530413E+15	0.001075	896.164506	19.006147	1.033082	0	0
48.199785	3.990133	0.635629	50.455387	4.270883	47.937487	4.270883	4.323382E+15	0.001085	890.796755	18.980221	1.028197	0	0
49.118865	3.389783	0.630823	50.336348	4.367004	47.728494	4.367004	4.122922E+15	0.001094	886.018953	18.964501	1.022546	0	0
49.981367	2.720837	0.636052	50.220413	4.456595	47.525975	4.456595	3.935178E+15	0.001103	880.968408	18.961153	1.016526	0	0
50.785821	2.008795	0.664028	50.104069	4.543609	47.323175	4.543609	3.753983E+15	0.001113	874.938012	18.976936	1.010677	0	0
51.511385	1.294787	0.687752	49.982458	4.626818	47.114608	4.626818	3.572075E+15	0.001121	870.532358	18.970549	1.005197	0	0
52.124728	0.628116	0.706339	49.864195	4.702408	46.913883	4.702408	3.402298E+15	0.001128	867.051358	18.93383	1.000022	0	0
42.843402	5.616872	0.792067	49.74679	4.773081	46.716255	4.773081	3.240487E+15	0.001134	864.063283	18.912343	0.994727	0	0
52.634828	0	0	49.631182	4.839853	46.522426	4.839853	3.087511E+15	0.001141	860.729879	18.932942	0.989169	0	0
0	0	0	49.514634	4.903014	46.328719	4.903014	2.939486E+15	0.001146	858.049284	18.96487	0.983201	0	0
0	0	0	49.39682	4.962795	46.134622	4.962795	2.795979E+15	0.001151	856.128093	18.954226	0.977616	0	0
0	0	0	49.281212	5.018009	45.945574	5.018009	2.660962E+15	0.001154	854.804733	18.925831	0.971767	0	0
0	0	0	49.167237	5.070808	45.759496	5.070808	2.533305E+15	0.001158	852.72014	18.891927	0.96613	0	0
0	0	0	49.049995	5.123445	45.568418	5.123445	2.40746E+15	0.001164	849.73339	18.916813	0.960268	0	0
0	0	0	48.934999	5.170008	45.383713	5.170008	2.289247E+15	0.001165	849.307242	18.939263	0.954736	0	0
0	0	0	48.818493	5.214851	45.197501	5.214851	2.174584E+15	0.001167	849.042507	18.940148	0.94952	0	0
0	0	0	48.703742	5.256375	45.015296	5.256375	2.066506E+15	0.001167	849.448467	18.902999	0.944266	0	0
0	0	0	48.591115	5.295185	44.837248	5.295185	1.964962E+15	0.001168	849.990613	18.8926	0.938641	0	0
0	0	0	48.472974	5.33364	44.6515	5.33364	1.863116E+15	0.001167	851.054917	18.917625	0.932832	0	0
0	0	0	48.361735	5.367793	44.477558	5.367793	1.77144E+15	0.001166	852.609502	18.944229	0.927379	0	0
0	0	0	48.244657	5.402436	44.294911	5.402436	1.679224E+15	0.001165	853.86803	18.939685	0.922058	0	0
0	0	0	48.129334	5.433469	44.116779	5.433469	1.592524E+15	0.001161	857.275159	18.894862	0.91716	0	0
0	0	0	48.018626	5.462398	43.945986	5.462398	1.513019E+15	0.001158	859.972836	18.898004	0.911654	0	0
0	0	0	47.899996	5.490676	43.764565	5.490676	1.431728E+15	0.001152	865.01356	18.915663	0.906307	0	0
0	0	0	47.792351	5.516354	43.599558	5.516354	1.361336E+15	0.001148	867.842066	18.944049	0.900775	0	0
0	0	0	47.672659	5.543213	43.416968	5.543213	1.286692E+15	0.001143	871.768437	18.921793	0.895599	0	0
0	0	0	47.560603	5.567274	43.246495	5.567274	1.220143E+15	0.001139	875.413725	18.884394	0.890318	0	0
0	0	0	47.44475	5.590305	43.071325	5.590305	1.154597E+15	0.001133	880.667634	18.885192	0.884839	0	0
0	0	0	47.331224	5.611994	42.900037	5.611994	1.093457E+15	0.001127	885.671924	18.91072	0.879505	0	0
0	0	0	47.220802	5.631904	42.734075	5.631904	1.036809E+15	0.00112	891.2047	18.933155	0.874488	0	0
0	0	0	47.109726	5.650975	42.567615	5.650975	9.825208E+14	0.001113	897.092327	18.90896	0.869629	0	0
0	0	0	46.994649	5.669269	42.396059	5.669269	9.290155E+14	0.001104	904.754931	18.873183	0.864572	0	0
0	0	0	46.887004	5.68593	42.235709	5.68593	8.813873E+14	0.001096	911.372546	18.886388	0.859159	0	0
0	0	0	46.773029	5.702766	42.066343	5.702766	8.334053E+14	0.001087	918.641237	18.995694	0.853785	0	0
0	0	0	46.660116	5.718885	41.898779	5.718885	7.882492E+14	0.001079	925.485362	19.101733	0.848755	0	0
0	0	0	46.549571	5.733635	41.73537	5.733635	7.46237E+14	0.00107	933.320714	19.078476	0.844055	0	0
0	0	0	46.435882	5.747965	41.567806	5.747965	7.051995E+14	0.001061	942.10597	19.033855	0.839077	0	0
0	0	0	46.327706	5.760871	41.408797	5.760871	6.681071E+14	0.001051	951.116817	19.024665	0.833915	0	0
0	0	0	46.215609	5.773644	41.244353	5.773644	6.315942E+14	0.00104	960.760103	19.014128	0.828858	0	0
0	0	0	46.106453	5.785662	41.084411	5.785662	5.978383E+14	0.00103	969.925364	18.987509	0.824118	0	0
0	0	0	45.994765	5.796842	40.921563	5.796842	5.650552E+14	0.001018	981.819655	18.916721	0.819537	0	0
0	0	0	45.8832	5.808062	40.758687	5.808062	5.340009E+14	0.001008	991.76855	18.891399	0.814493	0	0
0	0	0	45.771511	5.818057	40.596573	5.818057	5.045292E+14	0.000994	1005.247832	18.896188	0.809661	0	0
0	0	0	45.662437	5.82824	40.437736	5.82824	4.772364E+14	0.000985	1014.839865	18.909341	0.804961	0	0
0	0	0	45.544828	5.837888	40.267515	5.837888	4.493785E+14	0.000971	1029.555193	18.875026	0.800538	0	0
0	0	0	45.438897	5.846555	40.114094	5.846555	4.25616E+14	0.00096	1041.312903	18.820262	0.796154	0	0
0	0	0	45.32186	5.855359	39.945158	5.855359	4.007549E+14	0.000946	1056.581129	18.829309	0.791348	0	0
0	0	0	45.213439	5.86365	39.788416	5.86365	3.789664E+14	0.000936	1068.187702	18.84508	0.786833	0	0
0	0	0	45.096401	5.871504	39.620112	5.871504	3.567201E+14	0.000921	1085.354164	18.861867	0.782238	0	0
0	0	0	44.985244	5.879114	39.460012	5.879114	3.367553E+14	0.00091	1098.934847	18.802682	0.778159	0	0
0	0	0	44.871432	5.8863	39.296551	5.8863	3.174287E+14	0.000897	1114.988067	18.785539	0.773445	0	0
0	0	0	44.760928	5.893044	39.137963	5.893044	2.996887E+14	0.000885	1130.426551	18.788045	0.768983	0	0
0	0	0	44.64483	5.899317	38.972025	5.899317	2.820823E+14	0.000869	1151.021104	18.810656	0.764269	0	0
0	0	0	44.53502	5.905644	38.814607	5.905644	2.663527E+14	0.000858	1165.612916	18.789743	0.760176	0	0
0	0	0	44.418473	5.911539	38.648234	5.911539	2.505879E+14	0.000843	1186.08351	18.734094	0.755991	0	0
0	0	0	44.303722	5.917366	38.484317	5.917366	2.359525E+14	0.00083	1204.157125	18.721938	0.75137	0	0
0	0	0	44.192156	5.922746	38.32515	5.922746	2.225215E+14	0.000818	1222.49998	18.741015	0.747	0	0
0	0	0	44.072628	5.927987	38.15506	5.927987	2.089577E+14	0.000803	1245.488097	18.766854	0.742537	0	0
0	0	0	43.967351	5.932637	38.00515	5.932637	1.976812E+14	0.000791	1263.667881	18.708163	0.738867	0	0
0	0	0	43.848435	5.937653	37.835982	5.937653	1.856576E+14	0.000778	1284.780044	18.671011	0.734615	0	0
0	0	0	43.735032	5.941464	37.675578	5.941464	1.748588E+14	0.00076	1315.150535	18.675192	0.730285	0	0
0	0	0	43.618852	5.946128	37.510407	5.946128	1.644335E+14	0.000749	1334.776581	18.707763	0.725796	0	0
0	0	0	43.500466	5.950248	37.342685	5.950248	1.544373E+14	0.000735	1361.213397	18.674893	0.722006	0	0
0	0	0	43.387716	5.953974	37.183094	5.953974	1.454724E+14	0.000721	1387.517011	18.623659	0.718151	0	0
0	0	0	43.266228	5.957746	37.011329	5.957746	1.363844E+14	0.000705	1417.815001	18.610025	0.714005	0	0
0	0	0	43.152253	5.961113	36.850316	5.961113	1.283671E+14	0.000691	1447.404086	18.644805	0.709833	0	0
0	0	0	43.032806	5.964657	36.681503	5.964657	1.204626E+14	0.000677	1476.259605	18.640266	0.705978	0	0
0	0	0	42.911684	5.96804	36.510494	5.96804	1.129372E+14	0.000663	1507.281797	18.595921	0.702321	0	0
0	0	0	42.793299	5.970912	36.343767	5.970912	1.060303E+14	0.000647	1544.584155	18.552719	0.698439	0	0
0	0	0	42.670503	5.973864	36.170813	5.973864	9.930644E+13	0.000632	1582.362814	18.554738	0.69424	0	0
0	0	0	42.552445	5.976537	36.004667	5.976537	9.323964E+13	0.000617	1620.866823	18.581378	0.690055	0	0
0	0	0	42.431446	5.979419	35.834184	5.979419	8.74019E+13	0.000604	1655.003479	18.548965	0.686503	0	0
0	0	0	42.296849	5.982268	35.644887	5.982268	8.133208E+13	0.000588	1699.790004	18.513469	0.682609	0	0
0	0	0	42.17001	5.984766	35.466665	5.984766	7.599475E+13	0.000573	1745.270071	18.473137	0.678714	0	0
0	0	0	42.045867	5.987313	35.292075	5.987313	7.11071E+13	0.00056	1784.700616	18.498041	0.674608	0	0
0	0	0	41.923888	5.989504	35.120844	5.989504	6.660837E+13	0.000546	1831.294155	18.49765	0.670832	0	0
0	0	0	41.797254	5.991613	34.943233	5.991613	6.223644E+13	0.000531	1883.780044	18.438558	0.667187	0	0
0	0	0	41.665229	5.993996	34.757811	5.993996	5.79814E+13	0.000518	1929.635582	18.397224	0.663293	0	0
0	0	0	41.543618	5.995878	34.587341	5.995878	5.431805E+13	0.000505	1981.876025	18.399547	0.659358	0	0
0	0	0	41.414166	5.997889	34.40584	5.997889	5.067084E+13	0.000491	2035.312466	18.429468	0.655384	0	0
0	0	0	41.290349	5.999841	34.232176	5.999841	4.741038E+13	0.00048	2082.72929	18.370764	0.652123	0	0
0	0	0	41.161265	6.001366	34.051694	6.001366	4.423309E+13	0.000464	2154.846312	18.320921	0.648518	0	0
0	0	0	41.036999	6.003048	33.877671	6.003048	4.137467E+13	0.000452	2212.319175	18.308782	0.64494	0	0
0	0	0	40.906445	6.004506	33.695183	6.004506	3.856937E+13	0.000437	2288.25567	18.344803	0.641072	0	0
0	0	0	40.778626	6.006184	33.516192	6.006184	3.600635E+13	0.000426	2346.367918	18.308964	0.637837	0	0
0	0	0	40.650154	6.007516	33.336691	6.007516	3.36011E+13	0.000412	2425.210737	18.26082	0.634391	0	0
0	0	0	40.514699	6.009065	33.147232	6.009065	3.123821E+13	0.0004	2497.191065	18.241363	0.630826	0	0
0	0	0	40.385329	6.010527	32.966281	6.010527	2.913618E+13	0.00039	2564.585317	18.259438	0.62709	0	0
0	0	0	40.252487	6.011637	32.780935	6.011637	2.712433E+13	0.000376	2662.810522	18.245448	0.623816	0	0
0	0	0	40.122382	6.012621	32.599516	6.012621	2.52882E+13	0.000361	2768.630945	18.18962	0.620528	0	0
0	0	0	39.988765	6.013906	32.412839	6.013906	2.35314E+13	0.000351	2852.625088	18.14591	0.617188	0	0
0	0	0	39.856781	6.015148	32.228456	6.015148	2.191559E+13	0.000341	2935.500747	18.157969	0.613557	0	0
0	0	0	39.720142	6.016205	32.03784	6.016205	2.035928E+13	0.000329	3043.199774	18.164291	0.610098	0	0
0	0	0	39.585013	6.017325	31.849218	6.017325	1.892863E+13	0.000318	3140.267708	18.120496	0.606969	0	0
0	0	0	39.447884	6.01822	31.658095	6.01822	1.75793E+13	0.000306	3266.830594	18.0616	0.603853	0	0
0	0	0	39.309326	6.019335	31.46469	6.019335	1.631337E+13	0.000297	3366.663995	18.063609	0.600235	0	0
0	0	0	39.171175	6.020144	31.272232	6.020144	1.514177E+13	0.000285	3506.981993	18.075667	0.596604	0	0
0	0	0	39.030493	6.021104	31.076052	6.021104	1.403496E+13	0.000275	3629.808012	18.043209	0.593673	0	0
0	0	0	38.888545	6.021972	30.878224	6.021972	1.300004E+13	0.000265	3768.705988	17.984526	0.590478	0	0
0	0	0	38.742759	6.022715	30.675228	6.022715	1.201639E+13	0.000254	3938.164755	17.960512	0.587125	0	0
0	0	0	38.597748	6.023547	30.473173	6.023547	1.111171E+13	0.000244	4090.481465	17.98138	0.583573	0	0
0	0	0	38.449552	6.024317	30.266774	6.024317	1.02574E+13	0.000235	4262.607046	17.965729	0.580549	0	0
0	0	0	38.299069	6.025003	30.057305	6.025003	9.457004E+12	0.000224	4460.132034	17.891343	0.577473	0	0
0	0	0	38.144707	6.025795	29.842301	6.025795	8.70075E+12	0.000215	4643.262439	17.847236	0.574238	0	0
0	0	0	37.987404	6.026353	29.623531	6.026353	7.992209E+12	0.000204	4897.871618	17.861204	0.570832	0	0
0	0	0	37.831	6.027076	29.405764	6.027076	7.344876E+12	0.000196	5108.188201	17.867803	0.567835	0	0
0	0	0	37.670227	6.02756	29.182264	6.02756	6.734016E+12	0.000185	5410.056863	17.789156	0.564996	0	0
0	0	0	37.506962	6.028376	28.95483	6.028376	6.165618E+12	0.000178	5611.423613	17.748045	0.561814	0	0
0	0	0	37.338429	6.029076	28.720242	6.029076	5.62912E+12	0.00017	5866.502455	17.750931	0.558606	0	0
0	0	0	37.173939	6.029648	28.491428	6.029648	5.150511E+12	0.000162	6161.969645	17.771015	0.555411	0	0
0	0	0	36.996586	6.03005	28.245019	6.03005	4.679933E+12	0.000152	6588.526848	17.690448	0.552691	0	0
0	0	0	36.822214	6.030702	28.002367	6.030702	4.25918E+12	0.000145	6895.520935	17.636966	0.549549	0	0
0	0	0	36.642084	6.031207	27.751935	6.031207	3.864196E+12	0.000137	7306.246396	17.640032	0.546301	0	0
0	0	0	36.456277	6.031891	27.493357	6.031891	3.495088E+12	0.000131	7638.074867	17.652243	0.543172	0	0
0	0	0	36.27386	6.032343	27.239809	6.032343	3.167019E+12	0.000123	8108.508939	17.592129	0.540558	0	0
0	0	0	36.081112	6.032717	26.972046	6.032717	2.853755E+12	0.000115	8704.142984	17.512621	0.537626	0	0
0	0	0	35.887628	6.033134	26.703188	6.033134	2.570446E+12	0.000108	9298.316732	17.523676	0.534273	0	0
0	0	0	35.690877	6.033669	26.42961	6.033669	2.31117E+12	0.000102	9821.39169	17.513252	0.531342	0	0
0	0	0	35.489267	6.034295	26.149141	6.034295	2.072589E+12	9.734659E-5	10272.57363	17.468058	0.528398	0	0
0	0	0	35.284063	6.034501	25.864329	6.034501	1.855025E+12	8.906364E-5	11227.926048	17.386886	0.525863	0	0
0	0	0	35.07792	6.034944	25.577837	6.034944	1.659451E+12	8.367187E-5	11951.447594	17.401511	0.522403	0	0
0	0	0	34.864712	6.035186	25.281856	6.035186	1.478835E+12	7.66701E-5	13042.894685	17.410591	0.519406	0	0
0	0	0	34.649177	6.035725	24.982166	6.035725	1.316218E+12	7.28126E-5	13733.887495	17.352448	0.516647	0	0
0	0	0	34.431763	6.03589	24.680462	6.03589	1.17029E+12	6.609249E-5	15130.311905	17.263565	0.514099	0	0
0	0	0	34.209407	6.036432	24.371287	6.036432	1.037764E+12	6.29418E-5	15887.694259	17.254969	0.510917	0	0
0	0	0	33.98256	6.036841	24.056087	6.036841	9.18012E+11	5.89639E-5	16959.530274	17.268387	0.507986	0	0
0	0	0	33.750853	6.037008	23.734539	6.037008	8.099469E+11	5.330636E-5	18759.486391	17.214588	0.505398	0	0
0	0	0	33.514981	6.037314	23.406978	6.037314	7.129945E+11	4.915105E-5	20345.446851	17.120984	0.50285	0	0
0	0	0	33.273596	6.037592	23.071809	6.037592	6.257791E+11	4.508468E-5	22180.481943	17.127494	0.499866	0	0
0	0	0	33.032088	6.03795	22.736327	6.03795	5.491949E+11	4.199925E-5	23809.94669	17.137967	0.496856	0	0
0	0	0	32.772245	6.03838	22.375283	6.03838	4.772292E+11	3.94149E-5	25371.11625	17.080083	0.494492	0	0
0	0	0	32.5211	6.038437	22.026938	6.038437	4.166477E+11	3.477333E-5	28757.668932	17.010316	0.491812	0	0
0	0	0	32.261053	6.038632	21.666002	6.038632	3.620101E+11	3.136087E-5	31886.868412	16.990453	0.489	0	0
0	0	0	32.003333	6.039178	21.307666	6.039178	3.149331E+11	3.053039E-5	32754.253605	17.015418	0.48595	0	0
0	0	0	31.73957	6.039132	20.941989	6.039132	2.730843E+11	2.62112E-5	38151.629926	16.932709	0.483732	0	0
0	0	0	31.473397	6.039637	20.571978	6.039637	2.364881E+11	2.547603E-5	39252.586064	16.860768	0.480999	0	0
0	0	0	31.20314	6.039583	20.197305	6.039583	2.043445E+11	2.172929E-5	46020.83672	16.839739	0.478134	0	0
0	0	0	30.932353	6.0401	19.820848	6.0401	1.76519E+11	2.141774E-5	46690.268425	16.853257	0.475242	0	0
0	0	0	30.665322	6.040005	19.450721	6.040005	1.527925E+11	1.806792E-5	55346.724752	16.779979	0.472945	0	0
0	0	0	30.39674	6.040075	19.078134	6.040075	1.321442E+11	1.592326E-5	62801.22181	16.700513	0.470463	0	0
0	0	0	30.128852	6.04055	18.705742	6.04055	1.143291E+11	1.581226E-5	63242.085256	16.705026	0.467519	0	0
0	0	0	29.861332	6.040633	18.334592	6.040633	9.893539E+10	1.404338E-5	71207.949029	16.69352	0.464878	0	0
0	0	0	29.590258	6.040808	17.958334	6.040808	8.545007E+10	1.284762E-5	77835.440172	16.612891	0.462805	0	0
0	0	0	29.321758	6.04091	17.585781	6.04091	7.390555E+10	1.150766E-5	86898.638405	16.544929	0.460244	0	0
0	0	0	29.051011	6.040998	17.210136	6.040998	6.384315E+10	1.025767E-5	97488.071262	16.549032	0.457577	0	0
0	0	0	28.777079	6.041292	16.829663	6.041292	5.505587E+10	9.897353E-6	101037.117061	16.542889	0.455068	0	0
0	0	0	28.501106	6.04126	16.446998	6.04126	4.742568E+10	8.417268E-6	118803.399445	16.45765	0.452876	0	0
0	0	0	28.226561	6.041527	16.065715	6.041527	4.088453E+10	8.122065E-6	123121.396967	16.405868	0.450223	0	0
0	0	0	27.949771	6.041608	15.681686	6.041608	3.520279E+10	7.255191E-6	137832.347234	16.408683	0.447635	0	0
0	0	0	27.670326	6.041782	15.293783	6.041782	3.026718E+10	6.784203E-6	147401.240552	16.415047	0.445139	0	0
0	0	0	27.391739	6.041836	14.90731	6.041836	2.603563E+10	5.998771E-6	166700.808943	16.299121	0.443251	0	0
0	0	0	27.111192	6.04197	14.517951	6.04197	2.237196E+10	5.538005E-6	180570.441731	16.246597	0.440637	0	0
0	0	0	26.827255	6.042243	14.123593	6.042243	1.918864E+10	5.601635E-6	178519.293946	16.255636	0.438076	0	0
0	0	0	26.542787	6.04229	13.728968	6.04229	1.645356E+10	4.956207E-6	201767.180528	16.249369	0.435726	0	0
0	0	0	26.250969	6.042257	13.324318	6.042257	1.405237E+10	4.14095E-6	241490.476945	16.151313	0.433745	0	0
0	0	0	25.961356	6.042636	12.921838	6.042636	1.201592E+10	4.729535E-6	211437.263112	16.088129	0.431197	0	0
0	0	0	25.665821	6.042464	12.512333	6.042464	1.024176E+10	3.497252E-6	285938.805004	16.085264	0.428821	0	0
0	0	0	25.367959	6.042637	12.098847	6.042637	8.71857E+9	3.433601E-6	291239.442328	16.04635	0.426629	0	0
0	0	0	25.070138	6.042724	11.685602	6.042724	7.422081E+9	3.166062E-6	315849.813725	15.951238	0.424688	0	0
0	0	0	24.766436	6.04289	11.26402	6.04289	6.298331E+9	3.19711E-6	312782.46896	15.947577	0.422113	0	0
0	0	0	24.460121	6.042551	10.839946	6.042551	5.337179E+9	1.953631E-6	511867.389294	15.940167	0.419856	0	0
0	0	0	24.158788	6.04299	10.421027	6.04299	4.534899E+9	2.59883E-6	384788.489816	15.874463	0.417862	0	0
0	0	0	23.864969	6.042818	10.013914	6.042818	3.868901E+9	1.813548E-6	551405.445953	15.797164	0.415763	0	0
0	0	0	23.575682	6.04331	9.611558	6.04331	3.308809E+9	3.22213E-6	310353.735389	15.817114	0.413149	0	0
0	0	0	23.270837	6.042984	9.18951	6.042984	2.806099E+9	1.595168E-6	626893.120155	15.795542	0.410997	0	0
0	0	0	22.980979	6.043017	8.787417	6.043017	2.399125E+9	1.424489E-6	702006.355018	15.698045	0.409201	0	0
0	0	0	22.69108	6.043071	8.385219	6.043071	2.05113E+9	1.311075E-6	762732.969579	15.65205	0.406943	0	0
0	0	0	22.406571	6.043184	7.990353	6.043184	1.758729E+9	1.342316E-6	744981.210975	15.656178	0.404606	0	0
0	0	0	22.124922	6.043224	7.599622	6.043224	1.510344E+9	1.237554E-6	808045.422868	15.623567	0.402481	0	0
0	0	0	21.84025	6.043357	7.204474	6.043357	1.294921E+9	1.405431E-6	711525.699183	15.506445	0.400711	0	0
0	0	0	21.553128	6.043304	6.806377	6.043304	1.108755E+9	1.065212E-6	938780.529039	15.492587	0.398335	0	0
0	0	0	21.269191	6.043417	6.412291	6.043417	9.509891E+8	1.208845E-6	827235.722255	15.506224	0.396024	0	0
0	0	0	20.982477	6.043476	6.014481	6.043476	8.144485E+8	1.248958E-6	800667.745895	15.421187	0.394374	0	0
0	0	0	20.695314	6.043536	5.616046	6.043536	6.973427E+8	1.347465E-6	742134.031682	15.33994	0.392182	0	0
0	0	0	20.405048	6.043344	5.21394	6.043344	5.960741E+8	6.267988E-7	1595408.261225	15.342861	0.389753	0	0
0	0	0	20.111392	6.04343	4.806432	6.04343	5.085791E+8	6.721742E-7	1487709.512918	15.343592	0.387693	0	0
0	0	0	19.810671	6.043496	4.389173	6.043496	4.32273E+8	7.120269E-7	1404441.384172	15.219166	0.386082	0	0
0	0	0	19.504846	6.04357	3.964815	6.04357	3.664033E+8	8.277642E-7	1208073.560892	15.185367	0.383864	0	0
0	0	0	19.191915	6.043769	3.530271	6.043769	3.093801E+8	-5.304949E-5	-18850.324014	15.175248	0.381475	0	0
0	0	0	18.879638	6.043536	3.097755	6.043536	2.613238E+8	5.051335E-7	1979674.528825	15.113357	0.379851	0	0
0	0	0	18.56491	6.043782	2.660589	6.043782	2.204399E+8	-6.16298E-6	-162259.154394	15.031905	0.377831	0	0
0	0	0	18.243322	6.043623	2.214974	6.043623	1.852639E+8	5.736179E-7	1743320.772005	15.026149	0.375639	0	0
0	0	0	17.923735	6.043743	1.771394	6.043743	1.558695E+8	2.892239E-6	345752.87081	15.011231	0.373632	0	0
0	0	0	17.596961	6.043523	1.318754	6.043523	1.306303E+8	2.387365E-7	4188717.943464	14.91845	0.371731	0	0
0	0	0	17.264837	6.043769	0.857439	6.043769	1.091619E+8	-1.843194E-5	-54253.641601	14.858308	0.369856	0	0
0	0	0	16.924872	6.043802	0.385822	6.043802	9.083589E+7	-1.125981E-6	-888114.177016	14.862422	0.367572	0	0
0	0	0	16.581926	6.04361	-0.089308	6.04361	7.546471E+7	2.138902E-7	4675296.411072	14.781957	0.365829	0	0
0	0	0	16.232161	6.043756	-0.574831	6.043756	6.246393E+7	2.607918E-6	383447.596545	14.688707	0.364007	0	0
0	0	0	15.87627	6.043623	-1.068073	6.043623	5.153195E+7	1.595853E-7	6266242.87973	14.685788	0.361974	0	0
0	0	0	15.517235	6.043816	-1.566592	6.043816	4.244101E+7	-3.8376E-7	-2605795.446178	14.681334	0.359927	0	0
0	0	0	15.143866	6.043669	-2.084034	6.043669	3.468404E+7	1.589076E-7	6292964.424675	14.592878	0.358158	0	0
0	0	0	14.764086	6.043643	-2.610705	6.043643	2.824675E+7	1.015869E-7	9843791.773484	14.501855	0.356204	0	0
0	0	0	14.373974	6.04363	-3.151743	6.04363	2.287608E+7	7.428539E-8	1.34616E+7	14.530744	0.353814	0	0
0	0	0	13.970508	6.043716	-3.711594	6.043716	1.839331E+7	1.618866E-7	6177164.854048	14.441157	0.352428	0	0
0	0	0	13.557119	6.043636	-4.284721	6.043636	1.470985E+7	5.020503E-8	1.991832E+7	14.363648	0.350672	0	0
0	0	0	13.139524	6.043683	-4.864055	6.043683	1.173733E+7	6.231464E-8	1.604759E+7	14.344262	0.348546	0	0
0	0	0	12.718581	6.043809	-5.448276	6.043809	9348547.5	-9.772407E-8	-1.023289E+7	14.338541	0.346605	0	0
0	0	0	12.284896	6.043729	-6.049549	6.043729	7394823	8.833294E-8	1.13208E+7	14.223075	0.345153	0	0
0	0	0	11.845005	6.043596	-6.659265	6.043596	5829806.5	1.523416E-8	6.564194E+7	14.165781	0.34316	0	0
0	0	0	11.395312	6.043776	-7.283532	6.043776	4571719.5	-2.184882E-7	-4576906.259774	14.192704	0.340994	0	0
0	0	0	10.939943	6.044002	-7.915828	6.044002	3574147	-6.7543E-9	-1.480538E+8	14.065024	0.339793	0	0
0	0	0	10.472038	6.043856	-8.564353	6.043856	2775376.5	-1.385577E-8	-7.217211E+7	13.995154	0.337878	0	0
0	0	0	9.993841	6.043929	-9.22784	6.043929	2143164.5	-5.87593E-9	-1.701858E+8	13.998286	0.335766	0	0
0	0	0	9.502904	6.044002	-9.909004	6.044002	1643606.5	-3.106023E-9	-3.219551E+8	13.968009	0.334076	0	0
0	0	0	9.002043	6.043909	-10.603396	6.043909	1253748.5	-3.919286E-9	-2.551485E+8	13.84413	0.332663	0	0
0	0	0	8.497589	6.043929	-11.303138	6.043929	954507.5	-2.616974E-9	-3.821207E+8	13.82871	0.330511	0	0
0	0	0	7.991501	6.044142	-12.005784	6.044142	726047.5	-8.611826E-10	-1.161194E+9	13.806849	0.328874	0	0
0	0	0	7.493254	6.044195	-12.697035	6.044195	554614.5	-5.761221E-10	-1.735743E+9	13.693722	0.327435	0	0
0	0	0	7.011463	6.043975	-13.364545	6.043975	427446	-9.106698E-10	-1.098093E+9	13.649821	0.325626	0	0
0	0	0	6.54417	6.044055	-14.012952	6.044055	332028	-5.117928E-10	-1.953916E+9	13.665518	0.323685	0	0
0	0	0	6.095295	6.043836	-14.634792	6.043836	260490	-1.675588E-9	-5.968055E+8	13.556518	0.322365	0	0
0	0	0	5.659119	6.044181	-15.240959	6.044181	205774	-2.206048E-10	-4.532992E+9	13.459654	0.32078	0	0
0	0	0	5.239523	6.044135	-15.822782	6.044135	164014.5	-1.980531E-10	-5.049152E+9	13.497911	0.318549	0	0
0	0	0	4.817109	6.044115	-16.408604	6.044115	130530.5	-1.66644E-10	-6.000815E+9	13.422526	0.317295	0	0
0	0	0	4.422914	6.044015	-16.955004	6.044015	105479	-1.886703E-10	-5.300252E+9	13.326407	0.315644	0	0
0	0	0	4.037539	6.044068	-17.489709	6.044068	85642.5	-1.261951E-10	-7.924237E+9	13.307194	0.313809	0	0
0	0	0	3.670949	6.044142	-17.998434	6.044142	70247	-8.332163E-11	-1.200169E+10	13.271011	0.312212	0	0
0	0	0	3.316691	6.044009	-18.489312	6.044009	58004	-1.066021E-10	-9.380681E+9	13.145139	0.310931	0	0
0	0	0	2.97787	6.043955	-18.959065	6.043955	48296	-1.137632E-10	-8.790187E+9	13.150922	0.308924	0	0
0	0	0	2.648401	6.044029	-19.416306	6.044029	40417	-6.862414E-11	-1.457213E+10	13.125821	0.307366	0	0
0	0	0	2.338369	6.044168	-19.846833	6.044168	34180.5	-3.785738E-11	-2.641493E+10	13.003832	0.30627	0	0
0	0	0	2.041569	6.043949	-20.257689	6.043949	29113.5	-7.10809E-11	-1.406848E+10	12.963347	0.304237	0	0
0	0	0	1.761144	6.044075	-20.647106	6.044075	25018.5	-3.607051E-11	-2.772348E+10	12.940866	0.302666	0	0
0	0	0	1.502771	6.044168	-21.005818	6.044168	21757	-2.409745E-11	-4.149816E+10	12.832358	0.301491	0	0
0	0	0	1.272534	6.044009	-21.324562	6.044009	19211	-3.530674E-11	-2.83232E+10	12.757569	0.299893	0	0
0	0	0	1.07268	6.044175	-21.602384	6.044175	17243.5	-1.878737E-11	-5.322724E+10	12.792791	0.298045	0	0
0	0	0	0.896838	6.044029	-21.845729	6.044029	15680	-2.662312E-11	-3.756134E+10	12.671239	0.296896	0	0
0	0	0	0.752195	6.044155	-22.046826	6.044155	14500.5	-1.661036E-11	-6.020337E+10	12.601784	0.295365	0	0
0	0	0	0.623396	6.044168	-22.225521	6.044168	13525.5	-1.498047E-11	-6.675358E+10	12.600137	0.293463	0	0
0	0	0	0.516894	6.044308	-22.373769	6.044308	12769	-1.049401E-11	-9.529245E+10	12.511673	0.292526	0	0
0	0	0	0.424195	6.044095	-22.501538	6.044095	12144.5	-1.644605E-11	-6.080486E+10	12.418129	0.290915	0	0
0	0	0	0.345258	6.043935	-22.610418	6.043935	11637.5	-3.065032E-11	-3.262609E+10	12.439453	0.289001	0	0
0	0	0	0.281104	6.043876	-22.699172	6.043876	11240.5	-4.585121E-11	-2.180967E+10	12.344286	0.287971	0	0
0	0	0	0.223238	6.043989	-22.779862	6.043989	10894.5	-2.182076E-11	-4.582792E+10	12.2181	0.286598	0	0
0	0	0	0.189589	6.043889	-22.826153	6.043889	10698	-3.8895E-11	-2.571024E+10	12.266564	0.284842	0	0
0	0	0	0.14671	6.044055	-22.886259	6.044055	10453	-1.61124E-11	-6.2064E+10	12.184367	0.28372	0	0
0	0	0	0.1296	6.043856	-22.909231	6.043856	10356.5	-5.170318E-11	-1.934117E+10	12.086105	0.282267	0	0
0	0	0	0.099258	6.043829	-22.951213	6.043829	10188	-7.250536E-11	-1.379208E+10	12.07786	0.280709	0	0
0	0	0	0.073041	6.043935	-22.987982	6.043935	10045	-2.645607E-11	-3.779851E+10	12.000385	0.279389	0	0
0	0	0	0.062505	6.044095	-23.003204	6.044095	9988	-1.352573E-11	-7.393318E+10	11.86058	0.278254	0	0
0	0	0	0.05197	6.043796	-23.016675	6.043796	9931	-1.509904E-10	-6.622937E+9	11.906332	0.276339	0	0
0	0	0	0.034165	6.044035	-23.042284	6.044035	9836	-1.628719E-11	-6.139794E+10	11.806564	0.275455	0	0
0	0	0	0.014931	6.043929	-23.068555	6.043929	9734	-2.668766E-11	-3.74705E+10	11.710238	0.273963	0	0
0	0	0	0.001986	6.044208	-23.087577	6.044208	9666	-9.738403E-12	-1.026862E+11	11.73218	0.272325	0	0
0	0	0	-0.005528	6.043962	-23.097059	6.043962	9627	-2.190548E-11	-4.565069E+10	11.625219	0.271243	0	0
0	0	0	-0.009285	6.044122	-23.10288	6.044122	9607.5	-1.203589E-11	-8.308485E+10	11.508723	0.269949	0	0
0	0	0	-0.014063	6.043989	-23.108999	6.043989	9583	-1.919394E-11	-5.209979E+10	11.515477	0.268193	0	0
0	0	0	-0.0188	6.044095	-23.115976	6.044095	9558.5	-1.29441E-11	-7.725528E+10	11.423847	0.267348	0	0
0	0	0	-0.026192	6.043949	-23.125668	6.043949	9520.5	-2.324439E-11	-4.302113E+10	11.341574	0.265948	0	0
0	0	0	-0.031582	6.043969	-23.133221	6.043969	9492.5	-2.088892E-11	-4.787226E+10	11.371454	0.264206	0	0
0	0	0	-0.043057	6.044155	-23.149849	6.044155	9434	-1.080667E-11	-9.253541E+10	11.205719	0.263334	0	0
0	0	0	-0.050326	6.043896	-23.158939	6.043896	9397	-3.240384E-11	-3.086054E+10	11.161135	0.261789	0	0
0	0	0	-0.058534	6.044208	-23.171519	6.044208	9355.5	-9.425577E-12	-1.060943E+11	11.145359	0.26035	0	0
0	0	0	-0.063435	6.044055	-23.177731	6.044055	9330.5	-1.438216E-11	-6.953057E+10	11.054242	0.259439	0	0
0	0	0	-0.069642	6.044321	-23.187358	6.044321	9299	-7.458976E-12	-1.340667E+11	10.994032	0.258066	0	0
0	0	0	-0.07197	6.044188	-23.190078	6.044188	9287.5	-9.799831E-12	-1.020426E+11	11.007602	0.256521	0	0
0	0	0	-0.076298	6.044381	-23.196819	6.044381	9265.5	-6.708199E-12	-1.490713E+11	10.844751	0.255769	0	0
0	0	0	-0.077809	6.044049	-23.197643	6.044049	9258.5	-1.460777E-11	-6.845674E+10	10.824114	0.254013	0	0
0	0	0	-0.07883	6.044135	-23.19939	6.044135	9253	-1.117331E-11	-8.9499E+10	10.768649	0.252996	0	0
0	0	0	-0.080586	6.044188	-23.202029	6.044188	9244.5	-9.754459E-12	-1.025172E+11	10.610009	0.251993	0	0
0	0	0	-0.081321	6.044195	-23.203074	6.044195	9240.5	-9.598838E-12	-1.041793E+11	10.657653	0.250118	0	0
0	0	0	-0.082383	6.044168	-23.204445	6.044168	9235.5	-1.022898E-11	-9.776142E+10	10.544459	0.249405	0	0
0	0	0	-0.082505	6.044015	-23.20403	6.044015	9235	-1.651864E-11	-6.053766E+10	10.471453	0.247939	0	0
0	0	0	-0.084016	6.044188	-23.206787	6.044188	9227	-9.735994E-12	-1.027116E+11	10.456476	0.246672	0	0
0	0	0	-0.084343	6.044015	-23.206579	6.044015	9225.5	-1.650165E-11	-6.06E+10	10.325955	0.24588	0	0
0	0	0	-0.084302	6.043975	-23.206369	6.043975	9225.5	-1.965483E-11	-5.087808E+10	10.276801	0.244282	0	0
0	0	0	-0.085854	6.043882	-23.208165	6.043882	9218	-3.544023E-11	-2.821652E+10	10.249755	0.243041	0	0
0	0	0	-0.084547	6.043922	-23.206506	6.043922	9224.5	-2.637157E-11	-3.791962E+10	10.126462	0.242262	0	0
0	0	0	-0.085486	6.044029	-23.208215	6.044029	9220	-1.565466E-11	-6.387873E+10	10.124372	0.240572	0	0
0	0	0	-0.086058	6.044122	-23.209364	6.044122	9217	-1.154669E-11	-8.660493E+10	10.05073	0.239714	0	0
0	0	0	-0.085405	6.043935	-23.207746	6.043935	9220.5	-2.428454E-11	-4.117847E+10	9.931598	0.238552	0	0
0	0	0	-0.086058	6.044062	-23.209136	6.044062	9217	-1.388723E-11	-7.20086E+10	9.952963	0.23706	0	0
0	0	0	-0.08565	6.044035	-23.208467	6.044035	9219	-1.526552E-11	-6.550712E+10	9.800187	0.236294	0	0
0	0	0	-0.085282	6.043995	-23.207805	6.043995	9221	-1.7932E-11	-5.576624E+10	9.739769	0.234895	0	0
0	0	0	-0.086548	6.044135	-23.210095	6.044135	9214.5	-1.112682E-11	-8.987294E+10	9.692035	0.233878	0	0
0	0	0	-0.085527	6.044029	-23.208272	6.044029	9220	-1.565466E-11	-6.387873E+10	9.580017	0.232954	0	0
0	0	0	-0.085486	6.043995	-23.208088	6.043995	9220	-1.793005E-11	-5.577229E+10	9.584252	0.231317	0	0
0	0	0	-0.084384	6.044015	-23.206635	6.044015	9225.5	-1.650165E-11	-6.06E+10	9.503071	0.230683	0	0
0	0	0	-0.084996	6.044042	-23.207587	6.044042	9222.5	-1.490244E-11	-6.710311E+10	9.411228	0.22931	0	0
0	0	0	-0.084915	6.044082	-23.207626	6.044082	9222.5	-1.301605E-11	-7.68282E+10	9.409448	0.228056	0	0
0	0	0	-0.084343	6.044195	-23.207265	6.044195	9225.5	-9.583256E-12	-1.043487E+11	9.248286	0.227316	0	0
0	0	0	-0.085201	6.044128	-23.2082	6.044128	9221.5	-1.133996E-11	-8.818369E+10	9.244705	0.225772	0	0
0	0	0	-0.084057	6.044108	-23.206538	6.044108	9227	-1.200899E-11	-8.327096E+10	9.148136	0.225006	0	0
0	0	0	-0.084384	6.044035	-23.206712	6.044035	9225.5	-1.527628E-11	-6.546097E+10	9.040807	0.223712	0	0
0	0	0	-0.084506	6.044009	-23.20678	6.044009	9225	-1.695407E-11	-5.898288E+10	9.055382	0.22255	0	0
0	0	0	-0.083975	6.043949	-23.205814	6.043949	9227.5	-2.252903E-11	-4.438717E+10	8.889296	0.221837	0	0
0	0	0	-0.084629	6.044082	-23.207229	6.044082	9224	-1.301817E-11	-7.68157E+10	8.915835	0.220345	0	0
0	0	0	-0.084384	6.043982	-23.206508	6.043982	9225.5	-1.90482E-11	-5.24984E+10	8.811958	0.219553	0	0
0	0	0	-0.084711	6.043869	-23.206529	6.043869	9224	-4.006892E-11	-2.4957E+10	8.741186	0.218286	0	0
0	0	0	-0.084588	6.044148	-23.207427	6.044148	9224.5	-1.075078E-11	-9.301651E+10	8.725905	0.217282	0	0
0	0	0	-0.08422	6.044009	-23.206383	6.044009	9226.5	-1.695683E-11	-5.897329E+10	8.595764	0.216477	0	0
0	0	0	-0.084996	6.044035	-23.207561	6.044035	9222.5	-1.527131E-11	-6.548226E+10	8.598935	0.214985	0	0
0	0	0	-0.084792	6.043809	-23.206413	6.043809	9223.5	-9.641061E-11	-1.03723E+10	8.449388	0.214338	0	0
0	0	0	-0.084792	6.043975	-23.207049	6.043975	9223.5	-1.965057E-11	-5.088911E+10	8.413146	0.212938	0	0
0	0	0	-0.086466	6.044155	-23.210058	6.044155	9215	-1.055581E-11	-9.473457E+10	8.307138	0.212225	0	0
0	0	0	-0.08516	6.044062	-23.207889	6.044062	9221.5	-1.389401E-11	-7.197346E+10	8.2268	0.21105	0	0
0	0	0	-0.086671	6.044095	-23.210112	6.044095	9214	-1.247758E-11	-8.014376E+10	8.195482	0.209968	0	0
0	0	0	-0.085731	6.044142	-23.208988	6.044142	9218.5	-1.093428E-11	-9.14555E+10	8.102225	0.20907	0	0
0	0	0	-0.087161	6.044015	-23.210487	6.044015	9211.5	-1.647661E-11	-6.069211E+10	8.069116	0.207829	0	0
0	0	0	-0.087937	6.044181	-23.212199	6.044181	9207.5	-9.871114E-12	-1.013057E+11	7.97758	0.207089	0	0
0	0	0	-0.087283	6.044042	-23.210758	6.044042	9211	-1.488386E-11	-6.718689E+10	7.928285	0.205875	0	0
0	0	0	-0.087773	6.044428	-23.212914	6.044428	9208.5	-6.197429E-12	-1.613572E+11	7.889935	0.205096	0	0
0	0	0	-0.087977	6.044115	-23.212001	6.044115	9207.5	-1.175491E-11	-8.50708E+10	7.762638	0.204066	0	0
0	0	0	-0.089774	6.044201	-23.214824	6.044201	9198.5	-9.409105E-12	-1.0628E+11	7.746568	0.202996	0	0
0	0	0	-0.090836	6.044115	-23.215966	6.044115	9193.5	-1.173704E-11	-8.520035E+10	7.632187	0.202138	0	0
0	0	0	-0.090632	6.044142	-23.215785	6.044142	9194	-1.090522E-11	-9.16992E+10	7.613928	0.200976	0	0
0	0	0	-0.091449	6.043982	-23.216307	6.043982	9190.5	-1.897593E-11	-5.269833E+10	7.475556	0.200316	0	0
0	0	0	-0.089978	6.044095	-23.2147	6.044095	9197.5	-1.245523E-11	-8.028753E+10	7.43556	0.19889	0	0
0	0	0	-0.090019	6.044308	-23.215571	6.044308	9197.5	-7.558827E-12	-1.322957E+11	7.339032	0.198336	0	0
0	0	0	-0.091285	6.044168	-23.216793	6.044168	9191	-1.01797E-11	-9.823475E+10	7.291103	0.197095	0	0
0	0	0	-0.091979	6.043929	-23.21684	6.043929	9187.5	-2.518933E-11	-3.969935E+10	7.223957	0.196289	0	0
0	0	0	-0.093	6.044002	-23.218535	6.044002	9182.5	-1.735269E-11	-5.762797E+10	7.106967	0.195339	0	0
0	0	0	-0.093654	6.044162	-23.220052	6.044162	9179	-1.033756E-11	-9.673464E+10	7.090761	0.194362	0	0
0	0	0	-0.092837	6.044082	-23.218614	6.044082	9183.5	-1.296101E-11	-7.715447E+10	6.98192	0.193424	0	0
0	0	0	-0.092265	6.044155	-23.218101	6.044155	9186.5	-1.052316E-11	-9.502847E+10	6.945335	0.192738	0	0
0	0	0	-0.09296	6.044082	-23.218784	6.044082	9182.5	-1.29596E-11	-7.716287E+10	6.841015	0.191655	0	0
0	0	0	-0.092102	6.044102	-23.217671	6.044102	9187	-1.219417E-11	-8.200641E+10	6.798563	0.190612	0	0
0	0	0	-0.092184	6.044082	-23.217708	6.044082	9186.5	-1.296525E-11	-7.712927E+10	6.697186	0.189727	0	0
0	0	0	-0.09345	6.044135	-23.219667	6.044135	9180.5	-1.108576E-11	-9.020579E+10	6.660427	0.188856	0	0
0	0	0	-0.092184	6.043935	-23.217148	6.043935	9186.5	-2.419499E-11	-4.133087E+10	6.557535	0.188024	0	0
0	0	0	-0.091489	6.043922	-23.216134	6.043922	9190	-2.627294E-11	-3.806197E+10	6.518166	0.187021	0	0
0	0	0	-0.090713	6.043922	-23.215058	6.043922	9194	-2.628438E-11	-3.804541E+10	6.390407	0.186361	0	0
0	0	0	-0.089733	6.044122	-23.214462	6.044122	9198.5	-1.152351E-11	-8.677911E+10	6.360822	0.185225	0	0
0	0	0	-0.090877	6.043949	-23.215387	6.043949	9193	-2.24448E-11	-4.455375E+10	6.248395	0.184525	0	0
0	0	0	-0.09006	6.044002	-23.214457	6.044002	9197	-1.738009E-11	-5.753711E+10	6.234835	0.183298	0	0
0	0	0	-0.089039	6.044102	-23.213423	6.044102	9202	-1.221408E-11	-8.187273E+10	6.088317	0.182822	0	0
0	0	0	-0.089448	6.044128	-23.214091	6.044128	9200	-1.131353E-11	-8.838978E+10	6.087854	0.181726	0	0
0	0	0	-0.088794	6.044162	-23.213312	6.044162	9203.5	-1.036515E-11	-9.647713E+10	5.943576	0.18104	0	0
0	0	0	-0.088141	6.043975	-23.211693	6.043975	9206.5	-1.961435E-11	-5.098308E+10	5.924309	0.179904	0	0
0	0	0	-0.087487	6.043995	-23.210864	6.043995	9210	-1.79106E-11	-5.583285E+10	5.783843	0.179403	0	0
0	0	0	-0.087447	6.043962	-23.21068	6.043962	9210	-2.095662E-11	-4.771761E+10	5.782094	0.178241	0	0
0	0	0	-0.086671	6.044022	-23.209832	6.044022	9214	-1.605188E-11	-6.229798E+10	5.651401	0.177568	0	0
0	0	0	-0.087202	6.044035	-23.21062	6.044035	9211.5	-1.52531E-11	-6.556046E+10	5.603242	0.176604	0	0
0	0	0	-0.086997	6.044108	-23.210616	6.044108	9212.5	-1.199012E-11	-8.340202E+10	5.47872	0.175693	0	0
0	0	0	-0.086875	6.043955	-23.209861	6.043955	9213	-2.17016E-11	-4.607955E+10	5.434473	0.174901	0	0
0	0	0	-0.088182	6.043982	-23.211776	6.043982	9206.5	-1.900897E-11	-5.260674E+10	5.331015	0.174069	0	0
0	0	0	-0.086916	6.043969	-23.209969	6.043969	9212.5	-2.027276E-11	-4.932727E+10	5.249201	0.173475	0	0
0	0	0	-0.088508	6.044128	-23.212788	6.044128	9205	-1.131967E-11	-8.834176E+10	5.209515	0.172445	0	0
0	0	0	-0.08712	6.044162	-23.21099	6.044162	9212	-1.037472E-11	-9.638811E+10	5.091807	0.171785	0	0
0	0	0	-0.088427	6.044308	-23.213362	6.044308	9205.5	-7.565402E-12	-1.321807E+11	5.074216	0.170821	0	0
0	0	0	-0.087773	6.044175	-23.211947	6.044175	9208.5	-1.003297E-11	-9.967137E+10	4.937987	0.170293	0	0
0	0	0	-0.087896	6.044181	-23.212142	6.044181	9208	-9.87165E-12	-1.013002E+11	4.922459	0.169263	0	0
0	0	0	-0.089652	6.044142	-23.214425	6.044142	9199	-1.091115E-11	-9.164936E+10	4.810063	0.168484	0	0
0	0	0	-0.090101	6.044035	-23.214641	6.044035	9197	-1.522909E-11	-6.566382E+10	4.771757	0.167784	0	0
0	0	0	-0.090795	6.044015	-23.215528	6.044015	9193.5	-1.644441E-11	-6.081094E+10	4.6768	0.16686	0	0
0	0	0	-0.089938	6.043975	-23.214186	6.043975	9197.5	-1.959518E-11	-5.103297E+10	4.59636	0.166305	0	0
0	0	0	-0.091571	6.044168	-23.217189	6.044168	9189.5	-1.017804E-11	-9.825078E+10	4.552158	0.165302	0	0
0	0	0	-0.092551	6.044095	-23.218269	6.044095	9185	-1.243831E-11	-8.03968E+10	4.433761	0.164629	0	0
0	0	0	-0.093572	6.044029	-23.21943	6.044029	9180	-1.558675E-11	-6.415707E+10	4.359696	0.163863	0	0
0	0	0	-0.09447	6.044029	-23.220676	6.044029	9175	-1.557826E-11	-6.419203E+10	4.275621	0.162991	0	0
0	0	0	-0.094593	6.044201	-23.221508	6.044201	9174.5	-9.384555E-12	-1.065581E+11	4.171784	0.16245	0	0
0	0	0	-0.094879	6.044075	-23.221421	6.044075	9173.5	-1.322593E-11	-7.560907E+10	4.098431	0.161592	0	0
0	0	0	-0.0959	6.044095	-23.222913	6.044095	9168	-1.241529E-11	-8.054588E+10	4.009914	0.1608	0	0
0	0	0	-0.095981	6.043975	-23.222568	6.043975	9167.5	-1.953126E-11	-5.119997E+10	3.939959	0.160232	0	0
0	0	0	-0.095818	6.044301	-23.223589	6.044301	9168.5	-7.628713E-12	-1.310837E+11	3.901358	0.159136	0	0
0	0	0	-0.096226	6.043949	-23.222806	6.043949	9166.5	-2.23801E-11	-4.468255E+10	3.776811	0.158621	0	0
0	0	0	-0.097125	6.044162	-23.224867	6.044162	9162	-1.031841E-11	-9.691413E+10	3.714981	0.157763	0	0
0	0	0	-0.096308	6.044062	-23.223352	6.044062	9166.5	-1.381114E-11	-7.240531E+10	3.624577	0.157037	0	0
0	0	0	-0.098677	6.044049	-23.226587	6.044049	9154.5	-1.444368E-11	-6.923444E+10	3.539588	0.156245	0	0
0	0	0	-0.097819	6.044148	-23.225779	6.044148	9158.5	-1.067386E-11	-9.368682E+10	3.446032	0.155611	0	0
0	0	0	-0.097697	6.044002	-23.225049	6.044002	9159	-1.730828E-11	-5.777583E+10	3.365135	0.154819	0	0
0	0	0	-0.098309	6.044049	-23.226077	6.044049	9156.5	-1.444683E-11	-6.921932E+10	3.265395	0.154264	0	0
0	0	0	-0.098636	6.044241	-23.227268	6.044241	9154.5	-8.577198E-12	-1.165882E+11	3.189578	0.153578	0	0
0	0	0	-0.098595	6.044201	-23.227059	6.044201	9155	-9.364609E-12	-1.06785E+11	3.126823	0.152746	0	0
0	0	0	-0.096431	6.044122	-23.223751	6.044122	9165.5	-1.148217E-11	-8.709156E+10	3.025507	0.152099	0	0
0	0	0	-0.096553	6.044168	-23.224099	6.044168	9165	-1.01509E-11	-9.851343E+10	2.96424	0.15136	0	0
0	0	0	-0.095736	6.044181	-23.223017	6.044181	9169	-9.829839E-12	-1.017311E+11	2.882433	0.150633	0	0
0	0	0	-0.094838	6.044002	-23.221084	6.044002	9173.5	-1.733568E-11	-5.76845E+10	2.831723	0.149775	0	0
0	0	0	-0.094348	6.044015	-23.220455	6.044015	9176	-1.641311E-11	-6.092691E+10	2.727422	0.14934	0	0
0	0	0	-0.09398	6.044295	-23.221014	6.044295	9177.5	-7.732375E-12	-1.293264E+11	2.695107	0.148442	0	0
0	0	0	-0.093245	6.044035	-23.219002	6.044035	9181.5	-1.520342E-11	-6.577467E+10	2.654288	0.147795	0	0
0	0	0	-0.092143	6.043929	-23.217066	6.043929	9187	-2.518796E-11	-3.970151E+10	2.630084	0.147135	0	0
0	0	0	-0.092347	6.043995	-23.217604	6.043995	9185.5	-1.786296E-11	-5.598177E+10	2.591137	0.14654	0	0
0	0	0	-0.091285	6.043876	-23.215673	6.043876	9191	-3.749108E-11	-2.667301E+10	2.549843	0.14596	0	0
0	0	0	-0.091571	6.044221	-23.217393	6.044221	9189.5	-8.987622E-12	-1.112641E+11	2.543687	0.145233	0	0
0	0	0	-0.089652	6.044009	-23.213916	6.044009	9199	-1.690629E-11	-5.914959E+10	2.513589	0.144468	0	0
0	0	0	-0.089774	6.044022	-23.214137	6.044022	9198.5	-1.602488E-11	-6.240296E+10	2.505292	0.143847	0	0
0	0	0	-0.088958	6.043975	-23.212826	6.043975	9202.5	-1.960583E-11	-5.100524E+10	2.470387	0.14324	0	0
0	0	0	-0.08957	6.044075	-23.214058	6.044075	9199.5	-1.326341E-11	-7.539538E+10	2.456487	0.142514	0	0
0	0	0	-0.089488	6.044115	-23.214097	6.044115	9200	-1.174534E-11	-8.514015E+10	2.410586	0.141893	0	0
0	0	0	-0.088876	6.044281	-23.213883	6.044281	9203	-7.954218E-12	-1.257195E+11	2.394695	0.141154	0	0
0	0	0	-0.088958	6.043882	-23.21247	6.043882	9202.5	-3.538063E-11	-2.826405E+10	2.363288	0.140586	0	0
0	0	0	-0.089733	6.044255	-23.214971	6.044255	9198.5	-8.383589E-12	-1.192807E+11	2.347396	0.139926	0	0
0	0	0	-0.090877	6.043916	-23.215259	6.043916	9193	-2.74548E-11	-3.64235E+10	2.345069	0.139213	0	0
0	0	0	-0.090428	6.044208	-23.215756	6.044208	9195.5	-9.264379E-12	-1.079403E+11	2.28079	0.138724	0	0
0	0	0	-0.090591	6.044122	-23.215652	6.044122	9194.5	-1.15185E-11	-8.681687E+10	2.269303	0.137866	0	0
0	0	0	-0.090509	6.044195	-23.215818	6.044195	9195	-9.551573E-12	-1.046948E+11	2.229055	0.137325	0	0
0	0	0	-0.090101	6.043749	-23.213547	6.043749	9197	2.366366E-10	4.225889E+9	2.225909	0.136717	0	0
0	0	0	-0.090795	6.044135	-23.215986	6.044135	9193.5	-1.110146E-11	-9.007823E+10	2.178693	0.136203	0	0
0	0	0	-0.091408	6.043949	-23.216123	6.043949	9190.5	-2.24387E-11	-4.456587E+10	2.150565	0.135529	0	0
0	0	0	-0.093695	6.043989	-23.219447	6.043989	9179	-1.838476E-11	-5.439288E+10	2.111761	0.134922	0	0
0	0	0	-0.094185	6.044142	-23.220712	6.044142	9176.5	-1.088446E-11	-9.187408E+10	2.095469	0.134275	0	0
0	0	0	-0.094511	6.044142	-23.221165	6.044142	9175	-1.088268E-11	-9.18891E+10	2.060697	0.133509	0	0
0	0	0	-0.095369	6.044095	-23.222177	6.044095	9170.5	-1.241867E-11	-8.052392E+10	2.054432	0.133047	0	0
0	0	0	-0.094675	6.044128	-23.221341	6.044128	9174	-1.128155E-11	-8.864028E+10	2.022501	0.132281	0	0
0	0	0	-0.096839	6.044102	-23.224241	6.044102	9163.5	-1.216298E-11	-8.221671E+10	1.99233	0.131859	0	0
0	0	0	-0.09688	6.044082	-23.224222	6.044082	9163.5	-1.293279E-11	-7.732286E+10	1.985839	0.131146	0	0
0	0	0	-0.09737	6.044168	-23.225232	6.044168	9161	-1.014647E-11	-9.855644E+10	1.93951	0.130644	0	0
0	0	0	-0.099453	6.044049	-23.227663	6.044049	9150.5	-1.443737E-11	-6.926471E+10	1.949669	0.129839	0	0
0	0	0	-0.10031	6.044142	-23.229208	6.044142	9146.5	-1.084888E-11	-9.217542E+10	1.885498	0.129324	0	0
0	0	0	-0.101249	6.044042	-23.230129	6.044042	9141.5	-1.477155E-11	-6.769769E+10	1.886014	0.128624	0	0
0	0	0	-0.098922	6.044148	-23.227308	6.044148	9153.5	-1.066803E-11	-9.3738E+10	1.819382	0.128228	0	0
0	0	0	-0.099534	6.044015	-23.227649	6.044015	9150	-1.63666E-11	-6.110004E+10	1.842989	0.127396	0	0
0	0	0	-0.100433	6.044095	-23.2292	6.044095	9145.5	-1.238482E-11	-8.074404E+10	1.805198	0.126868	0	0
0	0	0	-0.101004	6.043989	-23.229586	6.043989	9142.5	-1.831165E-11	-5.461004E+10	1.782689	0.126221	0	0
0	0	0	-0.102066	6.044155	-23.231695	6.044155	9137.5	-1.046703E-11	-9.553806E+10	1.756524	0.125799	0	0
0	0	0	-0.101209	6.044188	-23.230633	6.044188	9142	-9.646305E-12	-1.036666E+11	1.733636	0.125138	0	0
0	0	0	-0.10227	6.044142	-23.231927	6.044142	9136.5	-1.083702E-11	-9.227631E+10	1.706425	0.124491	0	0
0	0	0	-0.101617	6.044241	-23.231403	6.044241	9140	-8.563613E-12	-1.167731E+11	1.672525	0.124003	0	0
0	0	0	-0.100024	6.043889	-23.227845	6.043889	9147.5	-3.325781E-11	-3.006813E+10	1.666753	0.123369	0	0
0	0	0	-0.099044	6.044175	-23.22758	6.044175	9152.5	-9.971957E-12	-1.002812E+11	1.627883	0.123066	0	0
0	0	0	-0.098187	6.044022	-23.225805	6.044022	9157	-1.595258E-11	-6.268577E+10	1.629761	0.122273	0	0
0	0	0	-0.099003	6.043975	-23.22676	6.043975	9152.5	-1.94993E-11	-5.128388E+10	1.589925	0.121851	0	0
0	0	0	-0.098105	6.044148	-23.226175	6.044148	9157	-1.067211E-11	-9.370217E+10	1.567059	0.121217	0	0
0	0	0	-0.097697	6.043982	-23.224973	6.043982	9159	-1.89109E-11	-5.287957E+10	1.532184	0.120861	0	0
0	0	0	-0.096186	6.044009	-23.222979	6.044009	9167	-1.684748E-11	-5.935607E+10	1.533572	0.120095	0	0
0	0	0	-0.094185	6.044188	-23.22089	6.044188	9176.5	-9.682708E-12	-1.032769E+11	1.488146	0.119712	0	0
0	0	0	-0.095451	6.043982	-23.221858	6.043982	9170.5	-1.893464E-11	-5.281326E+10	1.46093	0.119197	0	0
0	0	0	-0.093205	6.043916	-23.218488	6.043916	9181.5	-2.742046E-11	-3.646912E+10	1.449777	0.118563	0	0
0	0	0	-0.093245	6.044148	-23.219435	6.044148	9181.5	-1.070067E-11	-9.345213E+10	1.393108	0.118167	0	0
0	0	0	-0.092796	6.044002	-23.218252	6.044002	9183.5	-1.735458E-11	-5.762169E+10	1.426454	0.117507	0	0
0	0	0	-0.093082	6.044042	-23.218801	6.044042	9182	-1.4837E-11	-6.739909E+10	1.370921	0.116953	0	0
0	0	0	-0.091775	6.044142	-23.217371	6.044142	9188.5	-1.08987E-11	-9.175409E+10	1.380301	0.116332	0	0
0	0	0	-0.091285	6.044022	-23.216233	6.044022	9191	-1.601182E-11	-6.245388E+10	1.312229	0.116055	0	0
0	0	0	-0.090101	6.043969	-23.214387	6.043969	9197	-2.023865E-11	-4.94104E+10	1.326715	0.115329	0	0
0	0	0	-0.091163	6.043909	-23.21563	6.043909	9191.5	-2.873305E-11	-3.480313E+10	1.303398	0.11488	0	0
0	0	0	-0.090673	6.044135	-23.215816	6.044135	9194	-1.110207E-11	-9.007333E+10	1.282862	0.114352	0	0
0	0	0	-0.091081	6.044075	-23.216153	6.044075	9192	-1.32526E-11	-7.545689E+10	1.275564	0.113823	0	0
0	0	0	-0.091326	6.044115	-23.216646	6.044115	9191	-1.173385E-11	-8.522352E+10	1.261251	0.113322	0	0
0	0	0	-0.091449	6.044062	-23.216612	6.044062	9190.5	-1.38473E-11	-7.221623E+10	1.231037	0.112846	0	0
0	0	0	-0.091979	6.043909	-23.216763	6.043909	9187.5	-2.872054E-11	-3.481829E+10	1.203091	0.112345	0	0
0	0	0	-0.091204	6.043842	-23.215433	6.043842	9191.5	-5.393747E-11	-1.853999E+10	1.210873	0.111817	0	0
0	0	0	-0.092388	6.044035	-23.217813	6.044035	9185.5	-1.521004E-11	-6.574603E+10	1.165716	0.111434	0	0
0	0	0	-0.092551	6.044029	-23.218014	6.044029	9185	-1.559524E-11	-6.412214E+10	1.167038	0.110866	0	0
0	0	0	-0.093817	6.044095	-23.220024	6.044095	9178.5	-1.24295E-11	-8.045373E+10	1.129466	0.110338	0	0
0	0	0	-0.094961	6.044268	-23.222272	6.044268	9172.5	-8.138145E-12	-1.228781E+11	1.117722	0.109915	0	0
0	0	0	-0.094634	6.044095	-23.221157	6.044095	9174.5	-1.242409E-11	-8.048881E+10	1.063437	0.109414	0	0
0	0	0	-0.094593	6.044088	-23.221075	6.044088	9174.5	-1.268078E-11	-7.885948E+10	1.085995	0.108965	0	0
0	0	0	-0.094797	6.044015	-23.221079	6.044015	9173.5	-1.640864E-11	-6.094351E+10	1.049441	0.108437	0	0
0	0	0	-0.097125	6.044201	-23.225019	6.044201	9162	-9.371769E-12	-1.067034E+11	1.045253	0.107908	0	0
0	0	0	-0.097207	6.043802	-23.223606	6.043802	9161.5	-1.134963E-10	-8.810857E+9	1.028387	0.107473	0	0
0	0	0	-0.098962	6.044135	-23.227314	6.044135	9153	-1.105256E-11	-9.047681E+10	0.994647	0.107103	0	0
0	0	0	-0.100065	6.044095	-23.22869	6.044095	9147.5	-1.238752E-11	-8.072638E+10	0.985646	0.106549	0	0
0	0	0	-0.101494	6.044188	-23.231029	6.044188	9140.5	-9.644722E-12	-1.036836E+11	0.951697	0.106153	0	0
0	0	0	-0.102597	6.044228	-23.232711	6.044228	9135	-8.805583E-12	-1.135643E+11	0.971435	0.105532	0	0
0	0	0	-0.101984	6.044142	-23.231531	6.044142	9138	-1.08388E-11	-9.226116E+10	0.909532	0.105294	0	0
0	0	0	-0.101617	6.044221	-23.231326	6.044221	9140	-8.93921E-12	-1.118667E+11	0.93965	0.104568	0	0
0	0	0	-0.100923	6.044261	-23.230516	6.044261	9143.5	-8.221453E-12	-1.21633E+11	0.88503	0.104238	0	0
0	0	0	-0.102883	6.044035	-23.23237	6.044035	9133.5	-1.512394E-11	-6.612034E+10	0.903116	0.103789	0	0
0	0	0	-0.102474	6.044082	-23.231981	6.044082	9135.5	-1.289327E-11	-7.755985E+10	0.870413	0.103367	0	0
0	0	0	-0.105292	6.044015	-23.235635	6.044015	9122	-1.631652E-11	-6.128758E+10	0.85501	0.102878	0	0
0	0	0	-0.104067	6.044215	-23.234699	6.044215	9127.5	-9.059432E-12	-1.103822E+11	0.831517	0.102469	0	0
0	0	0	-0.103536	6.043922	-23.232843	6.043922	9130.5	-2.610284E-11	-3.831001E+10	0.825555	0.101994	0	0
0	0	0	-0.102964	6.044055	-23.232559	6.044055	9133.5	-1.407851E-11	-7.103027E+10	0	0	0	0
0	0	0	-0.10276	6.044002	-23.232072	6.044002	9134	-1.726103E-11	-5.793396E+10	0	0	0	0
0	0	0	-0.101331	6.044181	-23.230777	6.044181	9141.5	-9.800357E-12	-1.020371E+11	0	0	0	0
0	0	0	-0.101984	6.044195	-23.231734	6.044195	9138	-9.492363E-12	-1.053478E+11	0	0	0	0
0	0	0	-0.102025	6.044388	-23.232529	6.044388	9137.5	-6.544697E-12	-1.527955E+11	0	0	0	0
0	0	0	-0.101617	6.044022	-23.230563	6.044022	9140	-1.592297E-11	-6.280236E+10	0	0	0	0
0	0	0	-0.099371	6.044308	-23.228542	6.044308	9151	-7.520612E-12	-1.329679E+11	0	0	0	0
0	0	0	-0.097982	6.043902	-23.225064	6.043902	9157.5	-3.003003E-11	-3.33E+10	0	0	0	0
0	0	0	-0.097207	6.044068	-23.224624	6.044068	9161.5	-1.349956E-11	-7.407646E+10	0	0	0	0
0	0	0	-0.097452	6.044115	-23.225142	6.044115	9160.5	-1.169491E-11	-8.550728E+10	0	0	0	0
0	0	0	-0.09688	6.043949	-23.223713	6.043949	9163.5	-2.237278E-11	-4.469718E+10	0	0	0	0
0	0	0	-0.095451	6.043929	-23.221654	6.043929	9170.5	-2.514272E-11	-3.977295E+10	0	0	0	0
0	0	0	-0.094021	6.044188	-23.220664	6.044188	9177.5	-9.683763E-12	-1.032656E+11	0	0	0	0
0	0	0	-0.094389	6.044142	-23.220996	6.044142	9175.5	-1.088328E-11	-9.188409E+10	0	0	0	0
0	0	0	-0.094552	6.043949	-23.220484	6.043949	9175	-2.240085E-11	-4.464116E+10	0	0	0	0
0	0	0	-0.092878	6.044055	-23.218569	6.044055	9183	-1.415481E-11	-7.064739E+10	0	0	0	0
0	0	0	-0.093286	6.043942	-23.218703	6.043942	9181	-2.326457E-11	-4.298381E+10	0	0	0	0
0	0	0	-0.091449	6.044201	-23.217146	6.044201	9190.5	-9.400922E-12	-1.063725E+11	0	0	0	0
0	0	0	-0.09296	6.044088	-23.21881	6.044088	9182.5	-1.269184E-11	-7.879078E+10	0	0	0	0
0	0	0	-0.092347	6.044188	-23.218342	6.044188	9185.5	-9.692205E-12	-1.031757E+11	0	0	0	0
0	0	0	-0.092061	6.043916	-23.216902	6.043916	9187	-2.743688E-11	-3.644729E+10	0	0	0	0
0	0	0	-0.092143	0	-0.092143	0	9187	0	0	0	0	0	0
0	0	0	-0.091898	0	-0.091898	0	9188	0	0	0	0	0	0
