Vload_(V)	ILoad_(A)	RsLoad (ohm)	SunsVoc_Voltage_(V)	SunsVoc_Current_(A)	Model_Voltage_(V)	Model_Current_(A)	Carrier_Density_(cm-3)	Lifetime_(s)	Inverse_Lifetime_(s-1)	Efficiency_(%)	Intensity_(suns)	Dark_IV_Voltage_(V)	Dark_IV_Current_(A)
2.654155	6.023723	0	51.951318	-0.153041	52.017531	-0.153041	7.614174E+15	0.000548	1727.363047	19.736498	1.108949	0	0
2.652158	6.026418	-0.459431	52.547655	-0.459713	52.72858	-0.459713	9.406521E+15	0.000645	1402.535507	19.644316	1.108527	0	0
3.440739	6.021638	4.256295	52.686295	-0.338267	52.816349	-0.338267	9.870314E+15	0.00069	1287.229649	19.605672	1.105543	0	0
6.907454	6.020545	3.972918	52.663345	-0.046419	52.681261	-0.046419	9.792236E+15	0.000718	1234.33244	19.517474	1.101978	0	0
10.733104	6.002369	4.708735	52.575464	0.299688	52.458065	0.299688	9.498052E+15	0.000738	1204.998235	19.373749	1.099271	0	0
14.134552	5.998199	4.243581	52.47178	0.657327	52.209813	0.657327	9.160554E+15	0.000759	1177.600285	19.244414	1.098321	0	0
17.82235	5.995311	3.689618	52.348617	1.024877	51.931896	1.024877	8.772786E+15	0.000781	1153.169899	19.214489	1.097449	0	0
21.499787	5.993208	3.115551	52.220758	1.356589	51.657791	1.356589	8.384876E+15	0.000799	1134.546112	19.243869	1.096182	0	0
25.166347	5.992208	2.521181	52.09735	1.640453	51.403314	1.640453	8.024178E+15	0.000814	1121.092211	19.25876	1.093607	0	0
28.736362	5.987671	1.997546	51.975861	1.898728	51.157436	1.898728	7.681833E+15	0.000828	1109.162826	19.21762	1.090557	0	0
32.317694	5.980867	1.488891	51.857516	2.143034	50.917163	2.143034	7.360141E+15	0.000844	1095.337973	19.177857	1.0862	0	0
35.920335	5.954116	1.127792	51.733169	2.380133	50.669378	2.380133	7.03429E+15	0.000859	1082.258311	19.160103	1.0815	0	0
36.970222	5.93588	1.062978	51.604942	2.602064	50.420091	2.602064	6.710924E+15	0.000872	1071.402393	19.127767	1.077473	0	0
38.020004	5.912008	0.995632	51.478308	2.809529	50.175668	2.809529	6.403785E+15	0.000886	1060.233014	19.078706	1.074093	0	0
39.079076	5.874076	0.9467	51.357432	3.002609	49.941481	3.002609	6.121581E+15	0.000901	1047.212289	19.04155	1.070594	0	0
40.131115	5.825267	0.892523	51.236596	3.18777	49.70808	3.18777	5.849856E+15	0.000918	1032.990998	19.057198	1.065894	0	0
41.176438	5.759122	0.841818	51.104204	3.365525	49.461251	3.365525	5.563695E+15	0.000931	1022.644165	19.077898	1.060177	0	0
42.237549	5.672726	0.785007	50.982307	3.523776	49.233946	3.523776	5.31057E+15	0.000945	1011.418152	19.05843	1.054355	0	0
43.286323	5.554309	0.733538	50.860614	3.669641	49.01061	3.669641	5.067461E+15	0.000958	1001.667701	18.980359	1.048889	0	0
44.31494	5.389806	0.690961	50.740432	3.80316	48.793157	3.80316	4.836494E+15	0.000969	993.276152	18.937048	1.043502	0	0
45.334844	5.174908	0.646902	50.620658	3.928661	48.578283	3.928661	4.615063E+15	0.00098	985.140063	18.951559	1.038287	0	0
46.342193	4.859341	0.622228	50.500476	4.045811	48.365328	4.045811	4.401396E+15	0.00099	978.044587	18.967301	1.033494	0	0
47.313524	4.457216	0.602022	50.380743	4.155024	48.155351	4.155024	4.196759E+15	0.000999	971.724196	18.945591	1.02886	0	0
48.255558	3.947415	0.589189	50.259417	4.260556	47.943623	4.260556	3.99753E+15	0.001009	964.975096	18.927496	1.023658	0	0
49.168888	3.330351	0.583345	50.142584	4.359286	47.739742	4.359286	3.813179E+15	0.001019	957.095809	18.949389	1.017835	0	0
50.020029	2.648789	0.5856	50.018155	4.455813	47.525767	4.455813	3.624691E+15	0.001028	950.58397	18.964007	1.012158	0	0
50.813362	1.916978	0.612964	49.894624	4.542238	47.317116	4.542238	3.445323E+15	0.001035	946.923438	18.95024	1.006586	0	0
51.511245	1.179337	0.646487	49.777505	4.622432	47.119006	4.622432	3.282182E+15	0.001042	941.866312	18.904779	1.001477	0	0
42.894244	5.603043	0.752135	49.657037	4.698855	46.917483	4.698855	3.121185E+15	0.001048	938.040884	18.902994	0.995865	0	0
52.488199	0	0	49.54249	4.768547	46.726502	4.768547	2.97431E+15	0.001054	933.974302	18.928956	0.990241	0	0
0	0	0	49.421124	4.838054	46.525603	4.838054	2.825088E+15	0.00106	930.211234	18.932567	0.98455	0	0
0	0	0	49.304372	4.899876	46.334355	4.899876	2.687558E+15	0.001064	928.038904	18.897674	0.978939	0	0
0	0	0	49.187947	4.959023	46.144235	4.959023	2.556106E+15	0.001068	925.50865	18.871028	0.973011	0	0
0	0	0	49.069603	5.015304	45.952445	5.015304	2.428127E+15	0.001071	923.815069	18.878759	0.967188	0	0
0	0	0	48.959262	5.066752	45.773483	5.066752	2.313767E+15	0.001076	920.873869	18.897068	0.961458	0	0
0	0	0	48.837528	5.119021	45.57804	5.119021	2.192974E+15	0.001078	919.410176	18.873151	0.95627	0	0
0	0	0	48.725105	5.164809	45.398403	5.164809	2.086269E+15	0.001081	918.264148	18.833319	0.951081	0	0
0	0	0	48.610518	5.208187	45.216759	5.208187	1.982142E+15	0.001081	918.389987	18.845561	0.94539	0	0
0	0	0	48.495399	5.248883	45.035517	5.248883	1.882088E+15	0.001081	919.594417	18.872077	0.939964	0	0
0	0	0	48.383507	5.286865	44.859815	5.286865	1.789067E+15	0.00108	920.555691	18.874921	0.934339	0	0
0	0	0	48.268266	5.324451	44.679305	5.324451	1.697474E+15	0.00108	921.268191	18.828397	0.929071	0	0
0	0	0	48.154169	5.359922	44.501214	5.359922	1.610855E+15	0.00108	922.039245	18.815098	0.923368	0	0
0	0	0	48.038724	5.392452	44.322795	5.392452	1.527186E+15	0.001076	925.342645	18.837959	0.91802	0	0
0	0	0	47.924871	5.424106	44.146653	5.424106	1.448446E+15	0.001075	927.119351	18.854905	0.912475	0	0
0	0	0	47.81061	5.453258	43.971245	5.453258	1.373055E+15	0.001071	930.840732	18.805267	0.907366	0	0
0	0	0	47.699453	5.481044	43.800591	5.481044	1.303077E+15	0.001068	933.373049	18.776696	0.901926	0	0
0	0	0	47.580741	5.508903	43.619198	5.508903	1.231871E+15	0.001064	936.949655	18.805031	0.896077	0	0
0	0	0	47.470156	5.533536	43.450789	5.533536	1.168694E+15	0.001061	940.604996	18.82505	0.890492	0	0
0	0	0	47.354221	5.557899	43.274924	5.557899	1.105601E+15	0.001056	945.114266	18.796501	0.885356	0	0
0	0	0	47.241308	5.58016	43.104373	5.58016	1.047123E+15	0.00105	950.426184	18.756709	0.880141	0	0
0	0	0	47.131825	5.600944	42.939289	5.600944	9.931109E+14	0.001045	955.353771	18.763762	0.875045	0	0
0	0	0	47.017156	5.621006	42.767355	5.621006	9.392661E+14	0.001038	962.372304	18.792495	0.86979	0	0
0	0	0	46.90947	5.63959	42.605813	5.63959	8.911389E+14	0.001032	967.691721	18.780948	0.864694	0	0
0	0	0	46.797291	5.65746	42.438401	5.65746	8.434139E+14	0.001024	975.032901	18.745648	0.859835	0	0
0	0	0	46.68691	5.674669	42.273705	5.674669	7.98756E+14	0.001018	981.30254	18.726718	0.854712	0	0
0	0	0	46.577101	5.690661	42.110499	5.690661	7.565014E+14	0.00101	988.759532	18.752418	0.849391	0	0
0	0	0	46.466719	5.706241	41.946605	5.706241	7.161186E+14	0.001003	995.760029	18.746402	0.844414	0	0
0	0	0	46.356256	5.720247	41.783631	5.720247	6.777163E+14	0.000993	1005.864684	18.697506	0.839727	0	0
0	0	0	46.250775	5.733802	41.627673	5.733802	6.428432E+14	0.000986	1013.148478	18.675426	0.834815	0	0
0	0	0	46.139046	5.746869	41.463322	5.746869	6.077364E+14	0.000976	1023.452922	18.687256	0.829877	0	0
0	0	0	46.033606	5.759111	41.30812	5.759111	5.762597E+14	0.000969	1031.695157	18.702559	0.825256	0	0
0	0	0	45.922449	5.771227	41.144973	5.771227	5.44738E+14	0.00096	1041.48503	18.668058	0.820728	0	0
0	0	0	45.810271	5.782502	40.980945	5.782502	5.145783E+14	0.000949	1053.355933	18.633106	0.816199	0	0
0	0	0	45.704096	5.79303	40.825662	5.79303	4.874911E+14	0.00094	1063.405397	18.654091	0.811063	0	0
0	0	0	45.592081	5.80328	40.662407	5.80328	4.603806E+14	0.000929	1076.042551	18.662096	0.806614	0	0
0	0	0	45.483374	5.813285	40.503781	5.813285	4.354437E+14	0.00092	1086.072546	18.642788	0.802019	0	0
0	0	0	45.375116	5.822269	40.346514	5.822269	4.118908E+14	0.00091	1099.194789	18.592204	0.79753	0	0
0	0	0	45.263306	5.831513	40.183983	5.831513	3.888432E+14	0.0009	1110.952469	18.593339	0.792962	0	0
0	0	0	45.154966	5.839545	40.02718	5.839545	3.676909E+14	0.000888	1125.798697	18.609152	0.788248	0	0
0	0	0	45.043278	5.847778	39.865453	5.847778	3.47041E+14	0.000877	1139.495431	18.586052	0.783838	0	0
0	0	0	44.931427	5.855556	39.703786	5.855556	3.274795E+14	0.000866	1154.206464	18.541011	0.779561	0	0
0	0	0	44.82468	5.86299	39.549381	5.86299	3.09803E+14	0.000857	1166.146164	18.521577	0.77494	0	0
0	0	0	44.711522	5.870145	39.386246	5.870145	2.920701E+14	0.000846	1181.906517	18.550185	0.770279	0	0
0	0	0	44.601671	5.876782	39.228061	5.876782	2.757957E+14	0.000835	1197.576476	18.5308	0.766173	0	0
0	0	0	44.492148	5.88274	39.070859	5.88274	2.604449E+14	0.000822	1216.753848	18.489289	0.761895	0	0
0	0	0	44.380419	5.889178	38.910069	5.889178	2.456394E+14	0.000812	1231.194937	18.454968	0.757657	0	0
0	0	0	44.270568	5.895149	38.752226	5.895149	2.31881E+14	0.000802	1246.373427	18.48844	0.75293	0	0
0	0	0	44.158186	5.900816	38.591073	5.900816	2.185817E+14	0.000791	1263.944087	18.479083	0.748784	0	0
0	0	0	44.045722	5.906113	38.430075	5.906113	2.060174E+14	0.000779	1283.24464	18.417325	0.744731	0	0
0	0	0	43.939874	5.910818	38.278745	5.910818	1.948372E+14	0.000768	1302.611732	18.378298	0.740678	0	0
0	0	0	43.826838	5.916144	38.116776	5.916144	1.83552E+14	0.000759	1317.48039	18.400844	0.736176	0	0
0	0	0	43.715395	5.920484	37.957898	5.920484	1.730523E+14	0.000746	1341.049148	18.409143	0.732135	0	0
0	0	0	43.60338	5.92487	37.798117	5.92487	1.630919E+14	0.000734	1362.493522	18.350605	0.728267	0	0
0	0	0	43.487608	5.92922	37.633091	5.92922	1.533882E+14	0.000722	1384.946023	18.309572	0.724055	0	0
0	0	0	43.378738	5.933028	37.478123	5.933028	1.447809E+14	0.00071	1408.172783	18.330956	0.719896	0	0
0	0	0	43.262517	5.936536	37.313191	5.936536	1.361158E+14	0.000694	1439.889111	18.342117	0.715777	0	0
0	0	0	43.153238	5.940098	37.157796	5.940098	1.284344E+14	0.000683	1463.667121	18.289484	0.712041	0	0
0	0	0	43.040162	5.943568	36.997165	5.943568	1.209353E+14	0.000671	1489.922327	18.245283	0.708291	0	0
0	0	0	42.92827	5.946648	36.838529	5.946648	1.139396E+14	0.000658	1520.640839	18.253504	0.704053	0	0
0	0	0	42.811722	5.949832	36.673269	5.949832	1.070771E+14	0.000645	1551.256533	18.265778	0.700171	0	0
0	0	0	42.701463	5.952461	36.517279	5.952461	1.009609E+14	0.00063	1586.685755	18.198627	0.696606	0	0
0	0	0	42.584548	5.955359	36.351717	5.955359	9.485213E+13	0.000617	1620.200011	18.167308	0.692632	0	0
0	0	0	42.47629	5.957853	36.198573	5.957853	8.952206E+13	0.000605	1654.046252	18.165533	0.688816	0	0
0	0	0	42.356557	5.960811	36.028944	5.960811	8.397144E+13	0.000594	1684.200414	18.180579	0.68479	0	0
0	0	0	42.230577	5.963489	35.850877	5.963489	7.849865E+13	0.00058	1724.91982	18.118142	0.681436	0	0
0	0	0	42.118276	5.965601	35.692406	5.965601	7.391873E+13	0.000566	1767.581237	18.059015	0.677818	0	0
0	0	0	41.998706	5.967938	35.523548	5.967938	6.933312E+13	0.000553	1808.718438	18.073498	0.673765	0	0
0	0	0	41.888897	5.970132	35.368388	5.970132	6.537075E+13	0.000543	1842.903568	18.079682	0.670081	0	0
0	0	0	41.768102	5.972271	35.197972	5.972271	6.127102E+13	0.00053	1887.746381	18.044216	0.666464	0	0
0	0	0	41.644449	5.974334	35.023627	5.974334	5.73385E+13	0.000516	1936.312259	17.97954	0.663071	0	0
0	0	0	41.531903	5.976266	34.864855	5.976266	5.397755E+13	0.000506	1976.430713	17.995688	0.65911	0	0
0	0	0	41.410169	5.97806	34.693421	5.97806	5.056221E+13	0.000493	2030.18224	18.003251	0.655294	0	0
0	0	0	41.295909	5.979951	34.53225	5.979951	4.75522E+13	0.000483	2069.303738	17.938049	0.651888	0	0
0	0	0	41.174297	5.981642	34.361046	5.981642	4.454402E+13	0.000471	2123.683366	17.879236	0.64831	0	0
0	0	0	41.052604	5.983335	34.1897	5.983335	4.172329E+13	0.00046	2176.045337	17.868291	0.644428	0	0
0	0	0	40.933688	5.984959	34.022272	5.984959	3.91387E+13	0.000449	2226.487492	17.889799	0.64052	0	0
0	0	0	40.811219	5.986348	33.850145	5.986348	3.664335E+13	0.000436	2292.896457	17.821368	0.637325	0	0
0	0	0	40.687729	5.987872	33.676417	5.987872	3.428754E+13	0.000425	2350.51754	17.779719	0.633496	0	0
0	0	0	40.55791	5.989486	33.493743	5.989486	3.197343E+13	0.000415	2407.15256	17.769837	0.629746	0	0
0	0	0	40.43393	5.990385	33.320023	5.990385	2.99088E+13	0.000399	2505.724323	17.778386	0.62597	0	0
0	0	0	40.305417	5.991959	33.139169	5.991959	2.790879E+13	0.000391	2558.547147	17.708328	0.622801	0	0
0	0	0	40.17572	5.99341	32.956787	5.99341	2.602546E+13	0.000382	2618.375745	17.650089	0.619091	0	0
0	0	0	40.047248	5.994492	32.776533	5.994492	2.428485E+13	0.00037	2705.874714	17.654504	0.615421	0	0
0	0	0	39.917061	5.995488	32.593978	5.995488	2.263937E+13	0.000357	2803.591658	17.654128	0.61179	0	0
0	0	0	39.784465	5.996797	32.407665	5.996797	2.107769E+13	0.000348	2871.772316	17.578951	0.608674	0	0
0	0	0	39.64803	5.997584	32.216628	5.997584	1.958288E+13	0.000333	3000.651266	17.522001	0.605241	0	0
0	0	0	39.513065	5.998916	32.026943	5.998916	1.820827E+13	0.000327	3062.648409	17.52703	0.601505	0	0
0	0	0	39.373771	5.9998	31.831769	5.9998	1.689045E+13	0.000314	3184.037587	17.518661	0.598165	0	0
0	0	0	39.235907	6.000947	31.638236	6.000947	1.56799E+13	0.000306	3265.312479	17.444895	0.595049	0	0
0	0	0	39.093755	6.001735	31.439165	6.001735	1.45223E+13	0.000294	3403.610027	17.38596	0.591722	0	0
0	0	0	38.95197	6.00268	31.240392	6.00268	1.345269E+13	0.000284	3516.401306	17.41516	0.588117	0	0
0	0	0	38.8021	6.003605	31.030359	6.003605	1.240747E+13	0.000274	3645.100812	17.386862	0.585014	0	0
0	0	0	38.654884	6.004337	30.824257	6.004337	1.145975E+13	0.000263	3802.793181	17.322629	0.582083	0	0
0	0	0	38.501788	6.005404	30.609506	6.005404	1.055077E+13	0.000256	3903.091194	17.268674	0.578651	0	0
0	0	0	38.349059	6.006034	30.395825	6.006034	9.715721E+12	0.000244	4092.788286	17.29786	0.575112	0	0
0	0	0	38.188734	6.006838	30.171314	6.006838	8.910072E+12	0.000235	4260.133884	17.260935	0.572023	0	0
0	0	0	38.027716	6.00752	29.945981	6.00752	8.168095E+12	0.000224	4459.250432	17.18937	0.569026	0	0
0	0	0	37.863063	6.008269	29.715478	6.008269	7.473163E+12	0.000215	4648.638256	17.137253	0.565817	0	0
0	0	0	37.70041	6.008843	29.487989	6.008843	6.844696E+12	0.000205	4887.221818	17.145672	0.562503	0	0
0	0	0	37.535839	6.009432	29.257789	6.009432	6.262541E+12	0.000195	5130.096228	17.125009	0.559533	0	0
0	0	0	37.367551	6.010102	29.022285	6.010102	5.718373E+12	0.000187	5354.839278	17.032824	0.556588	0	0
0	0	0	37.202286	6.010723	28.791046	6.010723	5.229987E+12	0.000179	5587.891909	17.003733	0.553354	0	0
0	0	0	37.032896	6.011208	28.554237	6.011208	4.772641E+12	0.00017	5894.743672	17.005919	0.550119	0	0
0	0	0	36.869672	6.011612	28.326128	6.011612	4.369799E+12	0.000161	6230.28619	16.971119	0.547175	0	0
0	0	0	36.700241	6.012045	28.089316	6.012045	3.987546E+12	0.000152	6583.842082	16.88462	0.544349	0	0
0	0	0	36.530524	6.012539	27.852007	6.012539	3.638153E+12	0.000145	6910.62921	16.87207	0.540969	0	0
0	0	0	36.359378	6.012812	27.613017	6.012812	3.316799E+12	0.000135	7395.151602	16.86727	0.537959	0	0
0	0	0	36.18717	6.01348	27.371961	6.01348	3.022084E+12	0.000131	7619.520697	16.804602	0.535147	0	0
0	0	0	36.014717	6.013967	27.130816	6.013967	2.753182E+12	0.000126	7966.264869	16.739256	0.532348	0	0
0	0	0	35.839773	6.014285	26.886437	6.014285	2.504824E+12	0.000118	8470.074344	16.73207	0.528941	0	0
0	0	0	35.664094	6.014647	26.640962	6.014647	2.277959E+12	0.000112	8956.43763	16.723768	0.525891	0	0
0	0	0	35.48719	6.01514	26.393572	6.01514	2.070264E+12	0.000107	9320.39297	16.647479	0.523396	0	0
0	0	0	35.310408	6.015444	26.146628	6.015444	1.881626E+12	0.000101	9890.686031	16.589766	0.52028	0	0
0	0	0	35.129829	6.015563	25.894668	6.015563	1.706666E+12	9.303444E-5	10748.707113	16.572791	0.517204	0	0
0	0	0	34.946391	6.016011	25.638209	6.016011	1.545581E+12	8.914724E-5	11217.396717	16.541129	0.514405	0	0
0	0	0	34.761605	6.016259	25.380173	6.016259	1.398679E+12	8.335156E-5	11997.375706	16.460575	0.511738	0	0
0	0	0	34.574655	6.01671	25.118792	6.01671	1.264257E+12	8.019168E-5	12470.120921	16.426271	0.508741	0	0
0	0	0	34.384765	6.017068	24.853449	6.017068	1.140937E+12	7.626307E-5	13112.505788	16.409393	0.50577	0	0
0	0	0	34.190138	6.01724	24.581789	6.01724	1.027012E+12	7.046383E-5	14191.678449	16.374319	0.50309	0	0
0	0	0	33.994449	6.017423	24.308625	6.017423	9.239303E+11	6.523883E-5	15328.294693	16.280359	0.500528	0	0
0	0	0	33.791981	6.017713	24.025832	6.017713	8.281541E+11	6.12911E-5	16315.582872	16.26782	0.49769	0	0
0	0	0	33.58837	6.017808	23.741754	6.017808	7.418466E+11	5.578942E-5	17924.54543	16.257619	0.494904	0	0
0	0	0	33.377939	6.018189	23.447693	6.018189	6.620879E+11	5.321717E-5	18790.927594	16.185395	0.492435	0	0
0	0	0	33.164446	6.018648	23.149219	6.018648	5.899263E+11	5.171083E-5	19338.309057	16.11738	0.489728	0	0
0	0	0	32.946378	6.018836	22.844811	6.018836	5.243311E+11	4.772745E-5	20952.304153	16.112043	0.48685	0	0
0	0	0	32.717244	6.019037	22.524942	6.019037	4.632497E+11	4.397558E-5	22739.894932	16.10077	0.484394	0	0
0	0	0	32.492806	6.019263	22.211573	6.019263	4.103239E+11	4.092628E-5	24434.179568	15.987	0.482269	0	0
0	0	0	32.259548	6.019317	21.886194	6.019317	3.617156E+11	3.651582E-5	27385.389586	15.963363	0.479324	0	0
0	0	0	32.02878	6.019667	21.563771	6.019667	3.192951E+11	3.501688E-5	28557.656282	15.958269	0.476737	0	0
0	0	0	31.792785	6.019991	21.234096	6.019991	2.81054E+11	3.349429E-5	29855.831298	15.927052	0.474096	0	0
0	0	0	31.555811	6.019876	20.903818	6.019876	2.472618E+11	2.859055E-5	34976.594708	15.823326	0.471957	0	0
0	0	0	31.314875	6.020053	20.5675	6.020053	2.170672E+11	2.630837E-5	38010.723547	15.806017	0.469066	0	0
0	0	0	31.06181	6.020534	20.213712	6.020534	1.893144E+11	2.640938E-5	37865.330767	15.793437	0.466584	0	0
0	0	0	30.812911	6.020518	19.866623	6.020518	1.65482E+11	2.296776E-5	43539.292364	15.727109	0.464392	0	0
0	0	0	30.559071	6.020767	19.512158	6.020767	1.442639E+11	2.170592E-5	46070.371365	15.661716	0.461725	0	0
0	0	0	30.300371	6.021048	19.150846	6.021048	1.254365E+11	2.085764E-5	47944.060414	15.636706	0.459097	0	0
0	0	0	30.037629	6.021064	18.784383	6.021064	1.08828E+11	1.820418E-5	54932.439279	15.596766	0.45684	0	0
0	0	0	29.773334	6.021086	18.415743	6.021086	9.433933E+10	1.591331E-5	62840.467393	15.506789	0.454807	0	0
0	0	0	29.502424	6.02142	18.037283	6.02142	8.148766E+10	1.573546E-5	63550.735844	15.484804	0.451915	0	0
0	0	0	29.225267	6.021514	17.650556	6.021514	7.01494E+10	1.412679E-5	70787.477008	15.470199	0.449446	0	0
0	0	0	28.946108	6.021695	17.260868	6.021695	6.032346E+10	1.322983E-5	75586.739005	15.391294	0.4474	0	0
0	0	0	28.658414	6.021875	16.85927	6.021875	5.163506E+10	1.243046E-5	80447.540575	15.310169	0.445142	0	0
0	0	0	28.368882	6.022036	16.455142	6.022036	4.415416E+10	1.163981E-5	85912.018477	15.323195	0.442382	0	0
0	0	0	28.07294	6.022169	16.042119	6.022169	3.762646E+10	1.077254E-5	92828.606245	15.292277	0.440164	0	0
0	0	0	27.771892	6.022151	15.62228	6.022151	3.197545E+10	9.044664E-6	110562.429652	15.181214	0.438144	0	0
0	0	0	27.467211	6.022456	15.196711	6.022456	2.711981E+10	9.522167E-6	105018.114115	15.141178	0.435517	0	0
0	0	0	27.153749	6.022497	14.759429	6.022497	2.289261E+10	8.303369E-6	120433.038031	15.141556	0.432995	0	0
0	0	0	26.829629	6.022478	14.307405	6.022478	1.921329E+10	6.861214E-6	145746.812323	15.078255	0.431041	0	0
0	0	0	26.495626	6.022631	13.841236	6.022631	1.603939E+10	6.529911E-6	153141.454652	14.984312	0.428849	0	0
0	0	0	26.145494	6.022817	13.352491	6.022817	1.327355E+10	6.513415E-6	153529.286176	14.980409	0.426262	0	0
0	0	0	25.780578	6.02285	12.843447	6.02285	1.089722E+10	5.55382E-6	180056.245008	14.913999	0.424268	0	0
0	0	0	25.394264	6.022752	12.304843	6.022752	8.84343E+9	4.048578E-6	247000.310343	14.842343	0.422103	0	0
0	0	0	24.995413	6.023097	11.747782	6.023097	7.128241E+9	5.060942E-6	197591.657691	14.793603	0.419779	0	0
0	0	0	24.585781	6.022984	11.176685	6.022984	5.712326E+9	3.439417E-6	290746.949364	14.782746	0.41735	0	0
0	0	0	24.195628	6.02329	10.631821	6.02329	4.626117E+9	4.745556E-6	210723.462227	14.681501	0.415567	0	0
0	0	0	23.818706	6.023243	10.106198	6.023243	3.773346E+9	3.498346E-6	285849.379946	14.604706	0.413243	0	0
0	0	0	23.449829	6.02321	9.591766	6.02321	3.091186E+9	2.681678E-6	372900.819045	14.624057	0.410748	0	0
0	0	0	23.08622	6.02339	9.084191	6.02339	2.539572E+9	3.385458E-6	295381.049924	14.548032	0.40886	0	0
0	0	0	22.731841	6.023138	8.590492	6.023138	2.096827E+9	1.593254E-6	627646.424351	14.464235	0.406708	0	0
0	0	0	22.387547	6.02331	8.109868	6.02331	1.740735E+9	1.874727E-6	533410.928282	14.415438	0.404463	0	0
0	0	0	22.0406	6.023337	7.625883	6.023337	1.443044E+9	1.660987E-6	602051.710999	14.401847	0.402245	0	0
0	0	0	21.684178	6.023377	7.12865	6.023377	1.190152E+9	1.527261E-6	654766.776663	14.306586	0.400503	0	0
0	0	0	21.325755	6.023536	6.628333	6.023536	9.805171E+8	2.325688E-6	429980.327615	14.257483	0.398086	0	0
0	0	0	20.95794	6.023503	6.115381	6.023503	8.037168E+8	1.620357E-6	617148.120068	14.248963	0.395802	0	0
0	0	0	20.582978	6.023383	5.592677	6.023383	6.562557E+8	8.588394E-7	1164362.014091	14.167669	0.393967	0	0
0	0	0	20.192785	6.02345	5.048268	6.02345	5.314558E+8	8.640573E-7	1157330.690681	14.078651	0.39196	0	0
0	0	0	19.786583	6.023496	4.481577	6.023496	4.266807E+8	8.354467E-7	1196964.503329	14.075434	0.389557	0	0
0	0	0	19.36078	6.023569	3.887475	6.023569	3.38951E+8	9.774203E-7	1023101.269199	14.028378	0.387643	0	0
0	0	0	18.908433	6.023523	3.256656	6.023523	2.654234E+8	5.884946E-7	1699250.921684	13.912014	0.38586	0	0
0	0	0	18.439915	6.023443	2.60337	6.023443	2.060369E+8	3.271662E-7	3056550.139406	13.875118	0.383418	0	0
0	0	0	17.96617	6.023589	1.942199	6.023589	1.594863E+8	5.281766E-7	1893306.249514	13.853308	0.381437	0	0
0	0	0	17.498468	6.023503	1.290074	6.023503	1.238571E+8	2.499065E-7	4001496.75475	13.767085	0.379655	0	0
0	0	0	17.040731	6.023675	0.651148	6.023675	9.670696E+7	8.935418E-7	1119141.792778	13.701588	0.377661	0	0
0	0	0	16.589977	6.023761	0.022189	6.023761	7.579384E+7	-8.868053E-7	-1127643.184199	13.713539	0.375338	0	0
0	0	0	16.146818	6.023622	-0.595554	6.023622	5.964765E+7	2.623102E-7	3812280.649475	13.591481	0.373912	0	0
0	0	0	15.708356	6.023509	-1.206813	6.023509	4.706036E+7	9.790712E-8	1.021376E+7	13.529064	0.371733	0	0
0	0	0	15.268872	6.023722	-1.820411	6.023722	3.710885E+7	9.518768E-6	105055.611056	13.520756	0.369634	0	0
0	0	0	14.827388	6.023596	-2.435843	6.023596	2.923008E+7	1.018581E-7	9817576.694729	13.46945	0.367786	0	0
0	0	0	14.385005	6.023914	-3.053807	6.023914	2.301291E+7	-5.374674E-8	-1.860578E+7	13.351225	0.365871	0	0
0	0	0	13.935435	6.023549	-3.679818	6.023549	1.804786E+7	4.61285E-8	2.167857E+7	13.303382	0.363798	0	0
0	0	0	13.486723	6.023629	-4.305923	6.023629	1.416059E+7	6.664908E-8	1.500396E+7	13.261678	0.362042	0	0
0	0	0	13.04189	6.023443	-4.925831	6.023443	1.113391E+7	1.768336E-8	5.655035E+7	13.146926	0.360418	0	0
0	0	0	12.601345	6.023934	-5.541783	6.023934	8774462.5	-1.855541E-8	-5.389263E+7	13.139663	0.35824	0	0
0	0	0	12.153408	6.023702	-6.165877	6.023702	6887446	1.41792E-7	7052581.69329	13.100393	0.356352	0	0
0	0	0	11.714374	6.023874	-6.778781	6.023874	5432327.5	-1.603436E-8	-6.236605E+7	12.989858	0.354926	0	0
0	0	0	11.27436	6.023722	-7.392056	6.023722	4282363.5	1.104713E-6	905212.568849	12.935274	0.352879	0	0
0	0	0	10.837776	6.023755	-8.001117	6.023755	3382100.5	-4.789314E-8	-2.087982E+7	12.926429	0.350714	0	0
0	0	0	10.40503	6.02394	-8.605308	6.02394	2676644	-5.487382E-9	-1.822363E+8	12.835753	0.349288	0	0
0	0	0	9.971509	6.023967	-9.210085	6.023967	2117447.5	-3.868355E-9	-2.585078E+8	12.758331	0.347334	0	0
0	0	0	9.539662	6.024007	-9.81257	6.024007	1676593	-2.632968E-9	-3.797995E+8	12.735798	0.345248	0	0
0	0	0	9.114553	6.023741	-10.404671	6.023741	1332369.5	-3.263884E-8	-3.063835E+7	12.632598	0.343796	0	0
0	0	0	8.690425	6.023973	-10.997015	6.023973	1059380	-1.884092E-9	-5.307597E+8	12.562676	0.341842	0	0
0	0	0	8.274586	6.02394	-11.576936	6.02394	846106.5	-1.734597E-9	-5.765029E+8	12.549011	0.339901	0	0
0	0	0	7.861483	6.024166	-12.153896	6.024166	676769	-6.806222E-10	-1.469244E+9	12.465216	0.338515	0	0
0	0	0	7.45083	6.023953	-12.725987	6.023953	542040	-1.047258E-9	-9.54875E+8	12.377009	0.336706	0	0
0	0	0	7.050223	6.023761	-13.28412	6.023761	436496.5	-5.104132E-9	-1.959197E+8	12.368465	0.334646	0	0
0	0	0	6.654884	6.023867	-13.835911	6.023867	352506	-1.088326E-9	-9.188424E+8	12.246053	0.333299	0	0
0	0	0	6.268366	6.024033	-14.375607	6.024033	286038	-4.107588E-10	-2.434519E+9	12.173524	0.331557	0	0
0	0	0	5.8883	6.024053	-14.905809	6.024053	232913.5	-3.142973E-10	-3.181701E+9	12.177603	0.329536	0	0
0	0	0	5.515829	6.024205	-15.425879	6.024205	190436.5	-1.75723E-10	-5.690774E+9	12.11794	0.327992	0	0
0	0	0	5.147401	6.0239	-15.938715	6.0239	156046.5	-3.916918E-10	-2.553028E+9	11.987076	0.326487	0	0
0	0	0	4.773869	6.0239	-16.459732	6.0239	127514.5	-3.200737E-10	-3.124281E+9	11.982957	0.324427	0	0
0	0	0	4.42051	6.024285	-16.953973	6.024285	105342	-8.343818E-11	-1.198492E+10	11.882764	0.323133	0	0
0	0	0	4.075278	6.0239	-17.434152	6.0239	87408	-2.194025E-10	-4.557834E+9	11.787078	0.321456	0	0
0	0	0	3.740826	6.024	-17.901015	6.024	72951	-1.173088E-10	-8.524511E+9	11.799701	0.319476	0	0
0	0	0	3.41838	6.024126	-18.351231	6.024126	61282	-6.77189E-11	-1.476693E+10	11.69477	0.318129	0	0
0	0	0	3.103163	6.024146	-18.790985	6.024146	51680.5	-5.442098E-11	-1.837527E+10	11.635802	0.316386	0	0
0	0	0	2.793989	6.023794	-19.220953	6.023794	43726.5	-2.732701E-10	-3.659382E+9	11.595073	0.314683	0	0
0	0	0	2.50021	6.023741	-19.630529	6.023741	37305.5	-9.138484E-10	-1.094273E+9	11.499119	0.313376	0	0
0	0	0	2.216314	6.02404	-20.027616	6.02404	31998	-4.498753E-11	-2.222838E+10	11.405454	0.31166	0	0
0	0	0	1.941892	6.024079	-20.41054	6.024079	27586.5	-3.445487E-11	-2.902347E+10	11.413219	0.309798	0	0
0	0	0	1.681559	6.02402	-20.773443	6.02402	23965	-3.595284E-11	-2.781422E+10	11.307149	0.308649	0	0
0	0	0	1.441358	6.024	-21.108411	6.024	21046.5	-3.38438E-11	-2.954751E+10	11.229449	0.306867	0	0
0	0	0	1.227171	6.023927	-21.406896	6.023927	18745.5	-4.09303E-11	-2.443178E+10	11.210093	0.305309	0	0
0	0	0	1.039036	6.024166	-21.670212	6.024166	16933	-1.70294E-11	-5.872197E+10	11.079776	0.304068	0	0
0	0	0	0.874832	6.024166	-21.899252	6.024166	15494.5	-1.558271E-11	-6.417368E+10	11.042128	0.302246	0	0
0	0	0	0.73999	6.023947	-22.086509	6.023947	14405.5	-2.865728E-11	-3.489515E+10	11.005227	0.30082	0	0
0	0	0	0.617439	6.023781	-22.256818	6.023781	13482	-1.035368E-10	-9.658405E+9	10.901032	0.299473	0	0
0	0	0	0.517022	6.023953	-22.397538	6.023953	12769.5	-2.467151E-11	-4.053258E+10	10.857656	0.29777	0	0
0	0	0	0.428611	6.023828	-22.520378	6.023828	12173.5	-5.191136E-11	-1.92636E+10	10.825372	0.296093	0	0
0	0	0	0.352002	6.02402	-22.627969	6.02402	11680	-1.75226E-11	-5.706915E+10	10.675777	0.294865	0	0
0	0	0	0.286459	6.024033	-22.719441	6.024033	11273.5	-1.618907E-11	-6.177009E+10	10.661997	0.293017	0	0
0	0	0	0.2299	6.02392	-22.797901	6.02392	10933.5	-2.467573E-11	-4.052566E+10	10.561873	0.291948	0	0
0	0	0	0.191105	6.024053	-22.85252	6.024053	10707	-1.44482E-11	-6.921278E+10	10.486619	0.290297	0	0
0	0	0	0.144388	6.02392	-22.917176	6.02392	10440	-2.356195E-11	-4.244131E+10	10.481892	0.28862	0	0
0	0	0	0.118702	6.024026	-22.95341	6.024026	10296	-1.51086E-11	-6.618749E+10	10.389107	0.287459	0	0
0	0	0	0.083215	6.023801	-23.002046	6.023801	10100.5	-5.774661E-11	-1.731703E+10	10.336836	0.285795	0	0
0	0	0	0.057121	6.023927	-23.038926	6.023927	9959	-2.174521E-11	-4.598714E+10	10.291216	0.284448	0	0
0	0	0	0.042746	6.023993	-23.05923	6.023993	9882	-1.628079E-11	-6.142207E+10	10.157447	0.283207	0	0
0	0	0	0.020613	6.023953	-23.08995	6.023953	9764	-1.886469E-11	-5.300909E+10	10.103776	0.281596	0	0
0	0	0	-0.001521	6.023887	-23.120568	6.023887	9648	-2.617516E-11	-3.820416E+10	10.066078	0.280052	0	0
0	0	0	-0.013894	6.024046	-23.138438	6.024046	9584	-1.319815E-11	-7.576821E+10	9.936159	0.278943	0	0
0	0	0	-0.021286	6.024046	-23.148748	6.024046	9545.5	-1.314513E-11	-7.60738E+10	9.943059	0.277068	0	0
0	0	0	-0.026186	6.024013	-23.155456	6.024013	9520.5	-1.460941E-11	-6.844903E+10	9.838607	0.27617	0	0
0	0	0	-0.034843	6.02404	-23.167633	6.02404	9476	-1.332276E-11	-7.50595E+10	9.764892	0.27448	0	0
0	0	0	-0.045257	6.024073	-23.182286	6.024073	9422.5	-1.199162E-11	-8.339159E+10	9.751333	0.272909	0	0
0	0	0	-0.055262	6.024086	-23.196292	6.024086	9372	-1.149157E-11	-8.702035E+10	9.607075	0.271813	0	0
0	0	0	-0.064327	6.024225	-23.209472	6.024225	9326	-8.2646E-12	-1.20998E+11	9.579897	0.270163	0	0
0	0	0	-0.073516	6.02394	-23.221193	6.02394	9280	-1.902484E-11	-5.256286E+10	9.488226	0.269054	0	0
0	0	0	-0.078743	6.023887	-23.22828	6.023887	9253.5	-2.510487E-11	-3.98329E+10	9.396156	0.267707	0	0
0	0	0	-0.082091	6.023973	-23.233282	6.023973	9237	-1.642785E-11	-6.087223E+10	9.37386	0.266136	0	0
0	0	0	-0.085358	6.024066	-23.238196	6.024066	9220.5	-1.196134E-11	-8.360269E+10	9.273219	0.265106	0	0
0	0	0	-0.088013	6.024066	-23.241898	6.024066	9207.5	-1.194447E-11	-8.372073E+10	9.220817	0.263627	0	0
0	0	0	-0.089034	6.024099	-23.24345	6.024099	9202	-1.088541E-11	-9.186612E+10	9.171374	0.262254	0	0
0	0	0	-0.089932	6.023894	-23.243913	6.023894	9197.5	-2.398352E-11	-4.169529E+10	9.048825	0.261264	0	0
0	0	0	-0.091075	6.024219	-23.246756	6.024219	9192	-8.254839E-12	-1.211411E+11	9.02042	0.259561	0	0
0	0	0	-0.091402	6.023808	-23.245632	6.023808	9190.5	-4.841962E-11	-2.065278E+10	8.882715	0.258782	0	0
0	0	0	-0.092137	6.024013	-23.247447	6.024013	9187	-1.409765E-11	-7.093382E+10	8.861074	0.257012	0	0
0	0	0	-0.092055	6.024079	-23.247588	6.024079	9187	-1.147434E-11	-8.715097E+10	8.775144	0.255903	0	0
0	0	0	-0.092055	6.02398	-23.247206	6.02398	9187	-1.591717E-11	-6.282524E+10	8.684899	0.254794	0	0
0	0	0	-0.09324	6.023867	-23.248425	6.023867	9181.5	-2.834692E-11	-3.527721E+10	8.676389	0.253276	0	0
0	0	0	-0.092913	6.024126	-23.248963	6.024126	9183	-1.014756E-11	-9.854588E+10	8.580593	0.252299	0	0
0	0	0	-0.092546	6.024	-23.247966	6.024	9185	-1.476993E-11	-6.770513E+10	8.551969	0.250649	0	0
0	0	0	-0.093321	6.024073	-23.249329	6.024073	9181	-1.168427E-11	-8.558515E+10	8.455255	0.249817	0	0
0	0	0	-0.092831	6.024013	-23.248416	6.024013	9183.5	-1.409228E-11	-7.096085E+10	8.382142	0.248364	0	0
0	0	0	-0.092791	6.024159	-23.248919	6.024159	9183.5	-9.376273E-12	-1.066522E+11	8.326826	0.247123	0	0
0	0	0	-0.093321	6.02406	-23.249278	6.02406	9181	-1.214482E-11	-8.23396E+10	8.19142	0.24616	0	0
0	0	0	-0.093199	6.023914	-23.248546	6.023914	9181.5	-2.144266E-11	-4.663601E+10	8.176194	0.244536	0	0
0	0	0	-0.093771	6.024013	-23.249726	6.024013	9178.5	-1.40846E-11	-7.099951E+10	8.055639	0.243611	0	0
0	0	0	-0.093036	6.024099	-23.249032	6.024099	9182.5	-1.086234E-11	-9.206121E+10	8.029106	0.242093	0	0
0	0	0	-0.092913	6.023881	-23.24802	6.023881	9183	-2.596304E-11	-3.851629E+10	7.922034	0.241327	0	0
0	0	0	-0.093485	6.023907	-23.24892	6.023907	9180	-2.221201E-11	-4.502068E+10	7.852181	0.239941	0	0
0	0	0	-0.093362	6.024139	-23.24964	6.024139	9180.5	-9.821403E-12	-1.018184E+11	7.809948	0.238594	0	0
0	0	0	-0.09373	6.023867	-23.249108	6.023867	9179	-2.83392E-11	-3.528682E+10	7.723896	0.237657	0	0
0	0	0	-0.093526	6.024126	-23.249817	6.024126	9180	-1.014424E-11	-9.857809E+10	7.68521	0.236257	0	0
0	0	0	-0.093811	6.023927	-23.249452	6.023927	9178.5	-2.004101E-11	-4.989769E+10	7.586607	0.235412	0	0
0	0	0	-0.093362	6.023993	-23.24908	6.023993	9180.5	-1.512506E-11	-6.611545E+10	7.548777	0.234039	0	0
0	0	0	-0.094465	6.02406	-23.250873	6.02406	9175.5	-1.213755E-11	-8.238896E+10	7.461527	0.233009	0	0
0	0	0	-0.094669	6.023993	-23.250903	6.023993	9174	-1.511435E-11	-6.61623E+10	7.384755	0.231715	0	0
0	0	0	-0.094424	6.023987	-23.250535	6.023987	9175.5	-1.549721E-11	-6.452773E+10	7.302894	0.230699	0	0
0	0	0	-0.095118	6.02406	-23.251784	6.02406	9172	-1.213292E-11	-8.24204E+10	7.22593	0.229511	0	0
0	0	0	-0.095567	6.023907	-23.251825	6.023907	9170	-2.218782E-11	-4.506978E+10	7.162604	0.228441	0	0
0	0	0	-0.095608	6.02396	-23.252085	6.02396	9169.5	-1.722038E-11	-5.807072E+10	7.067475	0.227358	0	0
0	0	0	-0.09667	6.02406	-23.253948	6.02406	9164	-1.212234E-11	-8.249235E+10	7.017776	0.226144	0	0
0	0	0	-0.096793	6.024252	-23.254858	6.024252	9163.5	-7.71324E-12	-1.296472E+11	6.895047	0.225154	0	0
0	0	0	-0.097487	6.024318	-23.256081	6.024318	9160.5	-6.851487E-12	-1.459537E+11	6.873225	0.22386	0	0
0	0	0	-0.098916	6.02396	-23.256699	6.02396	9153.5	-1.719034E-11	-5.817222E+10	6.767138	0.223054	0	0
0	0	0	-0.098753	6.02392	-23.256318	6.02392	9154	-2.065959E-11	-4.840368E+10	6.721648	0.221615	0	0
0	0	0	-0.099284	6.023947	-23.257161	6.023947	9151.5	-1.820535E-11	-5.492892E+10	6.602819	0.22081	0	0
0	0	0	-0.099406	6.024053	-23.257739	6.024053	9150.5	-1.234783E-11	-8.098587E+10	6.551945	0.219542	0	0
0	0	0	-0.100304	6.024119	-23.259247	6.024119	9146.5	-1.027641E-11	-9.731025E+10	6.441479	0.218737	0	0
0	0	0	-0.10153	6.024099	-23.26088	6.024099	9140.5	-1.081265E-11	-9.248423E+10	6.420195	0.217311	0	0
0	0	0	-0.10157	6.024007	-23.26058	6.024007	9140	-1.435368E-11	-6.966852E+10	6.296844	0.216558	0	0
0	0	0	-0.102673	6.024	-23.262092	6.024	9134.5	-1.468872E-11	-6.807944E+10	6.267598	0.215185	0	0
0	0	0	-0.100549	6.024113	-23.259564	6.024113	9145	-1.044964E-11	-9.569704E+10	6.139188	0.214565	0	0
0	0	0	-0.101244	6.024106	-23.260506	6.024106	9141.5	-1.062655E-11	-9.41039E+10	6.121374	0.213073	0	0
0	0	0	-0.104715	6.023993	-23.264915	6.023993	9124.5	-1.50328E-11	-6.652123E+10	5.979309	0.212452	0	0
0	0	0	-0.104306	6.02406	-23.2646	6.02406	9126.5	-1.207273E-11	-8.28313E+10	5.985016	0.211	0	0
0	0	0	-0.104388	6.024238	-23.265402	6.024238	9126.5	-7.879732E-12	-1.269079E+11	5.849048	0.210327	0	0
0	0	0	-0.10398	6.024073	-23.264195	6.024073	9128.5	-1.161746E-11	-8.607737E+10	5.824695	0.208927	0	0
0	0	0	-0.10447	6.024159	-23.26521	6.024159	9125.5	-9.317055E-12	-1.0733E+11	5.734945	0.208161	0	0
0	0	0	-0.103939	6.023993	-23.263833	6.023993	9128.5	-1.503939E-11	-6.649208E+10	5.682144	0.207052	0	0
0	0	0	-0.103531	6.023987	-23.263238	6.023987	9130.5	-1.542121E-11	-6.484576E+10	5.58637	0.20626	0	0
0	0	0	-0.103776	6.023967	-23.263503	6.023967	9129	-1.667768E-11	-5.996036E+10	5.541917	0.205151	0	0
0	0	0	-0.103531	6.024079	-23.263594	6.024079	9130.5	-1.140377E-11	-8.769027E+10	5.45565	0.204187	0	0
0	0	0	-0.102346	6.024152	-23.262223	6.024152	9136.5	-9.472375E-12	-1.055701E+11	5.383357	0.203078	0	0
0	0	0	-0.103204	6.02402	-23.262909	6.02402	9132	-1.370003E-11	-7.299252E+10	5.309856	0.202101	0	0
0	0	0	-0.101979	6.024093	-23.261481	6.024093	9138	-1.100363E-11	-9.087912E+10	5.221124	0.201256	0	0
0	0	0	-0.101203	6.023768	-23.25915	6.023768	9142	-9.104016E-11	-1.098416E+10	5.182753	0.199962	0	0
0	0	0	-0.100468	6.024245	-23.259959	6.024245	9145.5	-7.795855E-12	-1.282733E+11	5.09149	0.199302	0	0
0	0	0	-0.100223	6.024172	-23.259337	6.024172	9147	-9.063276E-12	-1.103354E+11	5.050911	0.198035	0	0
0	0	0	-0.100876	6.023993	-23.259561	6.023993	9143.5	-1.50641E-11	-6.6383E+10	4.937783	0.197401	0	0
0	0	0	-0.100713	6.024093	-23.259715	6.024093	9144	-1.101085E-11	-9.081949E+10	4.892389	0.196173	0	0
0	0	0	-0.1001	6.024199	-23.259268	6.024199	9147.5	-8.558403E-12	-1.168442E+11	4.788218	0.195302	0	0
0	0	0	-0.100059	6.02392	-23.258141	6.02392	9147.5	-2.064492E-11	-4.843807E+10	4.702412	0.194509	0	0
0	0	0	-0.099733	6.023947	-23.257787	6.023947	9149	-1.820037E-11	-5.494393E+10	4.620162	0.193387	0	0
0	0	0	-0.098099	6.02392	-23.255407	6.02392	9157	-2.066636E-11	-4.838782E+10	4.509226	0.192767	0	0
0	0	0	-0.097895	6.023987	-23.255377	6.023987	9158.5	-1.54685E-11	-6.464751E+10	4.460694	0.191618	0	0
0	0	0	-0.097773	6.02392	-23.254951	6.02392	9159	-2.067087E-11	-4.837725E+10	4.348841	0.190905	0	0
0	0	0	-0.098018	6.024026	-23.255701	6.024026	9157.5	-1.343793E-11	-7.441621E+10	4.316354	0.189849	0	0
0	0	0	-0.097854	6.02394	-23.255142	6.02394	9158.5	-1.877575E-11	-5.326018E+10	4.237267	0.188872	0	0
0	0	0	-0.098712	6.024093	-23.256924	6.024093	9154	-1.102289E-11	-9.072027E+10	4.16543	0.18808	0	0
0	0	0	-0.098875	6.024119	-23.257254	6.024119	9153.5	-1.028427E-11	-9.723583E+10	4.112836	0.187129	0	0
0	0	0	-0.097895	6.024007	-23.255453	6.024007	9158.5	-1.438274E-11	-6.95278E+10	4.030799	0.186271	0	0
0	0	0	-0.098181	6.02404	-23.25598	6.02404	9157	-1.287427E-11	-7.767433E+10	3.939852	0.185624	0	0
0	0	0	-0.098508	6.023947	-23.256079	6.023947	9155	-1.821231E-11	-5.490792E+10	3.868756	0.184515	0	0
0	0	0	-0.09863	6.024007	-23.256479	6.024007	9154.5	-1.437646E-11	-6.955818E+10	3.787267	0.18363	0	0
0	0	0	-0.099733	6.023987	-23.25794	6.023987	9149	-1.545245E-11	-6.471464E+10	3.688204	0.182838	0	0
0	0	0	-0.100631	6.023907	-23.258888	6.023907	9145	-2.212733E-11	-4.519299E+10	3.645622	0.181967	0	0
0	0	0	-0.101448	6.023874	-23.259899	6.023874	9140.5	-2.697933E-11	-3.706541E+10	3.547275	0.181174	0	0
0	0	0	-0.10104	6.024119	-23.260273	6.024119	9142.5	-1.027192E-11	-9.735282E+10	3.48634	0.180224	0	0
0	0	0	-0.102183	6.023881	-23.26095	6.023881	9137	-2.583299E-11	-3.87102E+10	3.388457	0.179564	0	0
0	0	0	-0.102305	6.02396	-23.261427	6.02396	9136.5	-1.715841E-11	-5.828046E+10	3.329413	0.178626	0	0
0	0	0	-0.103653	6.024219	-23.2643	6.024219	9130	-8.199161E-12	-1.219637E+11	3.241943	0.17786	0	0
0	0	0	-0.105205	6.024086	-23.265955	6.024086	9122	-1.118503E-11	-8.940525E+10	3.197144	0.176923	0	0
0	0	0	-0.10545	6.024	-23.265966	6.024	9121	-1.466701E-11	-6.81802E+10	3.141923	0.176091	0	0
0	0	0	-0.105532	6.023927	-23.265799	6.023927	9120.5	-1.991437E-11	-5.0215E+10	3.080441	0.175444	0	0
0	0	0	-0.106838	6.024053	-23.268106	6.024053	9114	-1.229858E-11	-8.13102E+10	3.009301	0.17456	0	0
0	0	0	-0.106471	6.024179	-23.268078	6.024179	9116	-8.901158E-12	-1.123449E+11	2.966287	0.173715	0	0
0	0	0	-0.106267	6.024179	-23.267793	6.024179	9117	-8.902134E-12	-1.123326E+11	2.938476	0.17287	0	0
0	0	0	-0.106634	6.023967	-23.26749	6.023967	9115	-1.665211E-11	-6.005246E+10	2.902952	0.172117	0	0
0	0	0	-0.107492	6.024139	-23.269349	6.024139	9111	-9.747051E-12	-1.025951E+11	2.862195	0.171325	0	0
0	0	0	-0.107614	6.024053	-23.269188	6.024053	9110.5	-1.229386E-11	-8.134144E+10	2.827654	0.170467	0	0
0	0	0	-0.109738	6.024139	-23.272482	6.024139	9100	-9.735283E-12	-1.027191E+11	2.820498	0.169727	0	0
0	0	0	-0.107737	6.023927	-23.268875	6.023927	9110	-1.989144E-11	-5.027288E+10	2.761325	0.168896	0	0
0	0	0	-0.108023	6.024159	-23.270166	6.024159	9108.5	-9.299699E-12	-1.075304E+11	2.751632	0.168037	0	0
0	0	0	-0.108431	6.02406	-23.270353	6.02406	9106.5	-1.204627E-11	-8.301322E+10	2.690419	0.167364	0	0
0	0	0	-0.107941	6.024	-23.26944	6.024	9108.5	-1.464691E-11	-6.827377E+10	2.6923	0.166493	0	0
0	0	0	-0.108594	6.023947	-23.270148	6.023947	9105.5	-1.811384E-11	-5.520642E+10	2.629553	0.165872	0	0
0	0	0	-0.107941	6.024	-23.26944	6.024	9108.5	-1.464691E-11	-6.827377E+10	2.613888	0.165027	0	0
0	0	0	-0.107982	6.024265	-23.270517	6.024265	9108.5	-7.479351E-12	-1.337014E+11	2.569946	0.164327	0	0
0	0	0	-0.107778	6.024013	-23.269263	6.024013	9109.5	-1.397872E-11	-7.15373E+10	2.5388	0.163562	0	0
0	0	0	-0.105409	6.024046	-23.266087	6.024046	9121.5	-1.256124E-11	-7.960999E+10	2.515653	0.162756	0	0
0	0	0	-0.105736	6.023927	-23.266084	6.023927	9119.5	-1.991218E-11	-5.022051E+10	2.478765	0.16203	0	0
0	0	0	-0.105246	6.02406	-23.26591	6.02406	9122	-1.206678E-11	-8.287217E+10	2.463408	0.161304	0	0
0	0	0	-0.104388	6.023927	-23.264204	6.023927	9126.5	-1.992747E-11	-5.018199E+10	2.395378	0.160604	0	0
0	0	0	-0.104674	6.024	-23.264883	6.024	9125	-1.467345E-11	-6.815031E+10	2.391565	0.159799	0	0
0	0	0	-0.104511	6.023728	-23.263611	6.023728	9125.5	-8.277071E-10	-1.208157E+9	2.3391	0.159165	0	0
0	0	0	-0.103	6.024086	-23.262879	6.024086	9133	-1.119851E-11	-8.929757E+10	2.332599	0.158307	0	0
0	0	0	-0.101897	6.024026	-23.261112	6.024026	9138.5	-1.341005E-11	-7.457093E+10	2.291265	0.15762	0	0
0	0	0	-0.101938	6.023967	-23.26094	6.023967	9138.5	-1.669504E-11	-5.989803E+10	2.267062	0.156868	0	0
0	0	0	-0.100427	6.024139	-23.259495	6.024139	9145.5	-9.78396E-12	-1.022081E+11	2.240229	0.156141	0	0
0	0	0	-0.10104	6.024099	-23.260196	6.024099	9142.5	-1.081502E-11	-9.246399E+10	2.190805	0.155508	0	0
0	0	0	-0.100019	6.024086	-23.258721	6.024086	9147.5	-1.121629E-11	-8.915602E+10	2.176048	0.154716	0	0
0	0	0	-0.100223	6.023967	-23.258547	6.023967	9147	-1.671057E-11	-5.984237E+10	2.134984	0.154029	0	0
0	0	0	-0.100713	6.024106	-23.259766	6.024106	9144	-1.062946E-11	-9.407817E+10	2.107335	0.15329	0	0
0	0	0	-0.099284	6.02402	-23.257441	6.02402	9151.5	-1.372929E-11	-7.283699E+10	2.051883	0.152669	0	0
0	0	0	-0.101121	6.024033	-23.260055	6.024033	9142.5	-1.312889E-11	-7.616791E+10	2.050891	0.151864	0	0
0	0	0	-0.101366	6.024159	-23.260881	6.024159	9141	-9.332881E-12	-1.071481E+11	2.008044	0.151217	0	0
0	0	0	-0.100141	6.023861	-23.258026	6.023861	9147	-2.960204E-11	-3.378146E+10	1.994335	0.150491	0	0
0	0	0	-0.100141	6.024053	-23.258765	6.024053	9147	-1.234311E-11	-8.101686E+10	1.935263	0.149751	0	0
0	0	0	-0.101407	6.023973	-23.260225	6.023973	9141	-1.625712E-11	-6.151152E+10	1.937602	0.149038	0	0
0	0	0	-0.102101	6.02404	-23.261448	6.02404	9137.5	-1.284685E-11	-7.784009E+10	1.860135	0.148484	0	0
0	0	0	-0.101489	6.023934	-23.260186	6.023934	9140.5	-1.932924E-11	-5.17351E+10	1.838961	0.147731	0	0
0	0	0	-0.10255	6.023735	-23.260902	6.023735	9135.5	-3.523991E-10	-2.837692E+9	1.824642	0.147084	0	0
0	0	0	-0.102591	6.02394	-23.261749	6.02394	9135	-1.872758E-11	-5.339719E+10	1.798987	0.146371	0	0
0	0	0	-0.103531	6.024132	-23.263798	6.024132	9130.5	-9.926123E-12	-1.007443E+11	1.776269	0.145685	0	0
0	0	0	-0.105491	6.024132	-23.266532	6.024132	9120.5	-9.915251E-12	-1.008547E+11	1.747281	0.145183	0	0
0	0	0	-0.104878	6.023967	-23.265041	6.023967	9123.5	-1.666764E-11	-5.999651E+10	1.730378	0.144562	0	0
0	0	0	-0.106348	6.024172	-23.267881	6.024172	9116.5	-9.033055E-12	-1.107045E+11	1.670987	0.143836	0	0
0	0	0	-0.106838	6.024013	-23.267953	6.024013	9114	-1.398563E-11	-7.150198E+10	1.682481	0.143123	0	0
0	0	0	-0.107369	6.024	-23.268643	6.024	9111.5	-1.465174E-11	-6.825129E+10	1.608602	0.142503	0	0
0	0	0	-0.109779	6.024007	-23.272029	6.024007	9099.5	-1.429008E-11	-6.99786E+10	1.636171	0.141631	0	0
0	0	0	-0.109615	6.024073	-23.272056	6.024073	9100.5	-1.158182E-11	-8.634221E+10	1.587044	0.141249	0	0
0	0	0	-0.109738	6.023987	-23.271896	6.023987	9100	-1.536969E-11	-6.50631E+10	1.574064	0.140496	0	0
0	0	0	-0.110228	6.024033	-23.272757	6.024033	9097.5	-1.306427E-11	-7.654467E+10	1.543749	0.139836	0	0
0	0	0	-0.109779	6.023867	-23.271494	6.023867	9099.5	-2.809375E-11	-3.559511E+10	1.490555	0.139268	0	0
0	0	0	-0.109779	6.023987	-23.271953	6.023987	9099.5	-1.536885E-11	-6.506668E+10	1.501677	0.138727	0	0
0	0	0	-0.110309	6.024159	-23.273356	6.024159	9097	-9.287957E-12	-1.076663E+11	1.445043	0.13808	0	0
0	0	0	-0.110799	6.02398	-23.273351	6.02398	9094.5	-1.575691E-11	-6.346424E+10	1.449985	0.137248	0	0
0	0	0	-0.111167	6.024007	-23.273966	6.024007	9092.5	-1.427909E-11	-7.003248E+10	1.418415	0.136746	0	0
0	0	0	-0.112678	6.024238	-23.276965	6.024238	9085.5	-7.844333E-12	-1.274806E+11	1.384862	0.136231	0	0
0	0	0	-0.11325	6.024119	-23.277304	6.024119	9082.5	-1.02045E-11	-9.799594E+10	1.361807	0.135584	0	0
0	0	0	-0.112882	6.024093	-23.276689	6.024093	9084.5	-1.093921E-11	-9.141432E+10	1.347769	0.134924	0	0
0	0	0	-0.112229	6.024073	-23.275701	6.024073	9087.5	-1.156528E-11	-8.646573E+10	1.321671	0.134343	0	0
0	0	0	-0.109901	6.024139	-23.27271	6.024139	9099	-9.734213E-12	-1.027304E+11	1.312207	0.133762	0	0
0	0	0	-0.109697	6.023973	-23.271788	6.023973	9100	-1.61842E-11	-6.178866E+10	1.300567	0.133023	0	0
0	0	0	-0.109738	6.024	-23.271947	6.024	9100	-1.463325E-11	-6.833754E+10	1.254302	0.132508	0	0
0	0	0	-0.110309	6.024046	-23.272922	6.024046	9097	-1.25275E-11	-7.982439E+10	1.243353	0.131848	0	0
0	0	0	-0.108431	6.023967	-23.269996	6.023967	9106.5	-1.663658E-11	-6.010851E+10	1.19372	0.131241	0	0
0	0	0	-0.108186	6.024033	-23.269909	6.024033	9107.5	-1.307863E-11	-7.646062E+10	1.206259	0.130699	0	0
0	0	0	-0.107042	6.024205	-23.268977	6.024205	9113	-8.408912E-12	-1.189215E+11	1.162341	0.130026	0	0
0	0	0	-0.106144	6.02392	-23.266628	6.02392	9117.5	-2.057721E-11	-4.859745E+10	1.174526	0.129313	0	0
0	0	0	-0.105327	6.023861	-23.26526	6.023861	9121.5	-2.951952E-11	-3.38759E+10	1.116838	0.128798	0	0
0	0	0	-0.104878	6.023993	-23.265143	6.023993	9123.5	-1.503115E-11	-6.652852E+10	1.11994	0.128178	0	0
0	0	0	-0.104429	6.024119	-23.265	6.024119	9126	-1.025338E-11	-9.752884E+10	1.084916	0.127702	0	0
0	0	0	-0.103449	6.024079	-23.26348	6.024079	9130.5	-1.140377E-11	-8.769027E+10	1.068482	0.127055	0	0
0	0	0	-0.103163	6.023934	-23.262521	6.023934	9132	-1.931126E-11	-5.178325E+10	1.054322	0.126356	0	0
0	0	0	-0.101448	6.023993	-23.260358	6.023993	9140.5	-1.505916E-11	-6.640478E+10	1.052012	0.125907	0	0
0	0	0	-0.10153	6.023854	-23.259937	6.023854	9140.5	-3.107954E-11	-3.217551E+10	1.02674	0.125326	0	0
0	0	0	-0.100835	6.024066	-23.259784	6.024066	9143.5	-1.186145E-11	-8.430673E+10	0.986207	0.124639	0	0
0	0	0	-0.102101	6.024086	-23.261626	6.024086	9137.5	-1.120403E-11	-8.925359E+10	0.992551	0.124085	0	0
0	0	0	-0.101611	6.024046	-23.26079	6.024046	9140	-1.258671E-11	-7.944885E+10	0.967645	0.123649	0	0
0	0	0	-0.101897	6.023993	-23.260985	6.023993	9138.5	-1.505586E-11	-6.641932E+10	0.969874	0.123094	0	0
0	0	0	-0.102265	6.02396	-23.26137	6.02396	9136.5	-1.715841E-11	-5.828046E+10	0.91238	0.122606	0	0
0	0	0	-0.102346	6.024219	-23.262478	6.024219	9136.5	-8.204998E-12	-1.218769E+11	0.933584	0.121946	0	0
0	0	0	-0.101407	6.024007	-23.260352	6.024007	9141	-1.435525E-11	-6.96609E+10	0.893282	0.12155	0	0
0	0	0	-0.101897	6.023688	-23.259813	6.023688	9138.5	1.166114E-10	8.575493E+9	0.883409	0.120903	0	0
0	0	0	-0.103163	6.023841	-23.262164	6.023841	9132	-3.455127E-11	-2.89425E+10	0.855505	0.120441	0	0
0	0	0	-0.102959	6.024139	-23.263026	6.024139	9133.5	-9.771122E-12	-1.023424E+11	0.846717	0.119899	0	0
0	0	0	-0.103408	6.023967	-23.26299	6.023967	9131	-1.668134E-11	-5.994723E+10	0.835508	0.119398	0	0
0	0	0	-0.103857	6.023934	-23.263489	6.023934	9129	-1.930492E-11	-5.180027E+10	0.824508	0.118856	0	0
0	0	0	-0.10447	6.02402	-23.264675	6.02402	9125.5	-1.369028E-11	-7.304451E+10	0.79504	0.118236	0	0
0	0	0	-0.106471	6.024245	-23.268333	6.024245	9116	-7.770708E-12	-1.286884E+11	0.793457	0.117826	0	0
0	0	0	-0.107042	6.023914	-23.267856	6.023914	9113	-2.128268E-11	-4.698656E+10	0.788893	0.117232	0	0
0	0	0	-0.107941	6.023987	-23.269389	6.023987	9108.5	-1.538405E-11	-6.500238E+10	0.768159	0.116797	0	0
0	0	0	-0.107941	6.024106	-23.269848	6.024106	9108.5	-1.058819E-11	-9.444483E+10	0.776957	0.116097	0	0
0	0	0	-0.109574	6.024212	-23.272534	6.024212	9100.5	-8.283499E-12	-1.207219E+11	0.731367	0.115806	0	0
0	0	0	-0.109819	6.024119	-23.272519	6.024119	9099.5	-1.02236E-11	-9.781286E+10	0.719925	0.115199	0	0
0	0	0	-0.11084	6.024212	-23.2743	6.024212	9094.5	-8.278038E-12	-1.208016E+11	0.718443	0.11471	0	0
0	0	0	-0.111167	6.024066	-23.274195	6.024066	9092.5	-1.179529E-11	-8.477961E+10	0.695614	0.114156	0	0
0	0	0	-0.112025	6.024033	-23.275264	6.024033	9088.5	-1.305134E-11	-7.662047E+10	0.688172	0.113562	0	0
0	0	0	-0.113086	6.024225	-23.277484	6.024225	9083.5	-8.049699E-12	-1.242283E+11	0.650738	0.113179	0	0
0	0	0	-0.11276	6.024073	-23.276442	6.024073	9085	-1.156209E-11	-8.648952E+10	0.680262	0.112664	0	0
0	0	0	-0.112433	6.024066	-23.275961	6.024066	9086.5	-1.178751E-11	-8.483559E+10	0.627261	0.112242	0	0
0	0	0	-0.112923	6.024053	-23.276593	6.024053	9084	-1.22581E-11	-8.157873E+10	0.666213	0.111661	0	0
0	0	0	-0.113209	6.024106	-23.277196	6.024106	9082.5	-1.055797E-11	-9.47152E+10	0.612309	0.111291	0	0
0	0	0	-0.113658	6.024245	-23.278358	6.024245	9080.5	-7.740447E-12	-1.291915E+11	0.614999	0.110776	0	0
0	0	0	-0.113127	6.024073	-23.276955	6.024073	9083	-1.155955E-11	-8.650856E+10	0.586179	0.110248	0	0
0	0	0	-0.113372	6.024384	-23.278494	6.024384	9082	-6.111726E-12	-1.636199E+11	0.591424	0.109654	0	0
0	0	0	-0.11325	6.02406	-23.277075	6.02406	9082.5	-1.201453E-11	-8.323258E+10	0.56317	0.10939	0	0
0	0	0	-0.112433	6.024053	-23.27591	6.024053	9086.5	-1.226147E-11	-8.155629E+10	0.557053	0.108782	0	0
0	0	0	-0.112678	6.023828	-23.275385	6.023828	9085.5	-3.874323E-11	-2.581096E+10	0.578194	0.108241	0	0
0	0	0	-0.111657	6.024066	-23.274879	6.024066	9090.5	-1.179269E-11	-8.479826E+10	0.534691	0.107726	0	0
0	0	0	-0.11129	6.024298	-23.275258	6.024298	9092	-7.035447E-12	-1.421374E+11	0.545397	0.107436	0	0
0	0	0	-0.10937	6.024099	-23.271816	6.024099	9101.5	-1.076652E-11	-9.288052E+10	0.515228	0.106947	0	0
0	0	0	-0.109901	6.024093	-23.272531	6.024093	9099	-1.095667E-11	-9.126864E+10	0.511402	0.106274	0	0
0	0	0	-0.108553	6.02406	-23.270524	6.02406	9105.5	-1.204495E-11	-8.302234E+10	0.498169	0.106076	0	0
0	0	0	-0.107165	6.023887	-23.267925	6.023887	9112.5	-2.472234E-11	-4.044925E+10	0.475032	0.105455	0	0
0	0	0	-0.108023	6.024066	-23.269809	6.024066	9108.5	-1.181605E-11	-8.463068E+10	0.488436	0.105072	0	0
0	0	0	-0.106348	6.024053	-23.267423	6.024053	9116.5	-1.230195E-11	-8.128791E+10	0.50035	0.104544	0	0
0	0	0	-0.105695	6.024185	-23.267021	6.024185	9120	-8.777374E-12	-1.139293E+11	0.456839	0.104135	0	0
0	0	0	-0.105491	6.024179	-23.266711	6.024179	9120.5	-8.905552E-12	-1.122895E+11	0.446186	0.103831	0	0
0	0	0	-0.103694	6.02402	-23.263593	6.02402	9129.5	-1.369628E-11	-7.301251E+10	0.434143	0.103263	0	0
0	0	0	-0.105287	6.023934	-23.265483	6.023934	9122	-1.929012E-11	-5.184002E+10	0.465245	0.102762	0	0
0	0	0	-0.10398	6.024099	-23.264297	6.024099	9128.5	-1.079846E-11	-9.26058E+10	0	0	0	0
0	0	0	-0.10255	6.0239	-23.261539	6.0239	9135.5	-2.293098E-11	-4.360912E+10	0	0	0	0
0	0	0	-0.10349	6.02402	-23.263308	6.02402	9130.5	-1.369778E-11	-7.300451E+10	0	0	0	0
0	0	0	-0.10349	6.024185	-23.263945	6.024185	9130.5	-8.78748E-12	-1.137983E+11	0	0	0	0
0	0	0	-0.103531	6.024079	-23.263594	6.024079	9130.5	-1.140377E-11	-8.769027E+10	0	0	0	0
0	0	0	-0.10251	6.024073	-23.262145	6.024073	9135.5	-1.162636E-11	-8.601142E+10	0	0	0	0
0	0	0	-0.103	6.02398	-23.262472	6.02398	9133	-1.582361E-11	-6.319671E+10	0	0	0	0
0	0	0	-0.102836	6.024033	-23.262448	6.024033	9134	-1.311668E-11	-7.623879E+10	0	0	0	0
0	0	0	-0.103081	6.023973	-23.26256	6.023973	9132.5	-1.6242E-11	-6.156877E+10	0	0	0	0
0	0	0	-0.103326	6.024007	-23.263029	6.024007	9131.5	-1.434034E-11	-6.973338E+10	0	0	0	0
0	0	0	-0.105572	6.024252	-23.267105	6.024252	9120.5	-7.677046E-12	-1.302584E+11	0	0	0	0
0	0	0	-0.105817	6.024305	-23.26765	6.024305	9119	-6.975917E-12	-1.433503E+11	0	0	0	0
0	0	0	-0.104756	6.023761	-23.26408	6.023761	9124.5	-1.066962E-10	-9.372406E+9	0	0	0	0
0	0	0	-0.105613	6.02404	-23.266346	6.02404	9120	-1.282225E-11	-7.798945E+10	0	0	0	0
0	0	0	-0.107492	6.023834	-23.268177	6.023834	9111	-3.653106E-11	-2.737396E+10	0	0	0	0
0	0	0	-0.106716	6.024245	-23.268674	6.024245	9115	-7.769856E-12	-1.287025E+11	0	0	0	0
0	0	0	-0.108921	6.023821	-23.270119	6.023821	9104	-4.145591E-11	-2.412201E+10	0	0	0	0
0	0	0	-0.109125	6.024026	-23.271194	6.024026	9102.5	-1.335722E-11	-7.486585E+10	0	0	0	0
0	0	0	-0.109534	6.023768	-23.27077	6.023768	9100.5	-9.062689E-11	-1.103425E+10	0	0	0	0
0	0	0	-0.111739	6.024106	-23.275145	6.024106	9090	-1.056669E-11	-9.463705E+10	0	0	0	0
0	0	0	-0.112351	6.02406	-23.275821	6.02406	9087	-1.202048E-11	-8.319136E+10	0	0	0	0
0	0	0	-0.112596	0	-0.112596	0	9085.5	0	0	0	0	0	0
0	0	0	-0.11325	0	-0.11325	0	9082.5	0	0	0	0	0	0
