Vload_(V)	ILoad_(A)	RsLoad (ohm)	SunsVoc_Voltage_(V)	SunsVoc_Current_(A)	Model_Voltage_(V)	Model_Current_(A)	Carrier_Density_(cm-3)	Lifetime_(s)	Inverse_Lifetime_(s-1)	Efficiency_(%)	Intensity_(suns)	Dark_IV_Voltage_(V)	Dark_IV_Current_(A)
2.926009	6.386687	0	65.029482	-0.828246	65.266535	-0.828246	3.851112E+15	0.000224	4438.322013	19.55909	1.112207	0	0
2.926	6.388363	-0.48208	64.968309	-0.565879	65.132102	-0.565879	3.795653E+15	0.000229	4339.57101	19.546053	1.111613	0	0
7.052272	6.367512	6.403545	64.827382	-0.158343	64.874395	-0.158343	3.670553E+15	0.000235	4225.348498	19.646547	1.112088	0	0
12.088621	6.351125	6.045553	64.655011	0.273768	64.57123	0.273768	3.522465E+15	0.000242	4113.465064	19.496955	1.112167	0	0
16.79282	6.351077	5.305715	64.483497	0.676478	64.270334	0.676478	3.380325E+15	0.000249	4005.129989	19.668069	1.111019	0	0
21.62391	6.343048	4.659157	64.307655	1.064455	63.96233	1.064455	3.239814E+15	0.000256	3895.927529	19.518946	1.111375	0	0
26.778443	6.262004	4.400411	64.127484	1.425741	63.651357	1.425741	3.101134E+15	0.000262	3794.860573	19.617441	1.10884	0	0
31.669502	6.259365	3.630576	63.95499	1.750787	63.354331	1.750787	2.973213E+15	0.000269	3699.678367	19.608108	1.108325	0	0
36.555922	6.251006	2.881994	63.777473	2.062698	63.050424	2.062698	2.846349E+15	0.000276	3605.408334	19.519277	1.106662	0	0
41.102371	6.315914	1.836145	63.602611	2.356588	62.750163	2.356588	2.725967E+15	0.000284	3509.508941	19.648436	1.104958	0	0
45.928471	6.290518	1.219557	63.430771	2.614462	62.461263	2.614462	2.61195E+15	0.000291	3429.066557	19.454736	1.104958	0	0
47.345329	6.274132	1.068275	63.265178	2.850909	62.183005	2.850909	2.505965E+15	0.000298	3350.703541	19.616109	1.102265	0	0
48.748345	6.24509	0.951508	63.097381	3.070398	61.904623	3.070398	2.402335E+15	0.000304	3278.889408	19.47626	1.102859	0	0
50.1927	6.202428	0.843195	62.936362	3.271287	61.637687	3.271287	2.306345E+15	0.000311	3209.010668	19.513234	1.100522	0	0
51.614671	6.132946	0.763911	62.774078	3.466743	61.368031	3.466743	2.212915E+15	0.000318	3135.163018	19.551684	1.100601	0	0
53.034839	6.023565	0.703339	62.608608	3.651724	61.095555	3.651724	2.120973E+15	0.000326	3064.321151	19.4276	1.100483	0	0
54.422351	5.870013	0.646646	62.441423	3.825357	60.822579	3.825357	2.031376E+15	0.000333	2996.805338	19.590717	1.099532	0	0
55.831283	5.64124	0.5953	62.276688	3.982225	60.556739	3.982225	1.946235E+15	0.00034	2936.762125	19.421204	1.100364	0	0
57.181888	5.320103	0.553843	62.12057	4.127435	60.303799	4.127435	1.868338E+15	0.000347	2874.813586	19.576846	1.098265	0	0
58.513699	4.868471	0.522941	61.958898	4.26295	60.046001	4.26295	1.790445E+15	0.000354	2820.305544	19.511489	1.099057	0	0
59.815259	4.270609	0.492964	61.803392	4.387364	59.798558	4.387364	1.718108E+15	0.000361	2767.191466	19.508345	1.097908	0	0
61.088721	3.500503	0.464666	61.645109	4.501839	59.550251	4.501839	1.647006E+15	0.000367	2721.686877	19.614151	1.097195	0	0
62.232713	2.622208	0.446036	61.493115	4.608802	59.311408	4.608802	1.581058E+15	0.000373	2674.591834	19.46517	1.096957	0	0
63.302875	1.636424	0.449915	61.343	4.708407	59.076733	4.708407	1.5181E+15	0.00038	2629.707529	19.644734	1.094858	0	0
64.166903	0.718562	0.467083	61.193252	4.801687	58.844031	4.801687	1.457391E+15	0.000386	2587.240385	19.482448	1.095294	0	0
53.681902	5.96109	0.674113	61.036113	4.889384	58.603322	4.889384	1.395869E+15	0.000391	2552.053746	19.572978	1.093036	0	0
64.785102	0	0	60.887509	4.973273	58.373862	4.973273	1.339689E+15	0.000398	2510.296788	19.546021	1.092878	0	0
0	0	0	60.736168	5.052647	58.141932	5.052647	1.284417E+15	0.000404	2471.47959	19.483303	1.090778	0	0
0	0	0	60.587033	5.127155	57.914072	5.127155	1.231813E+15	0.000411	2433.26783	19.612548	1.089194	0	0
0	0	0	60.429527	5.19658	57.677052	5.19658	1.178208E+15	0.000416	2403.935989	19.439087	1.08864	0	0
0	0	0	60.284679	5.260629	57.45795	5.260629	1.130632E+15	0.000421	2370.422232	19.605095	1.085827	0	0
0	0	0	60.140363	5.321114	57.240489	5.321114	1.084825E+15	0.000427	2337.952656	19.464822	1.085748	0	0
0	0	0	59.995679	5.378144	57.023541	5.378144	1.040455E+15	0.000433	2307.320228	19.52363	1.082936	0	0
0	0	0	59.850015	5.432228	56.806108	5.432228	9.973138E+14	0.000439	2278.167193	19.548953	1.082064	0	0
0	0	0	59.707454	5.482885	56.593793	5.482885	9.565383E+14	0.000444	2249.327322	19.438216	1.08044	0	0
0	0	0	59.561872	5.532335	56.377501	5.532335	9.163351E+14	0.00045	2219.651436	19.596692	1.078381	0	0
0	0	0	59.422292	5.577671	56.170621	5.577671	8.791164E+14	0.000456	2190.943671	19.409234	1.078539	0	0
0	0	0	59.276914	5.620102	55.957264	5.620102	8.416952E+14	0.000461	2168.42884	19.564145	1.075687	0	0
0	0	0	59.137661	5.659625	55.752953	5.659625	8.071021E+14	0.000466	2144.861031	19.477273	1.075767	0	0
0	0	0	58.998653	5.696755	55.549828	5.696755	7.737587E+14	0.000471	2123.109568	19.483158	1.073667	0	0
0	0	0	58.863688	5.731159	55.353095	5.731159	7.424916E+14	0.000475	2102.255886	19.559923	1.072796	0	0
0	0	0	58.726028	5.763298	55.153758	5.763298	7.116939E+14	0.000479	2085.76627	19.411617	1.072281	0	0
0	0	0	58.597148	5.793362	54.966725	5.793362	6.83836E+14	0.000484	2066.104705	19.597124	1.069825	0	0
0	0	0	58.464511	5.822202	54.775143	5.822202	6.561256E+14	0.000488	2048.748565	19.430427	1.069984	0	0
0	0	0	58.332649	5.849876	54.58492	5.849876	6.295177E+14	0.000492	2030.709584	19.563262	1.066934	0	0
0	0	0	58.200012	5.875459	54.394647	5.875459	6.036746E+14	0.000496	2016.771296	19.525574	1.066577	0	0
0	0	0	58.068804	5.899862	54.206663	5.899862	5.789956E+14	0.000499	2002.405538	19.484566	1.06432	0	0
0	0	0	57.941762	5.922815	54.02477	5.922815	5.559175E+14	0.000503	1987.240956	19.602636	1.06226	0	0
0	0	0	57.812228	5.944927	53.839856	5.944927	5.331937E+14	0.000507	1973.205152	19.426038	1.061468	0	0
0	0	0	57.683388	5.96541	53.656652	5.96541	5.113787E+14	0.00051	1962.022384	19.598556	1.058141	0	0
0	0	0	57.553569	5.984977	53.472502	5.984977	4.901707E+14	0.000512	1951.873444	19.449752	1.057784	0	0
0	0	0	57.429507	6.003306	53.296523	6.003306	4.706092E+14	0.000515	1940.2694	19.518387	1.054774	0	0
0	0	0	57.300137	6.021179	53.113621	6.021179	4.509259E+14	0.000518	1930.592895	19.532968	1.053229	0	0
0	0	0	57.174769	6.037684	52.936714	6.037684	4.325297E+14	0.00052	1921.841282	19.432011	1.051447	0	0
0	0	0	57.046583	6.053734	52.756191	6.053734	4.143915E+14	0.000522	1913.73819	19.58495	1.048832	0	0
0	0	0	56.922317	6.068688	52.581414	6.068688	3.974384E+14	0.000525	1905.773701	19.40347	1.048238	0	0
0	0	0	56.794253	6.083386	52.401603	6.083386	3.805987E+14	0.000527	1898.129131	19.556568	1.045149	0	0
0	0	0	56.667088	6.09675	52.223754	6.09675	3.644937E+14	0.000528	1894.684903	19.457627	1.044555	0	0
0	0	0	56.547968	6.109677	52.056694	6.109677	3.499493E+14	0.00053	1885.462201	19.482028	1.04202	0	0
0	0	0	56.420966	6.122169	51.879357	6.122169	3.350035E+14	0.000532	1880.778209	19.546025	1.040713	0	0
0	0	0	56.297599	6.133734	51.707361	6.133734	3.210241E+14	0.000533	1876.882571	19.424747	1.038891	0	0
0	0	0	56.178111	6.144874	51.540676	6.144874	3.079759E+14	0.000535	1870.255981	19.594548	1.036752	0	0
0	0	0	56.055029	6.155446	51.369517	6.155446	2.950266E+14	0.000536	1866.998464	19.425746	1.036237	0	0
0	0	0	55.933377	6.165506	51.20051	6.165506	2.827033E+14	0.000537	1863.630942	19.554517	1.033266	0	0
0	0	0	55.812215	6.175023	51.032444	6.175023	2.70886E+14	0.000537	1861.258135	19.492966	1.032712	0	0
0	0	0	55.69481	6.183785	50.869831	6.183785	2.598567E+14	0.000538	1859.944379	19.478942	1.030335	0	0
0	0	0	55.577323	6.192676	50.7069	6.192676	2.492229E+14	0.000539	1854.337588	19.57775	1.028711	0	0
0	0	0	55.457999	6.200729	50.542081	6.200729	2.388235E+14	0.000539	1854.765736	19.421427	1.027404	0	0
0	0	0	55.339205	6.208398	50.378173	6.208398	2.288592E+14	0.000539	1855.707368	19.603152	1.024315	0	0
0	0	0	55.218737	6.215935	50.21205	6.215935	2.191387E+14	0.000539	1856.099016	19.42987	1.024077	0	0
0	0	0	55.102639	6.222932	50.052078	6.222932	2.101255E+14	0.000539	1856.405592	19.52631	1.020789	0	0
0	0	0	54.983151	6.229799	49.887619	6.229799	2.012014E+14	0.000538	1857.446664	19.505319	1.019839	0	0
0	0	0	54.86644	6.236361	49.727018	6.236361	1.928187E+14	0.000538	1857.139131	19.454007	1.016987	0	0
0	0	0	54.748054	6.242602	49.564375	6.242602	1.846423E+14	0.000538	1858.869896	19.589373	1.01469	0	0
0	0	0	54.629424	6.24842	49.401681	6.24842	1.767683E+14	0.000537	1863.265337	19.422989	1.013541	0	0
0	0	0	54.514428	6.254124	49.243849	6.254124	1.694305E+14	0.000537	1863.776685	19.596226	1.010095	0	0
0	0	0	54.392409	6.259925	49.076514	6.259925	1.619517E+14	0.000536	1864.523496	19.449736	1.009936	0	0
0	0	0	54.276841	6.26483	48.918461	6.26483	1.551503E+14	0.000534	1870.946716	19.509805	1.006451	0	0
0	0	0	54.159518	6.269907	48.757862	6.269907	1.485164E+14	0.000534	1873.086185	19.538247	1.005025	0	0
0	0	0	54.041745	6.274704	48.596844	6.274704	1.421225E+14	0.000533	1876.952981	19.418586	1.003322	0	0
0	0	0	53.925197	6.279055	48.437789	6.279055	1.360478E+14	0.000531	1884.591952	19.590657	1.00051	0	0
0	0	0	53.805505	6.283624	48.274298	6.283624	1.300616E+14	0.00053	1887.641608	19.406621	1.000193	0	0
0	0	0	53.688508	6.287844	48.11465	6.287844	1.244488E+14	0.000529	1892.004206	19.569316	0.996945	0	0
0	0	0	53.570001	6.291726	47.953239	6.291726	1.189953E+14	0.000526	1901.015491	19.462474	0.996588	0	0
0	0	0	53.449083	6.295469	47.78869	6.295469	1.136628E+14	0.000523	1911.74984	19.483978	0.993816	0	0
0	0	0	53.336211	6.299001	47.635012	6.299001	1.088886E+14	0.000521	1918.296978	19.550365	0.992271	0	0
0	0	0	53.215008	6.302571	47.470148	6.302571	1.039728E+14	0.000519	1927.203529	19.421429	0.990607	0	0
0	0	0	53.098297	6.306213	47.311163	6.306213	9.943809E+13	0.000519	1927.847175	19.601109	0.987755	0	0
0	0	0	52.977625	6.309208	47.147448	6.309208	9.494673E+13	0.000514	1943.908461	19.431196	0.987478	0	0
0	0	0	52.855891	6.312207	46.982273	6.312207	9.061133E+13	0.000511	1958.058611	19.552993	0.984389	0	0
0	0	0	52.740895	6.315089	46.826159	6.315089	8.668931E+13	0.000508	1967.450181	19.502958	0.983676	0	0
0	0	0	52.616507	6.318019	46.657433	6.318019	8.262923E+13	0.000505	1979.669	19.475515	0.981101	0	0
0	0	0	52.49608	6.320804	46.494091	6.320804	7.887183E+13	0.000503	1989.84241	19.584785	0.978883	0	0
0	0	0	52.375612	6.32348	46.330764	6.32348	7.527697E+13	0.0005	2000.203926	19.418021	0.977932	0	0
0	0	0	52.2491	6.325905	46.159577	6.325905	7.167095E+13	0.000495	2020.229943	19.60508	0.974566	0	0
0	0	0	52.126386	6.328159	45.993593	6.328159	6.833197E+13	0.00049	2040.391757	19.438811	0.974249	0	0
0	0	0	52.002325	6.330241	45.825948	6.330241	6.510861E+13	0.000484	2065.215456	19.532678	0.970842	0	0
0	0	0	51.877937	6.332504	45.657662	6.332504	6.202403E+13	0.000481	2081.014025	19.5147	0.970011	0	0
0	0	0	51.753875	6.334661	45.489887	6.334661	5.908821E+13	0.000477	2097.430809	19.448269	0.967753	0	0
0	0	0	51.617603	6.337054	45.305544	6.337054	5.60182E+13	0.000474	2110.630818	19.581443	0.965495	0	0
0	0	0	51.488764	6.33892	45.131621	6.33892	5.325795E+13	0.000468	2136.578156	19.415772	0.964188	0	0
0	0	0	51.359598	6.340642	44.957381	6.340642	5.062321E+13	0.000462	2166.730185	19.587125	0.961217	0	0
0	0	0	51.234719	6.342547	44.788658	6.342547	4.819645E+13	0.000458	2181.642316	19.456676	0.960901	0	0
0	0	0	51.101265	6.344123	44.608793	6.344123	4.572804E+13	0.000451	2217.328966	19.515966	0.957811	0	0
0	0	0	50.970384	6.345915	44.432119	6.345915	4.342691E+13	0.000447	2236.55034	19.539816	0.956702	0	0
0	0	0	50.837461	6.347243	44.253174	6.347243	4.120549E+13	0.000439	2280.35047	19.427168	0.954959	0	0
0	0	0	50.704456	6.348976	44.073678	6.348976	3.909381E+13	0.000435	2297.909212	19.597243	0.952345	0	0
0	0	0	50.571125	6.350227	43.894228	6.350227	3.708315E+13	0.000427	2342.143762	19.410144	0.95187	0	0
0	0	0	50.434281	6.351524	43.710018	6.351524	3.512476E+13	0.000419	2384.740091	19.570498	0.948622	0	0
0	0	0	50.295845	6.353213	43.523245	6.353213	3.32467E+13	0.000417	2398.453382	19.465697	0.948305	0	0
0	0	0	50.154387	6.354473	43.332868	6.354473	3.142937E+13	0.00041	2441.637097	19.489266	0.945691	0	0
0	0	0	50.00954	6.355463	43.138236	6.355463	2.966954E+13	0.000399	2506.993194	19.555651	0.944344	0	0
0	0	0	49.856321	6.35682	42.931999	6.35682	2.791332E+13	0.000392	2548.861673	19.430995	0.942522	0	0
0	0	0	49.707431	6.357934	42.731794	6.357934	2.630478E+13	0.000384	2603.881579	19.614001	0.939551	0	0
0	0	0	49.553477	6.35904	42.524811	6.35904	2.473747E+13	0.000376	2662.340042	19.426499	0.939314	0	0
0	0	0	49.39548	6.360052	42.312511	6.360052	2.322467E+13	0.000366	2731.918869	19.560841	0.936066	0	0
0	0	0	49.232583	6.361284	42.093398	6.361284	2.176046E+13	0.00036	2780.885121	19.493117	0.935313	0	0
0	0	0	49.062744	6.362028	41.865536	6.362028	2.033082E+13	0.000346	2889.323104	19.474543	0.932857	0	0
0	0	0	48.893231	6.363091	41.637732	6.363091	1.89965E+13	0.000338	2958.931875	19.574937	0.930996	0	0
0	0	0	48.711712	6.364048	41.393981	6.364048	1.766356E+13	0.000328	3053.108955	19.419371	0.929807	0	0
0	0	0	48.530276	6.364816	41.150541	6.364816	1.642374E+13	0.000315	3172.173164	19.605135	0.926599	0	0
0	0	0	48.341774	6.365498	40.897742	6.365498	1.522686E+13	0.000302	3314.877768	19.431931	0.926361	0	0
0	0	0	48.146085	6.366487	40.634957	6.366487	1.407572E+13	0.000293	3418.516137	19.537875	0.923272	0	0
0	0	0	47.945741	6.367227	40.366225	6.367227	1.298657E+13	0.00028	3569.474787	19.510544	0.922401	0	0
0	0	0	47.736698	6.367873	40.08596	6.367873	1.193921E+13	0.000266	3753.782235	19.454757	0.920381	0	0
0	0	0	47.517161	6.368612	39.791536	6.368612	1.092945E+13	0.000254	3939.580696	19.583596	0.91836	0	0
0	0	0	47.289292	6.369236	39.486096	6.369236	9.971037E+12	0.00024	4169.230036	19.414508	0.91741	0	0
0	0	0	47.051501	6.370035	39.167155	6.370035	9.059874E+12	0.000228	4378.327323	19.586588	0.914637	0	0
0	0	0	46.803745	6.370747	38.83498	6.370747	8.198528E+12	0.000216	4631.505882	19.44313	0.914281	0	0
0	0	0	46.542881	6.371338	38.485409	6.371338	7.37955E+12	0.000202	4954.629306	19.523822	0.911389	0	0
0	0	0	46.268623	6.371768	38.118118	6.371768	6.606219E+12	0.000186	5379.757299	19.52282	0.910676	0	0
0	0	0	45.980766	6.372537	37.732189	6.372537	5.881232E+12	0.000174	5731.242723	19.445596	0.908696	0	0
0	0	0	45.673144	6.373089	37.320089	6.373089	5.193895E+12	0.00016	6236.573437	19.600459	0.906359	0	0
0	0	0	45.34543	6.373692	36.881035	6.373692	4.549551E+12	0.000147	6804.103157	19.42714	0.905725	0	0
0	0	0	44.997298	6.374108	36.414904	6.374108	3.952171E+12	0.000132	7581.515379	19.602178	0.902517	0	0
0	0	0	44.62985	6.374877	35.922446	6.374877	3.406337E+12	0.000121	8259.283026	19.452051	0.902675	0	0
0	0	0	44.241985	6.375328	35.403088	6.375328	2.91159E+12	0.000108	9293.72815	19.50736	0.899467	0	0
0	0	0	43.842398	6.375652	34.868215	6.375652	2.476809E+12	9.422458E-5	10612.941786	19.533404	0.898516	0	0
0	0	0	43.420516	6.37611	34.303317	6.37611	2.087931E+12	8.286787E-5	12067.402629	19.425921	0.896734	0	0
0	0	0	42.980216	6.376818	33.713402	6.376818	1.746963E+12	7.431014E-5	13457.114409	19.606636	0.894159	0	0
0	0	0	42.523744	6.377317	33.102132	6.377317	1.452082E+12	6.505817E-5	15370.860087	19.428053	0.893724	0	0
0	0	0	42.041219	6.377545	32.456398	6.377545	1.194265E+12	5.48421E-5	18234.168448	19.575387	0.890832	0	0
0	0	0	41.547709	6.377935	31.795711	6.377935	9.778324E+11	4.690378E-5	21320.24401	19.482551	0.890278	0	0
0	0	0	41.042846	6.378263	31.119915	6.378263	7.969287E+11	3.971436E-5	25179.809422	19.491914	0.887743	0	0
0	0	0	40.517933	6.378804	30.416945	6.378804	6.44223E+11	3.430759E-5	29148.068617	19.560063	0.886396	0	0
0	0	0	39.975255	6.379403	29.690089	6.379403	5.170327E+11	2.979934E-5	33557.791066	19.42076	0.885089	0	0
0	0	0	39.423063	6.37952	28.951263	6.37952	4.1335E+11	2.421069E-5	41304.066527	19.604875	0.882396	0	0
0	0	0	38.857109	6.380152	28.193159	6.380152	3.286165E+11	2.111169E-5	47367.119288	19.419737	0.882158	0	0
0	0	0	38.271389	6.380255	27.409479	6.380255	2.591651E+11	1.691545E-5	59117.55798	19.568494	0.878751	0	0
0	0	0	37.669581	6.380544	26.603947	6.380544	2.030612E+11	1.387788E-5	72057.110278	19.485247	0.878593	0	0
0	0	0	37.055521	6.380915	25.781863	6.380915	1.583131E+11	1.151515E-5	86842.096694	19.467375	0.876335	0	0
0	0	0	36.430639	6.381108	24.945599	6.381108	1.22885E+11	9.24744E-6	108138.03086	19.582936	0.874593	0	0
0	0	0	35.789423	6.381398	24.087294	6.381398	9.475513E+10	7.520771E-6	132965.098107	19.41407	0.8738	0	0
0	0	0	35.139672	6.381608	23.2177	6.381608	7.281185E+10	6.018359E-6	166158.25004	19.617847	0.870671	0	0
0	0	0	34.486736	6.381929	22.343619	6.381929	5.587777E+10	4.930561E-6	202816.675861	19.450268	0.870434	0	0
0	0	0	33.825388	6.382067	21.458617	6.382067	4.2736E+10	3.883234E-6	257517.29335	19.554295	0.867701	0	0
0	0	0	33.15285	6.38226	20.558528	6.38226	3.253701E+10	3.085368E-6	324110.455876	19.508659	0.867186	0	0
0	0	0	32.458873	6.382691	19.629265	6.382691	2.45576E+10	2.580038E-6	387591.199117	19.460101	0.865047	0	0
0	0	0	31.766611	6.382756	18.703014	6.382756	1.854793E+10	1.98098E-6	504800.674306	19.587823	0.863106	0	0
0	0	0	31.069571	6.383081	17.769825	6.383081	1.398181E+10	1.627786E-6	614331.294166	19.414447	0.862116	0	0
0	0	0	30.369224	6.383244	16.832531	6.383244	1.052564E+10	1.283337E-6	779218.754397	19.598149	0.859224	0	0
0	0	0	29.664425	6.383469	15.889133	6.383469	7.909516E+9	1.032024E-6	968969.307582	19.439543	0.859105	0	0
0	0	0	28.95591	6.383435	14.941319	6.383435	5.934671E+9	7.661358E-7	1305251.586412	19.527919	0.856254	0	0
0	0	0	28.235798	6.383407	13.977975	6.383407	4.432015E+9	5.673336E-7	1762631.482028	19.509121	0.855501	0	0
0	0	0	27.509805	6.383857	13.005682	6.383857	3.301948E+9	4.899196E-7	2041151.113441	19.433649	0.85356	0	0
0	0	0	26.775318	6.384181	12.022282	6.384181	2.451566E+9	4.107115E-7	2434799.107945	19.575497	0.851659	0	0
0	0	0	26.021801	6.384139	11.014255	6.384139	1.806201E+9	2.976116E-7	3360083.635984	19.395434	0.850748	0	0
0	0	0	25.263507	6.384294	9.99937	6.384294	1.32815E+9	2.329954E-7	4291929.494153	19.584298	0.847658	0	0
0	0	0	24.49778	6.384673	8.973982	6.384673	9.736878E+8	2.030166E-7	4925705.073324	19.449987	0.84746	0	0
0	0	0	23.709266	6.384561	7.919292	6.384561	7.072614E+8	1.396731E-7	7159575.788245	19.510635	0.844965	0	0
0	0	0	22.88306	6.384786	6.813334	6.384786	5.059451E+8	1.117411E-7	8949262.2678	19.524391	0.843975	0	0
0	0	0	22.048156	6.384997	5.695755	6.384997	3.606578E+8	8.959307E-8	1.116158E+7	19.427298	0.842272	0	0
0	0	0	21.192997	6.385053	4.55146	6.385053	2.549886E+8	6.552465E-8	1.526143E+7	19.594621	0.839935	0	0
0	0	0	20.361973	6.385222	3.439153	6.385222	1.820521E+8	5.21688E-8	1.916855E+7	19.397425	0.839578	0	0
0	0	0	19.556389	6.385306	2.361097	6.385306	1.313258E+8	3.99318E-8	2.50427E+7	19.571984	0.836528	0	0
0	0	0	18.761138	6.385671	1.296088	6.385671	9.513141E+7	3.933867E-8	2.542028E+7	19.448437	0.836409	0	0
0	0	0	17.982343	6.385475	0.254629	6.385475	6.937379E+7	2.403013E-8	4.161442E+7	19.493608	0.833676	0	0
0	0	0	17.215922	6.385341	-0.770437	6.385341	5.084469E+7	1.586426E-8	6.303479E+7	19.535154	0.832607	0	0
0	0	0	16.455626	6.385798	-1.788983	6.385798	3.73572E+7	1.764707E-8	5.666662E+7	19.418861	0.830904	0	0
0	0	0	15.70701	6.385693	-2.79031	6.385693	2.757779E+7	1.164608E-8	8.586583E+7	19.586038	0.828765	0	0
0	0	0	14.962396	6.385798	-3.786894	6.385798	2.039151E+7	9.632762E-9	1.038124E+8	19.391473	0.82821	0	0
0	0	0	14.214392	6.385974	-4.788229	6.385974	1.505714E+7	8.865489E-9	1.127969E+8	19.553642	0.825279	0	0
0	0	0	13.461773	6.385903	-5.795012	6.385903	1.109744E+7	5.947852E-9	1.681279E+8	19.4595	0.824962	0	0
0	0	0	12.763059	6.385833	-6.729666	6.385833	8359780.125	4.111672E-9	2.432101E+8	19.46732	0.822744	0	0
0	0	0	12.143242	6.386156	-7.559967	6.386156	6502174.75	5.147526E-9	1.942681E+8	19.548664	0.8212	0	0
0	0	0	11.580391	6.38622	-8.313257	6.38622	5175508.875	4.652106E-9	2.149564E+8	19.412928	0.819813	0	0
0	0	0	11.056213	6.386213	-9.014586	6.386213	4184627.5	3.705678E-9	2.698562E+8	19.594147	0.817239	0	0
0	0	0	10.566051	6.386353	-9.670868	6.386353	3430442.75	4.317969E-9	2.315904E+8	19.392379	0.817199	0	0
0	0	0	10.102556	6.386437	-10.291298	6.386437	2842751.5	4.789136E-9	2.088059E+8	19.532537	0.814387	0	0
0	0	0	9.660622	6.386339	-10.882294	6.386339	2376425.25	2.870301E-9	3.483955E+8	19.458903	0.813872	0	0
0	0	0	9.245355	6.38648	-11.43838	6.38648	2008189.75	4.072202E-9	2.455674E+8	19.44478	0.811773	0	0
0	0	0	8.851935	6.38643	-11.964621	6.38643	1712112.25	2.80526E-9	3.564732E+8	19.550997	0.810109	0	0
0	0	0	8.483916	6.386444	-12.457081	6.386444	1474796.75	2.556669E-9	3.91134E+8	19.389607	0.809079	0	0
0	0	0	8.129128	6.38648	-12.931908	6.38648	1277208.375	2.589922E-9	3.861121E+8	19.581508	0.806465	0	0
0	0	0	7.791327	6.386585	-13.384239	6.386585	1113736.875	4.601205E-9	2.173344E+8	19.398216	0.806267	0	0
0	0	0	7.466962	6.386522	-13.818036	6.386522	976492.875	2.486559E-9	4.021622E+8	19.524558	0.803574	0	0
0	0	0	7.161137	6.386592	-14.22747	6.386592	862621	3.828533E-9	2.611966E+8	19.45994	0.803257	0	0
0	0	0	6.870095	6.386712	-14.617293	6.386712	766608.875	-1.29369E-8	-7.729827E+7	19.432391	0.801118	0	0
0	0	0	6.590282	6.386592	-14.991286	6.386592	684392.375	3.03751E-9	3.29217E+8	19.550762	0.799454	0	0
0	0	0	6.323905	6.386543	-15.347537	6.386543	614330.375	1.793718E-9	5.575013E+8	19.390181	0.798583	0	0
0	0	0	6.071576	6.386831	-15.686139	6.386831	554590.375	-1.612984E-9	-6.19969E+8	19.573897	0.795889	0	0
0	0	0	5.826393	6.386676	-16.013674	6.386676	502112.625	2.05449E-8	4.867388E+7	19.397352	0.795691	0	0
0	0	0	5.589623	6.386606	-16.330237	6.386606	456153.5	2.377848E-9	4.205483E+8	19.505905	0.792958	0	0
0	0	0	5.365838	6.38669	-16.629956	6.38669	416588.75	-4.608679E-8	-2.169819E+7	19.456062	0.792483	0	0
0	0	0	5.147893	6.386803	-16.921961	6.386803	381357.5	-1.377384E-9	-7.260142E+8	19.412282	0.790463	0	0
0	0	0	4.936523	6.386852	-17.204951	6.386852	350037.5	-8.883133E-10	-1.125729E+9	19.547838	0.788681	0	0
0	0	0	4.722008	6.386943	-17.492297	6.386943	320880.5	-5.246055E-10	-1.906194E+9	19.366943	0.788047	0	0
0	0	0	4.528198	6.386782	-17.751059	6.386782	296631.75	-1.308751E-9	-7.640872E+8	19.557491	0.785353	0	0
0	0	0	4.341942	6.386761	-18.000201	6.386761	275056.625	-1.558977E-9	-6.414464E+8	19.388072	0.785314	0	0
0	0	0	4.165773	6.386719	-18.235773	6.386719	256095.875	-3.369807E-9	-2.967529E+8	19.483792	0.782581	0	0
0	0	0	3.98356	6.386845	-18.480023	6.386845	237858.625	-6.304099E-10	-1.586269E+9	19.475224	0.781789	0	0
0	0	0	3.818009	6.386761	-18.70124	6.386761	222417.5	-1.260626E-9	-7.932564E+8	19.403596	0.779967	0	0
0	0	0	3.656704	6.386564	-18.916374	6.386564	208337.125	7.128208E-10	1.402877E+9	19.54716	0.778105	0	0
0	0	0	3.498218	6.38674	-19.129055	6.38674	195371.25	-1.547916E-9	-6.460299E+8	19.364906	0.777709	0	0
0	0	0	3.349572	6.386964	-19.328745	6.386964	183944.875	-2.779131E-10	-3.598247E+9	19.546321	0.774897	0	0
0	0	0	3.200151	6.386627	-19.527476	6.386627	173132.25	1.222547E-9	8.179646E+8	19.375511	0.775134	0	0
0	0	0	3.058489	6.386803	-19.71765	6.386803	163468.625	-5.904144E-10	-1.693726E+9	19.465606	0.772124	0	0
0	0	0	2.91744	6.386648	-19.905826	6.386648	154382.625	1.689132E-9	5.9202E+8	19.456466	0.771728	0	0
0	0	0	2.778187	6.386726	-20.092426	6.386726	145908	-1.573358E-9	-6.355834E+8	19.381961	0.769985	0	0
0	0	0	2.647183	6.386719	-20.267688	6.386719	138360.625	-1.820601E-9	-5.492692E+8	19.548038	0.767688	0	0
0	0	0	2.519855	6.386901	-20.438714	6.386901	131399.125	-2.570286E-10	-3.890618E+9	19.352221	0.767569	0	0
0	0	0	2.396528	6.386986	-20.604033	6.386986	124990.625	-1.755246E-10	-5.697208E+9	19.541593	0.764638	0	0
0	0	0	2.268383	6.386845	-20.774989	6.386845	118662.625	-3.144981E-10	-3.179669E+9	19.385579	0.764836	0	0
0	0	0	2.154326	6.386915	-20.927855	6.386915	113300.375	-2.080041E-10	-4.807599E+9	19.450912	0.762143	0	0
0	0	0	2.034185	6.386817	-21.088252	6.386817	107913.75	-3.477163E-10	-2.875908E+9	19.463162	0.76135	0	0
0	0	0	1.919965	6.386845	-21.241184	6.386845	103030.375	-2.730671E-10	-3.662104E+9	19.362364	0.760123	0	0
0	0	0	1.809216	6.387014	-21.389982	6.387014	98506.5	-1.264435E-10	-7.908671E+9	19.545241	0.757548	0	0
0	0	0	1.695976	6.386972	-21.541349	6.386972	94086.125	-1.386436E-10	-7.212738E+9	19.337226	0.757469	0	0
0	0	0	1.592537	6.38688	-21.679422	6.38688	90222	-1.957071E-10	-5.109678E+9	19.518345	0.754736	0	0
0	0	0	1.487138	6.387021	-21.820963	6.387021	86447.875	-1.086308E-10	-9.205489E+9	19.373686	0.754617	0	0
0	0	0	1.381657	6.386936	-21.961792	6.386936	82828.75	-1.392264E-10	-7.182544E+9	19.429871	0.752082	0	0
0	0	0	1.286385	6.386845	-22.088935	6.386845	79690.375	-2.112078E-10	-4.734674E+9	19.451218	0.751329	0	0
0	0	0	1.185846	6.386726	-22.223023	6.386726	76507.375	-8.249955E-10	-1.212128E+9	19.341341	0.749864	0	0
0	0	0	1.086368	6.386901	-22.356772	6.386901	73483	-1.437394E-10	-6.957035E+9	19.51487	0.748121	0	0
0	0	0	0.998283	6.386901	-22.474632	6.386901	70905.125	-1.386968E-10	-7.209969E+9	19.329182	0.747487	0	0
0	0	0	0.905952	6.386796	-22.597788	6.386796	68299.875	-2.62559E-10	-3.808668E+9	19.506031	0.744873	0	0
0	0	0	0.813048	6.386908	-22.722509	6.386908	65775.125	-1.245828E-10	-8.026792E+9	19.384184	0.744754	0	0
0	0	0	0.728639	6.38688	-22.835348	6.38688	63562.25	-1.378775E-10	-7.252816E+9	19.414166	0.742536	0	0
0	0	0	0.644353	6.387161	-22.949165	6.387161	61426.875	-5.433196E-11	-1.840537E+10	19.466861	0.741546	0	0
0	0	0	0.560842	6.387084	-23.060621	6.387084	59381.875	-6.274167E-11	-1.593837E+10	19.337299	0.740278	0	0
0	0	0	0.478883	6.387042	-23.17013	6.387042	57441.125	-6.789623E-11	-1.472836E+10	19.513846	0.738219	0	0
0	0	0	0.401375	6.38714	-23.274204	6.38714	55664.125	-5.152339E-11	-1.940866E+10	19.315263	0.73814	0	0
0	0	0	0.324684	6.387	-23.376299	6.387	53959.875	-7.237336E-11	-1.381724E+10	19.478193	0.735208	0	0
0	0	0	0.250565	6.387007	-23.475498	6.387007	52362.5	-6.868871E-11	-1.455843E+10	19.359799	0.735248	0	0
0	0	0	0.180776	6.387182	-23.569533	6.387182	50901.75	-4.310774E-11	-2.319769E+10	19.383643	0.73299	0	0
0	0	0	0.117234	6.387133	-23.654372	6.387133	49607.125	-4.66396E-11	-2.144101E+10	19.448389	0.731842	0	0
0	0	0	0.064432	6.387035	-23.724657	6.387035	48556.375	-5.855288E-11	-1.707858E+10	19.323365	0.730653	0	0
0	0	0	0.013713	6.387021	-23.792469	6.387021	47568.125	-5.977435E-11	-1.672958E+10	19.501102	0.728475	0	0
0	0	0	-0.015199	6.387224	-23.831915	6.387224	47013.875	-3.669404E-11	-2.725238E+10	19.306559	0.728435	0	0
0	0	0	-0.047583	6.387182	-23.875088	6.387182	46400.625	-3.929582E-11	-2.5448E+10	19.465545	0.725742	0	0
0	0	0	-0.060895	6.387	-23.89222	6.387	46150.75	-6.189941E-11	-1.615524E+10	19.363901	0.725782	0	0
0	0	0	-0.068532	6.387246	-23.903355	6.387246	46008.125	-3.455468E-11	-2.893964E+10	19.383741	0.723207	0	0
0	0	0	-0.077924	6.387028	-23.91511	6.387028	45833.375	-5.640792E-11	-1.772801E+10	19.454624	0.721939	0	0
0	0	0	-0.094095	6.387077	-23.936931	6.387077	45533.75	-4.897625E-11	-2.041806E+10	19.298288	0.721306	0	0
0	0	0	-0.104509	6.387175	-23.951232	6.387175	45342	-3.895148E-11	-2.567296E+10	19.493076	0.71885	0	0
0	0	0	-0.113942	6.386986	-23.963146	6.386986	45168.875	-6.343074E-11	-1.576523E+10	19.283769	0.718929	0	0
0	0	0	-0.120394	6.387133	-23.97233	6.387133	45050.875	-4.235591E-11	-2.360946E+10	19.449842	0.716077	0	0
0	0	0	-0.123988	6.386838	-23.976037	6.386838	44985.25	-1.24762E-10	-8.015259E+9	19.356746	0.716077	0	0
0	0	0	-0.127377	6.387091	-23.981517	6.387091	44923.5	-4.664034E-11	-2.144067E+10	19.358946	0.713899	0	0
0	0	0	-0.129419	6.387133	-23.984406	6.387133	44886.375	-4.220125E-11	-2.369598E+10	19.445223	0.712592	0	0
0	0	0	-0.130563	6.387182	-23.98612	6.387182	44865.5	-3.799575E-11	-2.631873E+10	19.287906	0.7118	0	0
0	0	0	-0.133054	6.387084	-23.989085	6.387084	44820.25	-4.735616E-11	-2.111658E+10	19.476126	0.709502	0	0
0	0	0	-0.133584	6.387042	-23.989638	6.387042	44810.625	-5.29668E-11	-1.887975E+10	19.289646	0.709463	0	0
0	0	0	-0.134565	6.386733	-23.989795	6.386733	44792.75	-4.091551E-10	-2.444061E+9	19.443102	0.706769	0	0
0	0	0	-0.13534	6.387112	-23.99225	6.387112	44778.625	-4.418617E-11	-2.263152E+10	19.370562	0.706611	0	0
0	0	0	-0.135708	6.387056	-23.992532	6.387056	44772	-5.090664E-11	-1.96438E+10	19.35996	0.704591	0	0
0	0	0	-0.136402	6.386817	-23.992569	6.386817	44759.375	-1.442223E-10	-6.933743E+9	19.451129	0.703284	0	0
0	0	0	-0.136361	6.386993	-23.99317	6.386993	44760.125	-6.141308E-11	-1.628318E+10	19.298567	0.702373	0	0
0	0	0	-0.137546	6.386915	-23.994466	6.386915	44738.625	-8.213402E-11	-1.217522E+10	19.4652	0.700353	0	0
0	0	0	-0.13873	6.386979	-23.996287	6.386979	44717.125	-6.430805E-11	-1.555015E+10	19.262025	0.700511	0	0
0	0	0	-0.139179	6.386845	-23.996389	6.386845	44709.125	-1.184951E-10	-8.43917E+9	19.425208	0.697659	0	0
0	0	0	-0.140241	6.386922	-23.998099	6.386922	44689.75	-7.959813E-11	-1.256311E+10	19.34665	0.69754	0	0
0	0	0	-0.141139	6.386993	-23.999563	6.386993	44673.5	-6.129422E-11	-1.631475E+10	19.347501	0.695362	0	0
0	0	0	-0.141017	6.38688	-23.998979	6.38688	44675.75	-9.69094E-11	-1.031892E+10	19.441843	0.694094	0	0
0	0	0	-0.14216	6.38714	-24.00148	6.38714	44655	-4.133321E-11	-2.419362E+10	19.268467	0.693461	0	0
0	0	0	-0.143344	6.387077	-24.002829	6.387077	44633.625	-4.800807E-11	-2.082983E+10	19.449704	0.691163	0	0
0	0	0	-0.143834	6.38707	-24.003458	6.38707	44624.75	-4.887859E-11	-2.045886E+10	19.250951	0.691322	0	0
0	0	0	-0.144815	6.386838	-24.003903	6.386838	44607	-1.23713E-10	-8.083226E+9	19.420056	0.688391	0	0
0	0	0	-0.146121	6.387021	-24.006334	6.387021	44583.375	-5.60237E-11	-1.784959E+10	19.336643	0.68847	0	0
0	0	0	-0.147061	6.387217	-24.008326	6.387217	44566.375	-3.524425E-11	-2.837342E+10	19.325044	0.68641	0	0
0	0	0	-0.148081	6.387161	-24.009482	6.387161	44548	-3.940262E-11	-2.537902E+10	19.425241	0.685262	0	0
0	0	0	-0.148081	6.387281	-24.009928	6.387281	44548	-3.147922E-11	-3.176699E+10	19.243006	0.684667	0	0
0	0	0	-0.148776	6.387049	-24.009991	6.387049	44535.375	-5.162008E-11	-1.937231E+10	19.439773	0.682093	0	0
0	0	0	-0.150205	6.387224	-24.01256	6.387224	44509.625	-3.473949E-11	-2.878568E+10	19.231802	0.682529	0	0
0	0	0	-0.149429	6.387105	-24.011075	6.387105	44523.625	-4.467244E-11	-2.238517E+10	19.394679	0.679558	0	0
0	0	0	-0.151103	6.387203	-24.013683	6.387203	44493.375	-3.614346E-11	-2.766752E+10	19.312541	0.679677	0	0
0	0	0	-0.150899	6.387119	-24.013095	6.387119	44497.125	-4.31949E-11	-2.315088E+10	19.309096	0.677617	0	0
0	0	0	-0.151634	6.386979	-24.013553	6.386979	44483.875	-6.397262E-11	-1.563169E+10	19.387812	0.676508	0	0
0	0	0	-0.153145	6.387351	-24.016967	6.387351	44456.625	-2.809176E-11	-3.559763E+10	19.232804	0.675637	0	0
0	0	0	-0.152696	6.387344	-24.016339	6.387344	44464.75	-2.839726E-11	-3.521466E+10	19.42167	0.673498	0	0
0	0	0	-0.153921	6.387217	-24.017506	6.387217	44442.625	-3.514639E-11	-2.845243E+10	19.23514	0.673537	0	0
0	0	0	-0.154901	6.387133	-24.018502	6.387133	44425	-4.176747E-11	-2.394208E+10	19.385131	0.670685	0	0
0	0	0	-0.154084	6.387021	-24.016989	6.387021	44439.75	-5.584322E-11	-1.790728E+10	19.316515	0.670606	0	0
0	0	0	-0.155065	6.38726	-24.019193	6.38726	44422	-3.254508E-11	-3.072661E+10	19.289622	0.668863	0	0
0	0	0	-0.154779	6.386964	-24.017708	6.386964	44427.125	-6.712272E-11	-1.489809E+10	19.387837	0.667715	0	0
0	0	0	-0.154656	6.387119	-24.018122	6.387119	44429.375	-4.312913E-11	-2.318619E+10	19.21837	0.666962	0	0
0	0	0	-0.154411	6.387281	-24.018398	6.387281	44433.75	-3.139849E-11	-3.184867E+10	19.414165	0.664506	0	0
0	0	0	-0.153799	6.387133	-24.017027	6.387133	44444.875	-4.178616E-11	-2.393137E+10	19.204953	0.664823	0	0
0	0	0	-0.153635	6.387126	-24.016782	6.387126	44447.75	-4.245706E-11	-2.355321E+10	19.361617	0.661971	0	0
0	0	0	-0.15339	6.386929	-24.015719	6.386929	44452.125	-7.688262E-11	-1.300684E+10	19.281949	0.662011	0	0
0	0	0	-0.153635	6.387014	-24.016362	6.387014	44447.75	-5.705338E-11	-1.752744E+10	19.27527	0.659951	0	0
0	0	0	-0.152328	6.386908	-24.01422	6.386908	44471.25	-8.423171E-11	-1.187201E+10	19.361753	0.658842	0	0
0	0	0	-0.152369	6.387224	-24.015456	6.387224	44470.625	-3.470905E-11	-2.881093E+10	19.199836	0.658169	0	0
0	0	0	-0.151512	6.387154	-24.014046	6.387154	44486.125	-3.993924E-11	-2.503803E+10	19.389898	0.655911	0	0
0	0	0	-0.149878	6.387007	-24.011309	6.387007	44515.5	-5.839507E-11	-1.712473E+10	19.201495	0.656109	0	0
0	0	0	-0.151063	6.387077	-24.013156	6.387077	44494.125	-4.785803E-11	-2.089514E+10	19.365147	0.653257	0	0
0	0	0	-0.15094	6.387007	-24.01273	6.387007	44496.375	-5.836999E-11	-1.713209E+10	19.285204	0.653178	0	0
0	0	0	-0.150899	6.387077	-24.012937	6.387077	44497.125	-4.786125E-11	-2.089373E+10	19.265463	0.651396	0	0
0	0	0	-0.152043	6.387063	-24.014415	6.387063	44476.5	-4.962611E-11	-2.015068E+10	19.351368	0.650445	0	0
0	0	0	-0.151226	6.386908	-24.012744	6.386908	44491.25	-8.426959E-11	-1.186668E+10	19.18241	0.649732	0	0
0	0	0	-0.150001	6.387112	-24.011867	6.387112	44513.25	-4.39243E-11	-2.276644E+10	19.380328	0.647316	0	0
0	0	0	-0.149429	6.386964	-24.01055	6.386964	44523.625	-6.726851E-11	-1.48658E+10	19.182339	0.647395	0	0
0	0	0	-0.150491	6.387084	-24.012417	6.387084	44504.5	-4.702254E-11	-2.12664E+10	19.333392	0.644702	0	0
0	0	0	-0.14996	6.386887	-24.010972	6.386887	44514	-9.317527E-11	-1.073246E+10	19.248116	0.644662	0	0
0	0	0	-0.150818	6.386845	-24.011962	6.386845	44498.625	-1.179372E-10	-8.479092E+9	19.247834	0.642603	0	0
0	0	0	-0.151348	6.387105	-24.013643	6.387105	44489	-4.46377E-11	-2.240259E+10	19.337162	0.641573	0	0
0	0	0	-0.150409	6.386697	-24.010864	6.386697	44505.875	-1.726452E-9	-5.792225E+8	19.176792	0.64082	0	0
0	0	0	-0.151471	6.386957	-24.013256	6.386957	44486.75	-6.895678E-11	-1.450184E+10	19.383701	0.638444	0	0
0	0	0	-0.151389	6.386957	-24.013147	6.386957	44488.25	-6.89591E-11	-1.450135E+10	19.178394	0.638642	0	0
0	0	0	-0.152165	6.387077	-24.014631	6.387077	44474.25	-4.783665E-11	-2.090447E+10	19.337958	0.635948	0	0
0	0	0	-0.153839	6.387042	-24.01674	6.387042	44444.125	-5.253359E-11	-1.903544E+10	19.241235	0.636028	0	0
0	0	0	-0.152451	6.387274	-24.015749	6.387274	44469.125	-3.179963E-11	-3.14469E+10	19.25087	0.633968	0	0
0	0	0	-0.153513	6.38733	-24.01738	6.38733	44450	-2.900807E-11	-3.447316E+10	19.32905	0.632938	0	0
0	0	0	-0.155269	6.387084	-24.01881	6.387084	44418.375	-4.693154E-11	-2.130763E+10	19.167199	0.632344	0	0
0	0	0	-0.155881	6.387	-24.019315	6.387	44407.375	-5.956112E-11	-1.678948E+10	19.367284	0.630086	0	0
0	0	0	-0.156535	6.38714	-24.020714	6.38714	44395.5	-4.109301E-11	-2.433504E+10	19.164862	0.630205	0	0
0	0	0	-0.156494	6.387021	-24.020213	6.387021	44396.25	-5.578855E-11	-1.792482E+10	19.322546	0.62763	0	0
0	0	0	-0.157678	6.387302	-24.022848	6.387302	44375	-3.028237E-11	-3.302252E+10	19.207648	0.627749	0	0
0	0	0	-0.157556	6.387112	-24.021975	6.387112	44377.125	-4.378998E-11	-2.283628E+10	19.219443	0.625808	0	0
0	0	0	-0.158658	6.387098	-24.023398	6.387098	44357.375	-4.526589E-11	-2.209169E+10	19.287363	0.624739	0	0
0	0	0	-0.158617	6.387196	-24.023711	6.387196	44358.125	-3.653033E-11	-2.737451E+10	19.144041	0.623947	0	0
0	0	0	-0.158903	6.387098	-24.023726	6.387098	44353	-4.526143E-11	-2.209387E+10	19.347598	0.621531	0	0
0	0	0	-0.158944	6.386922	-24.023124	6.386922	44352.25	-7.8997E-11	-1.265871E+10	19.142107	0.621649	0	0
0	0	0	-0.158086	6.387126	-24.022738	6.387126	44367.625	-4.238052E-11	-2.359575E+10	19.309755	0.619233	0	0
0	0	0	-0.159434	6.386922	-24.02378	6.386922	44343.375	-7.898119E-11	-1.266124E+10	19.193844	0.619431	0	0
0	0	0	-0.158903	6.387386	-24.024802	6.387386	44353	-2.661849E-11	-3.756788E+10	19.226761	0.617372	0	0
0	0	0	-0.159842	6.386943	-24.024405	6.386943	44336	-7.248463E-11	-1.379603E+10	19.295548	0.616302	0	0
0	0	0	-0.160128	6.387084	-24.025313	6.387084	44330.875	-4.683909E-11	-2.134969E+10	19.152307	0.615391	0	0
0	0	0	-0.160332	6.387028	-24.025376	6.387028	44327.25	-5.45543E-11	-1.833036E+10	19.328521	0.61353	0	0
0	0	0	-0.160169	6.387147	-24.025604	6.387147	44330.125	-4.040643E-11	-2.474853E+10	19.124461	0.61345	0	0
0	0	0	-0.158413	6.387182	-24.023385	6.387182	44361.75	-3.756914E-11	-2.661759E+10	19.294364	0.610836	0	0
0	0	0	-0.157801	6.387175	-24.022539	6.387175	44372.75	-3.811884E-11	-2.623375E+10	19.151768	0.611114	0	0
0	0	0	-0.158454	6.387105	-24.023151	6.387105	44361	-4.450927E-11	-2.246723E+10	19.197861	0.608975	0	0
0	0	0	-0.157351	6.387147	-24.021833	6.387147	44380.875	-4.045269E-11	-2.472023E+10	19.241375	0.608499	0	0
0	0	0	-0.158046	6.387196	-24.022946	6.387196	44368.375	-3.653877E-11	-2.736819E+10	19.118789	0.607351	0	0
0	0	0	-0.155759	6.387232	-24.020017	6.387232	44409.5	-3.421433E-11	-2.922752E+10	19.307865	0.605291	0	0
0	0	0	-0.155269	6.387161	-24.019099	6.387161	44418.375	-3.928797E-11	-2.545308E+10	19.101472	0.605529	0	0
0	0	0	-0.156371	6.387091	-24.020312	6.387091	44398.5	-4.609528E-11	-2.16942E+10	19.281529	0.602954	0	0
0	0	0	-0.155555	6.387035	-24.019009	6.387035	44413.125	-5.355664E-11	-1.867182E+10	19.134089	0.603231	0	0
0	0	0	-0.155024	6.387112	-24.018587	6.387112	44422.75	-4.3835E-11	-2.281282E+10	19.189923	0.601251	0	0
0	0	0	-0.152778	6.387232	-24.016028	6.387232	44463.25	-3.425574E-11	-2.919219E+10	19.236518	0.600221	0	0
0	0	0	-0.154207	6.387295	-24.018177	6.387295	44437.5	-3.067543E-11	-3.259938E+10	19.11352	0.599231	0	0
0	0	0	-0.153921	6.387077	-24.016981	6.387077	44442.625	-4.780263E-11	-2.091935E+10	19.289008	0.597488	0	0
0	0	0	-0.1529	6.387056	-24.015536	6.387056	44461	-5.055302E-11	-1.978121E+10	19.087027	0.59725	0	0
0	0	0	-0.152941	6.387126	-24.015853	6.387126	44460.25	-4.2469E-11	-2.354659E+10	19.267893	0.594913	0	0
0	0	0	-0.151798	6.387049	-24.014035	6.387049	44480.875	-5.155691E-11	-1.939604E+10	19.101313	0.59523	0	0
0	0	0	-0.15143	6.38707	-24.013622	6.38707	44487.5	-4.872825E-11	-2.052197E+10	19.173147	0.593012	0	0
0	0	0	-0.151634	6.387182	-24.014315	6.387182	44483.875	-3.767256E-11	-2.654452E+10	19.189563	0.592458	0	0
0	0	0	-0.152941	6.387021	-24.015459	6.387021	44460.25	-5.586898E-11	-1.789902E+10	19.098351	0.591269	0	0
0	0	0	-0.152451	6.387028	-24.01483	6.387028	44469.125	-5.472891E-11	-1.827188E+10	19.267607	0.589725	0	0
0	0	0	-0.153064	6.38695	-24.015361	6.38695	44458.125	-7.074811E-11	-1.413465E+10	19.073986	0.589329	0	0
0	0	0	-0.152533	6.387161	-24.015438	6.387161	44467.625	-3.933153E-11	-2.542489E+10	19.255704	0.587031	0	0
0	0	0	-0.152288	6.387119	-24.014953	6.387119	44472.125	-4.317063E-11	-2.31639E+10	19.080917	0.587388	0	0
0	0	0	-0.153145	6.387063	-24.01589	6.387063	44456.625	-4.960393E-11	-2.015969E+10	19.17682	0.58513	0	0
0	0	0	-0.153513	6.387224	-24.016986	6.387224	44450	-3.469296E-11	-2.88243E+10	19.177377	0.584575	0	0
0	0	0	-0.153431	6.38695	-24.015853	6.38695	44451.5	-7.073757E-11	-1.413676E+10	19.088943	0.583308	0	0
0	0	0	-0.153921	6.387168	-24.017322	6.387168	44442.625	-3.873589E-11	-2.581585E+10	19.239307	0.581763	0	0
0	0	0	-0.15682	6.387168	-24.021202	6.387168	44390.375	-3.869035E-11	-2.584624E+10	19.036434	0.581644	0	0
0	0	0	-0.155391	6.38714	-24.019184	6.38714	44416.125	-4.11121E-11	-2.432374E+10	19.230676	0.579228	0	0
0	0	0	-0.155269	6.387098	-24.018863	6.387098	44418.375	-4.532814E-11	-2.206135E+10	19.021125	0.579743	0	0
0	0	0	-0.158331	6.38726	-24.023565	6.38726	44363.25	-3.250204E-11	-3.07673E+10	19.137519	0.577327	0	0
0	0	0	-0.157066	6.387	-24.020899	6.387	44386	-5.953245E-11	-1.679756E+10	19.122504	0.576852	0	0
0	0	0	-0.156045	6.387077	-24.019822	6.387077	44404.375	-4.776149E-11	-2.093737E+10	19.070897	0.575267	0	0
0	0	0	-0.15727	6.387386	-24.022617	6.387386	44382.375	-2.663612E-11	-3.754301E+10	19.210346	0.574198	0	0
0	0	0	-0.158617	6.387203	-24.023737	6.387203	44358.125	-3.603359E-11	-2.775188E+10	19.026658	0.573921	0	0
0	0	0	-0.158821	6.387119	-24.023695	6.387119	44354.375	-4.305632E-11	-2.322539E+10	19.215363	0.571861	0	0
0	0	0	-0.159557	6.387232	-24.025099	6.387232	44341.25	-3.416175E-11	-2.92725E+10	19.02321	0.572138	0	0
0	0	0	-0.16021	6.387267	-24.026105	6.387267	44329.5	-3.208384E-11	-3.116834E+10	19.170472	0.569445	0	0
0	0	0	-0.160618	6.387217	-24.026467	6.387217	44322.125	-3.505109E-11	-2.852978E+10	19.108933	0.569326	0	0
0	0	0	-0.160292	6.387189	-24.025925	6.387189	44328	-3.70158E-11	-2.701549E+10	19.075066	0.567742	0	0
0	0	0	-0.161067	6.386929	-24.025992	6.386929	44314	-7.664373E-11	-1.304738E+10	19.194822	0.566633	0	0
0	0	0	-0.161272	6.387112	-24.026948	6.387112	44310.375	-4.372411E-11	-2.287068E+10	19.001815	0.566435	0	0
0	0	0	-0.161108	6.387239	-24.027202	6.387239	44313.375	-3.370559E-11	-2.966867E+10	19.198992	0.564137	0	0
0	0	0	-0.160741	6.387098	-24.026185	6.387098	44319.875	-4.522763E-11	-2.211038E+10	18.975432	0.564731	0	0
0	0	0	-0.162701	6.387077	-24.028729	6.387077	44284.75	-4.763282E-11	-2.099393E+10	19.136002	0.562038	0	0
0	0	0	-0.1607	6.387098	-24.02613	6.387098	44320.625	-4.522839E-11	-2.211001E+10	19.057018	0.56188	0	0
0	0	0	-0.160659	6.387196	-24.026443	6.387196	44321.375	-3.650007E-11	-2.739721E+10	19.04259	0.560176	0	0
0	0	0	-0.160577	6.387274	-24.026623	6.387274	44322.875	-3.169505E-11	-3.155067E+10	19.132644	0.559305	0	0
0	0	0	-0.158944	6.387161	-24.024017	6.387161	44352.25	-3.922948E-11	-2.549103E+10	18.968302	0.55883	0	0
0	0	0	-0.158781	6.387161	-24.023798	6.387161	44355.125	-3.923203E-11	-2.548938E+10	19.166606	0.55677	0	0
0	0	0	-0.157311	6.387028	-24.021332	6.387028	44381.625	-5.462122E-11	-1.83079E+10	18.956664	0.557087	0	0
0	0	0	-0.157678	6.387224	-24.022559	6.387224	44375	-3.463442E-11	-2.887301E+10	19.126902	0.554552	0	0
0	0	0	-0.158291	6.387126	-24.023011	6.387126	44364	-4.237706E-11	-2.359767E+10	19.02057	0.55471	0	0
0	0	0	-0.155636	6.387126	-24.01946	6.387126	44411.75	-4.242267E-11	-2.35723E+10	19.043065	0.552888	0	0
0	0	0	-0.157433	6.387281	-24.022441	6.387281	44379.375	-3.136006E-11	-3.188769E+10	19.11032	0.551977	0	0
0	0	0	-0.157719	6.387161	-24.022378	6.387161	44374.25	-3.924894E-11	-2.547839E+10	18.957424	0.551344	0	0
0	0	0	-0.156657	6.387021	-24.020432	6.387021	44393.375	-5.578494E-11	-1.792598E+10	19.149796	0.549482	0	0
0	0	0	-0.15682	6.38695	-24.020388	6.38695	44390.375	-7.06403E-11	-1.415623E+10	18.937848	0.549561	0	0
0	0	0	-0.154574	6.387189	-24.018275	6.387189	44430.875	-3.710171E-11	-2.695294E+10	19.124491	0.547066	0	0
0	0	0	-0.153594	6.387049	-24.016439	6.387049	44448.5	-5.151939E-11	-1.941017E+10	18.978767	0.547383	0	0
0	0	0	-0.152941	6.387147	-24.015932	6.387147	44460.25	-4.052504E-11	-2.46761E+10	19.023795	0.545481	0	0
0	0	0	-0.15339	6.387098	-24.016349	6.387098	44452.125	-4.536258E-11	-2.20446E+10	19.048225	0.545085	0	0
0	0	0	-0.152655	6.387063	-24.015234	6.387063	44465.5	-4.961384E-11	-2.015567E+10	18.932592	0.543937	0	0
0	0	0	-0.15339	6.38688	-24.015535	6.38688	44452.125	-9.642432E-11	-1.037083E+10	19.119975	0.542233	0	0
0	0	0	-0.151267	6.386908	-24.012799	6.386908	44490.5	-8.426817E-11	-1.186688E+10	18.913515	0.542233	0	0
0	0	0	-0.153023	6.387098	-24.015858	6.387098	44458.875	-4.536947E-11	-2.204125E+10	19.102523	0.540213	0	0
0	0	0	-0.153227	6.387042	-24.015921	6.387042	44455.125	-5.25466E-11	-1.903073E+10	18.961086	0.540293	0	0
0	0	0	-0.153472	6.386908	-24.01575	6.386908	44450.75	-8.419288E-11	-1.187749E+10	19.031518	0.538352	0	0
0	0	0	-0.154044	6.387084	-24.017171	6.387084	44440.375	-4.695479E-11	-2.129708E+10	19.025522	0.538075	0	0
0	0	0	-0.154411	6.387049	-24.017532	6.387049	44433.75	-5.150229E-11	-1.941661E+10	18.927437	0.536926	0	0
0	0	0	-0.153186	6.387105	-24.016102	6.387105	44455.875	-4.460446E-11	-2.241928E+10	19.097292	0.535381	0	0
0	0	0	-0.15535	6.386943	-24.018394	6.386943	44416.875	-7.261686E-11	-1.377091E+10	18.891701	0.535302	0	0
0	0	0	-0.154084	6.387035	-24.017042	6.387035	44439.75	-5.358875E-11	-1.866063E+10	19.112184	0.533005	0	0
0	0	0	-0.155881	6.387014	-24.019367	6.387014	44407.375	-5.700156E-11	-1.754338E+10	18.907097	0.533559	0	0
0	0	0	-0.156249	6.387133	-24.020305	6.387133	44400.75	-4.174467E-11	-2.395515E+10	19.021206	0.531143	0	0
0	0	0	-0.15584	6.38726	-24.020232	6.38726	44408	-3.253483E-11	-3.073629E+10	18.958072	0.53146	0	0
0	0	0	-0.158781	6.387175	-24.023851	6.387175	44355.125	-3.81037E-11	-2.624417E+10	18.912955	0.529915	0	0
0	0	0	-0.159271	6.387168	-24.02448	6.387168	44346.375	-3.8652E-11	-2.587188E+10	19.045581	0.528766	0	0
0	0	0	-0.158046	6.38707	-24.022473	6.38707	44368.375	-4.859777E-11	-2.057707E+10	18.88026	0.528251	0	0
0	0	0	-0.158821	6.387112	-24.023669	6.387112	44354.375	-4.376753E-11	-2.284799E+10	19.09656	0.526152	0	0
0	0	0	-0.159516	6.387316	-24.025359	6.387316	44341.875	-2.958387E-11	-3.380221E+10	18.876696	0.526746	0	0
0	0	0	-0.158209	6.386993	-24.022403	6.386993	44365.375	-6.087146E-11	-1.642806E+10	19.021683	0.524409	0	0
0	0	0	-0.160251	6.387133	-24.02566	6.387133	44328.75	-4.167698E-11	-2.399406E+10	18.938199	0.524449	0	0
0	0	0	-0.161027	6.38721	-24.026987	6.38721	44314.75	-3.551542E-11	-2.815679E+10	18.925393	0.523023	0	0
0	0	0	-0.160904	6.387203	-24.026797	6.387203	44317	-3.600018E-11	-2.777764E+10	0	0	0	0
0	0	0	-0.159597	6.387295	-24.02539	6.387295	44340.5	-3.060847E-11	-3.267069E+10	0	0	0	0
0	0	0	-0.160659	6.387133	-24.026207	6.387133	44321.375	-4.167005E-11	-2.399805E+10	0	0	0	0
0	0	0	-0.160292	6.38707	-24.025479	6.38707	44328	-4.855355E-11	-2.059582E+10	0	0	0	0
0	0	0	-0.161149	6.387316	-24.027545	6.387316	44312.5	-2.956427E-11	-3.382461E+10	0	0	0	0
0	0	0	-0.161149	6.387274	-24.027388	6.387274	44312.5	-3.168763E-11	-3.155806E+10	0	0	0	0
0	0	0	-0.161598	6.387126	-24.027437	6.387126	44304.5	-4.232022E-11	-2.362937E+10	0	0	0	0
0	0	0	-0.162987	6.387	-24.028822	6.387	44279.5	-5.938961E-11	-1.683796E+10	0	0	0	0
0	0	0	-0.161558	6.387154	-24.027488	6.387154	44305.25	-3.977685E-11	-2.514025E+10	0	0	0	0
0	0	0	-0.162211	6.387253	-24.028729	6.387253	44293.5	-3.285386E-11	-3.043783E+10	0	0	0	0
0	0	0	-0.159802	6.386972	-24.024455	6.386972	44336.75	-6.533383E-11	-1.530601E+10	0	0	0	0
0	0	0	-0.161558	6.387042	-24.027068	6.387042	44305.25	-5.236944E-11	-1.909511E+10	0	0	0	0
0	0	0	-0.158944	6.387056	-24.023623	6.387056	44352.25	-5.042937E-11	-1.982971E+10	0	0	0	0
0	0	0	-0.158331	6.387049	-24.022777	6.387049	44363.25	-5.142057E-11	-1.944747E+10	0	0	0	0
0	0	0	-0.158372	6.386824	-24.021992	6.386824	44362.5	-1.35628E-10	-7.373107E+9	0	0	0	0
0	0	0	-0.158495	6.387007	-24.022838	6.387007	44360.25	-5.819142E-11	-1.718466E+10	0	0	0	0
0	0	0	-0.156616	6.387168	-24.020929	6.387168	44394.125	-3.869362E-11	-2.584405E+10	0	0	0	0
0	0	0	-0.156208	6.387049	-24.019936	6.387049	44401.375	-5.146476E-11	-1.943077E+10	0	0	0	0
0	0	0	-0.156004	6.387049	-24.019663	6.387049	44405.125	-5.146911E-11	-1.942913E+10	0	0	0	0
0	0	0	-0.154125	6.387014	-24.017018	6.387014	44438.875	-5.704199E-11	-1.753095E+10	0	0	0	0
0	0	0	-0.155963	6.386894	-24.01903	6.386894	44405.875	-8.98024E-11	-1.113556E+10	0	0	0	0
0	0	0	-0.155105	6.387077	-24.018565	6.387077	44421.25	-4.777964E-11	-2.092942E+10	0	0	0	0
0	0	0	-0.152941	6.38714	-24.015906	6.38714	44460.25	-4.115295E-11	-2.42996E+10	0	0	0	0
0	0	0	-0.154044	6.386993	-24.01683	6.386993	44440.375	-6.097436E-11	-1.640034E+10	0	0	0	0
0	0	0	-0.154003	6.386979	-24.016723	6.386979	44441.125	-6.391114E-11	-1.564673E+10	0	0	0	0
0	0	0	-0.153227	6.387091	-24.016104	6.387091	44455.125	-4.615407E-11	-2.166656E+10	0	0	0	0
0	0	0	-0.153023	6.387239	-24.016383	6.387239	44458.875	-3.381626E-11	-2.957157E+10	0	0	0	0
0	0	0	-0.154084	6.387161	-24.017514	6.387161	44439.75	-3.930688E-11	-2.544084E+10	0	0	0	0
0	0	0	-0.154452	6.38714	-24.017927	6.38714	44433	-4.112772E-11	-2.43145E+10	0	0	0	0
0	0	0	-0.154779	6.386964	-24.017708	6.386964	44427.125	-6.712272E-11	-1.489809E+10	0	0	0	0
0	0	0	-0.15535	6.387119	-24.019051	6.387119	44416.875	-4.3117E-11	-2.319271E+10	0	0	0	0
0	0	0	-0.154983	6.387077	-24.018402	6.387077	44423.5	-4.778206E-11	-2.092836E+10	0	0	0	0
0	0	0	-0.15437	6.386993	-24.017267	6.386993	44434.5	-6.09663E-11	-1.64025E+10	0	0	0	0
0	0	0	-0.153513	6.386993	-24.016119	6.386993	44450	-6.098757E-11	-1.639678E+10	0	0	0	0
0	0	0	-0.15535	6.387028	-24.01871	6.387028	44416.875	-5.46646E-11	-1.829337E+10	0	0	0	0
0	0	0	-0.154534	6.386866	-24.017013	6.386866	44431.625	-1.039272E-10	-9.622119E+9	0	0	0	0
0	0	0	-0.155922	6.386775	-24.018529	6.386775	44406.625	-2.115477E-10	-4.727067E+9	0	0	0	0
0	0	0	-0.157515	6.387246	-24.022419	6.387246	44377.875	-3.333028E-11	-3.000275E+10	0	0	0	0
0	0	0	-0.157801	6.387056	-24.022093	6.387056	44372.75	-5.045268E-11	-1.982055E+10	0	0	0	0
0	0	0	-0.158005	6.387267	-24.023154	6.387267	44369.125	-3.211252E-11	-3.11405E+10	0	0	0	0
0	0	0	-0.159679	6.387049	-24.02458	6.387049	44339	-5.139247E-11	-1.94581E+10	0	0	0	0
0	0	0	-0.160496	6.387014	-24.025542	6.387014	44324.25	-5.689486E-11	-1.757628E+10	0	0	0	0
0	0	0	-0.159475	6.387112	-24.024543	6.387112	44342.625	-4.375593E-11	-2.285404E+10	0	0	0	0
0	0	0	-0.158576	6.387168	-24.023551	6.387168	44358.75	-3.866279E-11	-2.586466E+10	0	0	0	0
0	0	0	-0.160618	6.386979	-24.025574	6.386979	44322.125	-6.374E-11	-1.568874E+10	0	0	0	0
0	0	0	-0.160904	6.387309	-24.027191	6.387309	44317	-2.990121E-11	-3.344346E+10	0	0	0	0
0	0	0	-0.162497	6.387091	-24.028508	6.387091	44288.375	-4.598094E-11	-2.174814E+10	0	0	0	0
0	0	0	-0.161108	6.387203	-24.02707	6.387203	44313.375	-3.599724E-11	-2.777991E+10	0	0	0	0
0	0	0	-0.159842	6.38707	-24.024878	6.38707	44336	-4.856231E-11	-2.05921E+10	0	0	0	0
0	0	0	-0.161231	6.387	-24.026473	6.387	44311.125	-5.943203E-11	-1.682594E+10	0	0	0	0
0	0	0	-0.161843	6.387091	-24.027634	6.387091	44300.125	-4.599314E-11	-2.174237E+10	0	0	0	0
0	0	0	-0.162742	6.387175	-24.029151	6.387175	44284	-3.80426E-11	-2.628632E+10	0	0	0	0
0	0	0	-0.162578	6.387056	-24.028486	6.387056	44286.875	-5.035504E-11	-1.985898E+10	0	0	0	0
0	0	0	-0.162374	6.387217	-24.028817	6.387217	44290.625	-3.502618E-11	-2.855007E+10	0	0	0	0
0	0	0	-0.160537	6.387133	-24.026043	6.387133	44323.625	-4.167216E-11	-2.399683E+10	0	0	0	0
0	0	0	-0.159842	6.387084	-24.02493	6.387084	44336	-4.684451E-11	-2.134722E+10	0	0	0	0
0	0	0	-0.162456	6.387203	-24.028874	6.387203	44289.125	-3.597754E-11	-2.779512E+10	0	0	0	0
0	0	0	-0.160863	6.387021	-24.02606	6.387021	44317.75	-5.568991E-11	-1.795657E+10	0	0	0	0
0	0	0	-0.161353	6.387063	-24.026873	6.387063	44308.875	-4.943908E-11	-2.022692E+10	0	0	0	0
0	0	0	-0.159924	6.386993	-24.024698	6.386993	44334.625	-6.082927E-11	-1.643945E+10	0	0	0	0
0	0	0	-0.158454	6.387035	-24.022889	6.387035	44361	-5.349378E-11	-1.869376E+10	0	0	0	0
0	0	0	-0.157311	6.387196	-24.021962	6.387196	44381.625	-3.654968E-11	-2.736002E+10	0	0	0	0
0	0	0	-0.157556	6.386936	-24.021319	6.386936	44377.125	-7.459328E-11	-1.340603E+10	0	0	0	0
0	0	0	-0.156943	6.387175	-24.021392	6.387175	44388.25	-3.813215E-11	-2.622459E+10	0	0	0	0
0	0	0	-0.15682	6.387098	-24.020939	6.387098	44390.375	-4.529957E-11	-2.207526E+10	0	0	0	0
0	0	0	-0.156698	6.386803	-24.019673	6.386803	44392.625	-1.603368E-10	-6.23687E+9	0	0	0	0
0	0	0	-0.156984	6.387147	-24.021342	6.387147	44387.5	-4.045873E-11	-2.471655E+10	0	0	0	0
0	0	0	-0.15727	6.386936	-24.020936	6.386936	44382.375	-7.460211E-11	-1.340445E+10	0	0	0	0
0	0	0	-0.153554	6.386986	-24.016148	6.386986	44449.25	-6.242017E-11	-1.602046E+10	0	0	0	0
0	0	0	-0.154248	6.386922	-24.01684	6.386922	44436.75	-7.91475E-11	-1.263464E+10	0	0	0	0
0	0	0	-0.155146	6.38726	-24.019303	6.38726	44420.625	-3.254408E-11	-3.072756E+10	0	0	0	0
0	0	0	-0.154044	6.387358	-24.018195	6.387358	44440.375	-2.778756E-11	-3.598732E+10	0	0	0	0
0	0	0	-0.153104	0	-0.153104	0	44457.375	0	0	0	0	0	0
0	0	0	-0.153799	0	-0.153799	0	44444.875	0	0	0	0	0	0
