Vload_(V)	ILoad_(A)	RsLoad (ohm)	SunsVoc_Voltage_(V)	SunsVoc_Current_(A)	Model_Voltage_(V)	Model_Current_(A)	Carrier_Density_(cm-3)	Lifetime_(s)	Inverse_Lifetime_(s-1)	Efficiency_(%)	Intensity_(suns)	Dark_IV_Voltage_(V)	Dark_IV_Current_(A)
3.518296	6.412847	0	65.88527	-0.926321	66.148847	-0.926321	4.113474E+15	0.000235	4222.149473	19.868866	1.123438	0	0
3.479791	6.414672	-0.509684	65.886168	-0.754122	66.100713	-0.754122	4.114426E+15	0.000241	4121.452485	20.0317	1.122208	0	0
7.327175	6.408887	4.842605	65.734665	-0.288741	65.819026	-0.288741	3.95645E+15	0.000248	4009.048845	19.910796	1.123081	0	0
12.551918	6.391833	5.802204	65.550778	0.166644	65.500537	0.166644	3.771603E+15	0.000253	3921.552528	19.981453	1.121494	0	0
17.193242	6.388949	5.14955	65.373914	0.599269	65.187876	0.599269	3.600721E+15	0.00026	3824.654064	19.971551	1.121376	0	0
22.003988	6.386496	4.450686	65.185535	1.010819	64.862089	1.010819	3.425902E+15	0.000266	3736.788643	19.914473	1.119749	0	0
27.220313	6.30896	4.328569	65.002955	1.381582	64.548093	1.381582	3.263301E+15	0.000272	3655.105091	20.010621	1.118916	0	0
32.01722	6.302654	3.598065	64.823151	1.712457	64.243759	1.712457	3.109524E+15	0.000278	3584.883224	19.85045	1.118044	0	0
36.928395	6.292233	2.863514	64.649146	2.016406	63.949144	2.016406	2.966507E+15	0.000283	3515.849656	20.015023	1.116418	0	0
41.684806	6.294799	2.096933	64.479185	2.296868	63.662045	2.296868	2.832142E+15	0.000289	3448.733825	19.817587	1.116219	0	0
46.200916	6.338649	1.164096	64.306568	2.558352	63.374034	2.558352	2.700898E+15	0.000294	3387.54249	19.981957	1.114236	0	0
50.971058	6.228061	0.827375	64.137464	2.798735	63.093337	2.798735	2.577261E+15	0.000299	3329.526361	19.824187	1.114593	0	0
52.066241	6.170795	0.777549	63.970157	3.023393	62.816594	3.023393	2.459597E+15	0.000305	3272.731881	19.914007	1.112967	0	0
53.221105	6.09872	0.714613	63.800399	3.233022	62.539054	3.233022	2.344797E+15	0.00031	3221.398164	19.855861	1.113681	0	0
54.326634	5.999068	0.667238	63.637175	3.429503	62.27082	3.429503	2.238638E+15	0.000315	3166.321073	19.846057	1.112491	0	0
55.434549	5.861651	0.627089	63.468479	3.613325	61.998012	3.613325	2.133137E+15	0.00032	3118.816695	19.913871	1.11265	0	0
56.564668	5.673494	0.587746	63.304643	3.785833	61.732555	3.785833	2.034651E+15	0.000325	3068.854401	19.797329	1.112412	0	0
57.646783	5.436168	0.552206	63.137907	3.947066	61.465532	3.947066	1.93832E+15	0.00033	3024.192832	19.972512	1.111539	0	0
58.717369	5.125534	0.521676	62.977582	4.095169	61.2092	4.095169	1.84929E+15	0.000335	2979.865387	19.801162	1.111936	0	0
59.761414	4.719203	0.500283	62.813501	4.23486	60.949601	4.23486	1.761712E+15	0.00034	2939.917062	19.988483	1.110627	0	0
60.78421	4.221589	0.478377	62.652686	4.364814	60.696035	4.364814	1.679247E+15	0.000344	2900.662085	19.826304	1.111063	0	0
61.808888	3.604731	0.455736	62.491259	4.485877	60.443659	4.485877	1.59972E+15	0.000348	2865.250632	19.972528	1.108803	0	0
62.746033	2.919508	0.438141	62.328117	4.60026	60.190292	4.60026	1.522558E+15	0.000353	2832.112629	19.890494	1.108842	0	0
63.639983	2.150669	0.431291	62.170978	4.705562	59.946763	4.705562	1.451193E+15	0.000357	2799.071622	19.906973	1.106859	0	0
64.445913	1.356988	0.43921	62.011103	4.802523	59.702166	4.802523	1.381474E+15	0.00036	2773.640641	19.939496	1.106463	0	0
65.109575	0.635276	0.443794	61.857149	4.892706	59.4667	4.892706	1.317006E+15	0.000364	2746.730949	19.839384	1.104836	0	0
54.071381	6.023109	0.680695	61.70001	4.978813	59.227863	4.978813	1.253826E+15	0.000367	2721.956919	19.978362	1.103091	0	0
65.653139	0	0	61.546546	5.06049	58.994507	5.06049	1.1946E+15	0.000371	2694.401232	19.803315	1.1021	0	0
0	0	0	61.387406	5.135797	58.75599	5.135797	1.135691E+15	0.000373	2676.552042	19.988994	1.099403	0	0
0	0	0	61.235085	5.206016	58.527526	5.206016	1.081623E+15	0.000376	2656.001905	19.797647	1.099006	0	0
0	0	0	61.083091	5.271056	58.301125	5.271056	1.02986E+15	0.000379	2639.330387	19.942225	1.096507	0	0
0	0	0	60.934691	5.333324	58.079772	5.333324	9.813672E+14	0.000382	2618.850845	19.825485	1.096071	0	0
0	0	0	60.778165	5.392045	57.849061	5.392045	9.323403E+14	0.000383	2606.764194	19.881283	1.093612	0	0
0	0	0	60.631561	5.446816	57.632258	5.446816	8.883358E+14	0.000386	2589.221926	19.879407	1.093017	0	0
0	0	0	60.484509	5.498084	57.416022	5.498084	8.459979E+14	0.000388	2574.62718	19.821464	1.091074	0	0
0	0	0	60.340764	5.547255	57.204445	5.547255	8.063023E+14	0.000391	2556.272394	19.934277	1.089923	0	0
0	0	0	60.195018	5.592663	56.99174	5.592663	7.677063E+14	0.000393	2544.044495	19.778828	1.088813	0	0
0	0	0	60.054091	5.634812	56.786449	5.634812	7.31919E+14	0.000395	2531.388518	19.948279	1.087266	0	0
0	0	0	59.911367	5.674983	56.579404	5.674983	6.971625E+14	0.000397	2520.454705	19.770535	1.087068	0	0
0	0	0	59.770277	5.712538	56.375438	5.712538	6.64228E+14	0.000398	2510.851135	19.943848	1.084609	0	0
0	0	0	59.624817	5.748476	56.166267	5.748476	6.317078E+14	0.000399	2504.693713	19.810555	1.084648	0	0
0	0	0	59.485319	5.782205	55.96562	5.782205	6.018435E+14	0.000401	2495.57054	19.906213	1.082229	0	0
0	0	0	59.344106	5.813613	55.763706	5.813613	5.728872E+14	0.000401	2491.193702	19.880357	1.081594	0	0
0	0	0	59.21008	5.843288	55.571736	5.843288	5.465525E+14	0.000403	2481.964343	19.845587	1.079532	0	0
0	0	0	59.068949	5.871672	55.370957	5.871672	5.199893E+14	0.000403	2478.791079	19.934341	1.078342	0	0
0	0	0	58.93476	5.898284	55.179918	5.898284	4.958065E+14	0.000404	2471.895764	19.806092	1.076438	0	0
0	0	0	58.797182	5.923717	54.984869	5.923717	4.720623E+14	0.000405	2467.945692	19.975066	1.074416	0	0
0	0	0	58.662298	5.947583	54.793991	5.947583	4.497795E+14	0.000406	2463.858963	19.793981	1.073265	0	0
0	0	0	58.525986	5.970115	54.601803	5.970115	4.282278E+14	0.000406	2462.567596	19.972689	1.07033	0	0
0	0	0	58.3949	5.991125	54.417128	5.991125	4.083875E+14	0.000407	2459.689634	19.804958	1.069577	0	0
0	0	0	58.263407	6.011181	54.232281	6.011181	3.893267E+14	0.000407	2457.436552	19.926611	1.066483	0	0
0	0	0	58.131504	6.030433	54.047179	6.030433	3.710235E+14	0.000407	2455.092556	19.848937	1.065492	0	0
0	0	0	58.001277	6.048232	53.865	6.048232	3.537265E+14	0.000407	2455.307212	19.852818	1.063072	0	0
0	0	0	57.867292	6.065259	53.678208	6.065259	3.36704E+14	0.000407	2459.003128	19.899344	1.061684	0	0
0	0	0	57.741066	6.08113	53.50214	6.08113	3.21359E+14	0.000407	2458.794905	19.793659	1.059899	0	0
0	0	0	57.610144	6.096054	53.320389	6.096054	3.06126E+14	0.000406	2465.040456	19.932717	1.058114	0	0
0	0	0	57.484122	6.110833	53.14496	6.110833	2.920961E+14	0.000406	2462.92998	19.761042	1.056766	0	0
0	0	0	57.352342	6.124595	52.962527	6.124595	2.780643E+14	0.000405	2469.336545	19.945934	1.054426	0	0
0	0	0	57.224156	6.137474	52.78526	6.137474	2.650186E+14	0.000404	2475.144172	19.778851	1.05391	0	0
0	0	0	57.09887	6.149847	52.611998	6.149847	2.528211E+14	0.000404	2477.992081	19.925713	1.051174	0	0
0	0	0	56.971419	6.161945	52.43594	6.161945	2.409527E+14	0.000403	2480.451027	19.828407	1.050658	0	0
0	0	0	56.845724	6.173085	52.262744	6.173085	2.297607E+14	0.000402	2485.797658	19.872804	1.048239	0	0
0	0	0	56.722846	6.183632	52.093549	6.183632	2.19293E+14	0.000402	2489.889944	19.8877	1.047287	0	0
0	0	0	56.598621	6.193713	51.922805	6.193713	2.091681E+14	0.000401	2495.610087	19.820293	1.044986	0	0
0	0	0	56.471783	6.203348	51.748838	6.203348	1.992864E+14	0.000399	2504.196144	19.946344	1.043439	0	0
0	0	0	56.350131	6.212884	51.581642	6.212884	1.902249E+14	0.000399	2504.070779	19.783553	1.041972	0	0
0	0	0	56.229704	6.221555	51.41661	6.221555	1.816403E+14	0.000399	2508.709769	19.964905	1.039553	0	0
0	0	0	56.101477	6.229781	51.241557	6.229781	1.729048E+14	0.000396	2522.130551	19.780707	1.038601	0	0
0	0	0	55.985092	6.237856	51.0821	6.237856	1.653236E+14	0.000397	2521.442048	19.958073	1.03519	0	0
0	0	0	55.863318	6.24534	50.915921	6.24534	1.577311E+14	0.000395	2529.785663	19.812695	1.034674	0	0
0	0	0	55.740726	6.252495	50.748836	6.252495	1.504248E+14	0.000394	2539.356866	19.905498	1.031382	0	0
0	0	0	55.623893	6.259075	50.589709	6.259075	1.437641E+14	0.000392	2547.982715	19.871124	1.030073	0	0
0	0	0	55.500199	6.265787	50.42136	6.265787	1.370208E+14	0.000391	2556.703725	19.843534	1.027416	0	0
0	0	0	55.381201	6.272093	50.259445	6.272093	1.308209E+14	0.00039	2563.031056	19.927308	1.025512	0	0
0	0	0	55.261223	6.27781	50.096648	6.27781	1.248437E+14	0.000388	2576.662386	19.791462	1.023648	0	0
0	0	0	55.141041	6.283465	49.933563	6.283465	1.191206E+14	0.000386	2587.373975	19.95402	1.02103	0	0
0	0	0	55.022452	6.289175	49.772463	6.289175	1.13722E+14	0.000386	2590.586736	19.768605	1.01988	0	0
0	0	0	54.90329	6.294392	49.610956	6.294392	1.08536E+14	0.000385	2599.87867	19.947827	1.016866	0	0
0	0	0	54.782128	6.299431	49.446896	6.299431	1.034978E+14	0.000383	2610.446418	19.783313	1.016192	0	0
0	0	0	54.66313	6.304347	49.285736	6.304347	9.877073E+13	0.000382	2616.830536	19.906706	1.013177	0	0
0	0	0	54.545807	6.308591	49.127303	6.308591	9.431562E+13	0.00038	2633.252746	19.838436	1.012225	0	0
0	0	0	54.426605	6.312875	48.966305	6.312875	8.998938E+13	0.000378	2646.444977	19.857373	1.009489	0	0
0	0	0	54.308301	6.316951	48.806622	6.316951	8.588692E+13	0.000376	2659.789742	19.905975	1.008061	0	0
0	0	0	54.190202	6.321111	48.647087	6.321111	8.197347E+13	0.000375	2665.879833	19.810745	1.006038	0	0
0	0	0	54.072674	6.324847	48.488632	6.324847	7.825181E+13	0.000373	2678.958391	19.951071	1.003936	0	0
0	0	0	53.957352	6.328462	48.333151	6.328462	7.476054E+13	0.000372	2688.862356	19.774568	1.002627	0	0
0	0	0	53.838068	6.331845	48.172604	6.331845	7.130958E+13	0.00037	2705.980907	19.969909	0.999534	0	0
0	0	0	53.721439	6.335048	48.015684	6.335048	6.808629E+13	0.000367	2722.003085	19.781596	0.99878	0	0
0	0	0	53.606443	6.338072	47.861047	6.338072	6.504798E+13	0.000365	2738.429281	19.941225	0.995409	0	0
0	0	0	53.48867	6.341116	47.702687	6.341116	6.20741E+13	0.000363	2752.775303	19.826148	0.994496	0	0
0	0	0	53.373184	6.343968	47.547489	6.343968	5.928761E+13	0.000361	2767.564325	19.886816	0.991244	0	0
0	0	0	53.256147	6.346741	47.39028	6.346741	5.658905E+13	0.000359	2782.830324	19.875643	0.990173	0	0
0	0	0	53.141028	6.349404	47.235678	6.349404	5.405258E+13	0.000358	2796.057586	19.81566	0.987476	0	0
0	0	0	53.02395	6.351772	47.078729	6.351772	5.158764E+13	0.000355	2820.311014	19.917792	0.98581	0	0
0	0	0	52.909526	6.354254	46.925153	6.354254	4.928557E+13	0.000353	2832.059831	19.761612	0.983986	0	0
0	0	0	52.793795	6.356493	46.770051	6.356493	4.706015E+13	0.000351	2852.628959	19.943321	0.981329	0	0
0	0	0	52.680759	6.358521	46.618688	6.358521	4.498223E+13	0.000348	2877.013273	19.749127	0.980258	0	0
0	0	0	52.562701	6.360715	46.460502	6.360715	4.290855E+13	0.000346	2894.278573	19.93638	0.976966	0	0
0	0	0	52.451257	6.362537	46.311395	6.362537	4.103773E+13	0.000342	2920.420613	19.7783	0.976371	0	0
0	0	0	52.336956	6.364159	46.158683	6.364159	3.920257E+13	0.000338	2958.618222	19.883873	0.973436	0	0
0	0	0	52.223022	6.36589	46.00633	6.36589	3.745403E+13	0.000335	2986.596904	19.837459	0.972643	0	0
0	0	0	52.113376	6.36792	45.859336	6.36792	3.584415E+13	0.000335	2985.856478	19.82787	0.969985	0	0
0	0	0	51.990825	6.369514	45.695681	6.369514	3.412567E+13	0.000331	3024.958994	19.894183	0.968835	0	0
0	0	0	51.870725	6.371349	45.535008	6.371349	3.252068E+13	0.000329	3039.842458	19.780391	0.967011	0	0
0	0	0	51.753564	6.372713	45.378674	6.372713	3.102703E+13	0.000325	3081.457695	19.954293	0.96475	0	0
0	0	0	51.638732	6.374234	45.225244	6.374234	2.962903E+13	0.000322	3104.555895	19.761945	0.963798	0	0
0	0	0	51.52737	6.375941	45.076199	6.375941	2.833293E+13	0.000322	3102.989843	19.957842	0.961061	0	0
0	0	0	51.40094	6.37714	44.907717	6.37714	2.692945E+13	0.000317	3158.64857	19.780845	0.960347	0	0
0	0	0	51.286271	6.378581	44.754533	6.378581	2.571625E+13	0.000315	3174.167241	19.929358	0.957333	0	0
0	0	0	51.166824	6.379656	44.595386	6.379656	2.451013E+13	0.00031	3225.904464	19.828828	0.956579	0	0
0	0	0	51.048316	6.38109	44.437098	6.38109	2.336898E+13	0.000309	3237.283305	19.87823	0.953962	0	0
0	0	0	50.93136	6.382227	44.281156	6.382227	2.229451E+13	0.000306	3271.849947	19.896736	0.952693	0	0
0	0	0	50.80542	6.383249	44.113431	6.383249	2.11923E+13	0.000301	3327.092684	19.823532	0.950313	0	0
0	0	0	50.685443	6.384369	43.953481	6.384369	2.019267E+13	0.000298	3359.700018	19.945999	0.948568	0	0
0	0	0	50.561544	6.385476	43.788342	6.385476	1.920953E+13	0.000295	3394.383727	19.781989	0.9471	0	0
0	0	0	50.434257	6.386464	43.61883	6.386464	1.824903E+13	0.00029	3444.039358	19.962068	0.944602	0	0
0	0	0	50.303825	6.387516	43.445075	6.387516	1.731432E+13	0.000287	3485.215739	19.781232	0.94361	0	0
0	0	0	50.169268	6.388732	43.265669	6.388732	1.639994E+13	0.000285	3502.85599	19.94231	0.940953	0	0
0	0	0	50.038387	6.389536	43.09156	6.389536	1.555665E+13	0.00028	3569.591376	19.808439	0.940199	0	0
0	0	0	49.901217	6.390236	42.90923	6.390236	1.471912E+13	0.000273	3659.433999	19.901971	0.937224	0	0
0	0	0	49.762005	6.391206	42.72389	6.391206	1.3915E+13	0.00027	3704.853805	19.869039	0.936352	0	0
0	0	0	49.61777	6.391651	42.532469	6.391651	1.312799E+13	0.00026	3846.216445	19.838424	0.933853	0	0
0	0	0	49.471697	6.392888	42.337726	6.392888	1.237611E+13	0.00026	3841.912305	19.915635	0.932386	0	0
0	0	0	49.31856	6.393712	42.134075	6.393712	1.16339E+13	0.000255	3918.271725	19.779598	0.93068	0	0
0	0	0	49.165056	6.394342	41.930144	6.394342	1.093441E+13	0.000248	4031.705265	19.949226	0.928419	0	0
0	0	0	49.008447	6.395059	41.721995	6.395059	1.026396E+13	0.000242	4128.553897	19.763952	0.927349	0	0
0	0	0	48.848204	6.395693	41.509118	6.395693	9.620351E+12	0.000235	4247.652409	19.95577	0.924453	0	0
0	0	0	48.685348	6.39651	41.292559	6.39651	9.00746E+12	0.000231	4320.605179	19.776057	0.923858	0	0
0	0	0	48.512977	6.396909	41.063876	6.396909	8.401125E+12	0.000221	4519.407626	19.915357	0.920963	0	0
0	0	0	48.342647	6.397812	40.837298	6.397812	7.841974E+12	0.000219	4567.463324	19.81963	0.920328	0	0
0	0	0	48.16019	6.398282	40.595156	6.398282	7.284129E+12	0.00021	4763.27362	19.859617	0.91779	0	0
0	0	0	47.974342	6.398926	40.348311	6.398926	6.756609E+12	0.000204	4908.319291	19.876362	0.917036	0	0
0	0	0	47.776366	6.399457	40.08553	6.399457	6.236534E+12	0.000196	5114.835466	19.807691	0.914815	0	0
0	0	0	47.574634	6.400062	39.817673	6.400062	5.747671E+12	0.000189	5299.07402	19.937693	0.913229	0	0
0	0	0	47.364244	6.400487	39.53856	6.400487	5.278535E+12	0.000179	5578.307141	19.765258	0.912039	0	0
0	0	0	47.141031	6.401123	39.242196	6.401123	4.822533E+12	0.000173	5791.401206	19.95459	0.909699	0	0
0	0	0	46.905077	6.401707	38.929012	6.401707	4.3832E+12	0.000165	6054.678565	19.765867	0.908945	0	0
0	0	0	46.658261	6.401994	38.601802	6.401994	3.966354E+12	0.000153	6518.606393	19.937587	0.906169	0	0
0	0	0	46.402419	6.402716	38.26208	6.402716	3.576011E+12	0.000148	6749.136875	19.802203	0.905653	0	0
0	0	0	46.13886	6.403032	37.912639	6.403032	3.213981E+12	0.000137	7274.865863	19.89327	0.902917	0	0
0	0	0	45.86452	6.403544	37.548658	6.403544	2.875981E+12	0.00013	7705.741622	19.86581	0.902163	0	0
0	0	0	45.577765	6.403865	37.168472	6.403865	2.560587E+12	0.00012	8356.534346	19.832844	0.899863	0	0
0	0	0	45.274309	6.404322	36.765977	6.404322	2.264381E+12	0.000111	8969.155997	19.927522	0.898356	0	0
0	0	0	44.954844	6.404838	36.342187	6.404838	1.989473E+12	0.000104	9590.917332	19.791273	0.896729	0	0
0	0	0	44.61345	6.405193	35.889554	6.405193	1.732457E+12	9.500975E-5	10525.235989	19.961849	0.894508	0	0
0	0	0	44.252373	6.405273	35.41122	6.405273	1.496643E+12	8.294266E-5	12056.521489	19.768247	0.893675	0	0
0	0	0	43.873736	6.405726	34.909104	6.405726	1.283745E+12	7.566945E-5	13215.37355	19.963663	0.89082	0	0
0	0	0	43.481542	6.406164	34.389035	6.406164	1.095088E+12	6.878088E-5	14538.923436	19.784564	0.890344	0	0
0	0	0	43.067418	6.406687	33.839781	6.406687	9.258803E+11	6.308993E-5	15850.389337	19.919556	0.887567	0	0
0	0	0	42.634795	6.406968	33.266356	6.406968	7.769636E+11	5.547154E-5	18027.261189	19.830573	0.886735	0	0
0	0	0	42.181182	6.407197	32.665193	6.407197	6.464694E+11	4.802719E-5	20821.539578	19.863196	0.884355	0	0
0	0	0	41.718544	6.407338	32.052199	6.407338	5.359242E+11	4.083544E-5	24488.532651	19.886973	0.883443	0	0
0	0	0	41.241083	6.40771	31.41921	6.40771	4.416176E+11	3.608602E-5	27711.561768	19.810288	0.881261	0	0
0	0	0	40.74353	6.407861	30.759934	6.407861	3.609522E+11	3.038566E-5	32910.262623	19.940618	0.879675	0	0
0	0	0	40.228907	6.408228	30.077697	6.408228	2.929852E+11	2.662544E-5	37558.062105	19.772115	0.878366	0	0
0	0	0	39.699053	6.408445	29.375507	6.408445	2.363513E+11	2.253841E-5	44368.707482	19.950207	0.876224	0	0
0	0	0	39.146493	6.40864	28.643266	6.40864	1.889171E+11	1.88496E-5	53051.514737	19.770658	0.875312	0	0
0	0	0	38.564163	6.408756	27.871712	6.408756	1.491906E+11	1.530821E-5	65324.441971	19.939009	0.872535	0	0
0	0	0	37.953125	6.409012	27.061886	6.409012	1.164544E+11	1.274715E-5	78448.895507	19.80474	0.871901	0	0
0	0	0	37.321097	6.409366	26.22407	6.409366	9.013083E+10	1.086826E-5	92011.054961	19.897991	0.869006	0	0
0	0	0	36.673388	6.409457	25.365923	6.409457	6.931529E+10	8.582825E-6	116511.757013	19.86299	0.86845	0	0
0	0	0	36.002198	6.40954	24.47668	6.40954	5.280191E+10	6.701985E-6	149209.517129	19.841792	0.865952	0	0
0	0	0	35.311529	6.409777	23.561346	6.409777	3.990615E+10	5.456612E-6	183263.909214	19.914824	0.86496	0	0
0	0	0	34.62286	6.409872	22.648911	6.409872	3.018436E+10	4.259057E-6	234793.763289	19.784111	0.863255	0	0
0	0	0	33.93117	6.409967	21.732468	6.409967	2.280298E+10	3.322817E-6	300949.50961	19.950257	0.861033	0	0
0	0	0	33.226698	6.410202	20.798813	6.410202	1.713762E+10	2.719117E-6	367766.412341	19.757552	0.860121	0	0
0	0	0	32.51214	6.410337	19.851977	6.410337	1.282724E+10	2.145223E-6	466151.970316	19.954141	0.857345	0	0
0	0	0	31.805789	6.41043	18.916089	6.41043	9.632984E+9	1.672929E-6	597753.887799	19.759319	0.856988	0	0
0	0	0	31.094048	6.410728	17.972636	6.410728	7.218373E+9	1.429555E-6	699518.2785	19.912156	0.854013	0	0
0	0	0	30.380225	6.410785	17.026903	6.410785	5.404444E+9	1.099959E-6	909124.761646	19.800395	0.853696	0	0
0	0	0	29.657662	6.410898	16.069469	6.410898	4.032031E+9	8.684239E-7	1151511.331187	19.856037	0.85084	0	0
0	0	0	28.921624	6.411047	15.094099	6.411047	2.99174E+9	6.97597E-7	1433492.485978	19.857034	0.850206	0	0
0	0	0	28.175457	6.411061	14.105597	6.411061	2.210755E+9	5.1965E-7	1924372.222987	19.792511	0.848223	0	0
0	0	0	27.420062	6.411182	13.104631	6.411182	1.627542E+9	4.101989E-7	2437841.543634	19.926185	0.846438	0	0
0	0	0	26.652783	6.41121	12.088121	6.41121	1.192426E+9	3.057513E-7	3270631.959603	19.759092	0.845169	0	0
0	0	0	25.883177	6.411436	11.068069	6.411436	8.728124E+8	2.596782E-7	3850920.14235	19.956561	0.842829	0	0
0	0	0	25.128231	6.411373	10.068102	6.411373	6.426753E+8	1.82973E-7	5465287.659397	19.756831	0.842234	0	0
0	0	0	24.37794	6.411387	9.074121	6.411387	4.741132E+8	1.362944E-7	7337059.240245	19.938288	0.839616	0	0
0	0	0	23.629814	6.411507	8.082749	6.411507	3.500689E+8	1.096581E-7	9119255.816281	19.788812	0.83918	0	0
0	0	0	22.88814	6.41179	7.099515	6.41179	2.591559E+8	1.028778E-7	9720272.535386	19.903299	0.836165	0	0
0	0	0	22.174317	6.411557	6.154445	6.411557	1.940316E+8	6.31116E-8	1.584495E+7	19.849508	0.835689	0	0
0	0	0	21.475929	6.411839	5.228534	6.411839	1.461847E+8	6.088091E-8	1.642551E+7	19.841698	0.833191	0	0
0	0	0	20.798777	6.411988	4.33108	6.411988	1.110888E+8	5.425086E-8	1.843289E+7	19.897047	0.83204	0	0
0	0	0	20.140899	6.411875	3.459831	6.411875	8.508102E+7	3.672102E-8	2.723236E+7	19.775025	0.830295	0	0
0	0	0	19.497151	6.411903	2.606935	6.411903	6.553645E+7	2.913224E-8	3.432623E+7	19.934434	0.828352	0	0
0	0	0	18.877824	6.411974	1.786276	6.411974	5.098389E+7	2.449614E-8	4.082275E+7	19.741088	0.82736	0	0
0	0	0	18.282875	6.411945	0.998177	6.411945	4.005675E+7	1.864304E-8	5.363933E+7	19.929353	0.824941	0	0
0	0	0	17.708591	6.411995	0.237241	6.411995	3.173634E+7	1.562753E-8	6.398965E+7	19.746541	0.824306	0	0
0	0	0	17.153825	6.412193	-0.498245	6.412193	2.534399E+7	1.625098E-8	6.153477E+7	19.915768	0.821411	0	0
0	0	0	16.618662	6.41208	-1.206911	6.41208	2.040067E+7	1.115509E-8	8.964521E+7	19.787054	0.820935	0	0
0	0	0	16.106122	6.412157	-1.886135	6.412157	1.657286E+7	1.008276E-8	9.917924E+7	19.854361	0.818238	0	0
0	0	0	15.617145	6.412249	-2.534186	6.412249	1.35925E+7	9.539372E-9	1.048287E+8	19.846944	0.817643	0	0
0	0	0	15.140745	6.412186	-3.165136	6.412186	1.12051E+7	7.108223E-9	1.406821E+8	19.79319	0.815462	0	0
0	0	0	14.680966	6.412313	-3.774613	6.412313	9299486.25	7.302842E-9	1.36933E+8	19.899886	0.814074	0	0
0	0	0	14.230661	6.412172	-4.370766	6.412172	7747653.5	4.812155E-9	2.078071E+8	19.743885	0.812844	0	0
0	0	0	13.794077	6.412383	-4.949768	6.412383	6490787.5	5.873489E-9	1.702566E+8	19.928275	0.810821	0	0
0	0	0	13.377094	6.412341	-5.502062	6.412341	5481204.25	4.544636E-9	2.200396E+8	19.735201	0.80975	0	0
0	0	0	12.97661	6.412214	-6.032246	6.412214	4659717	3.087884E-9	3.238463E+8	19.925599	0.807371	0	0
0	0	0	12.58368	6.41232	-6.553112	6.41232	3973500.75	3.162172E-9	3.162383E+8	19.751217	0.807014	0	0
0	0	0	12.204063	6.412355	-7.056134	6.412355	3406678.25	2.905681E-9	3.441534E+8	19.887832	0.804158	0	0
0	0	0	11.835309	6.412256	-7.544361	6.412256	2933605	2.083455E-9	4.799719E+8	19.802504	0.803603	0	0
0	0	0	11.4795	6.412518	-8.016529	6.412518	2539519.25	3.233754E-9	3.092381E+8	19.827414	0.801223	0	0
0	0	0	11.13247	6.412419	-8.475974	6.412419	2206212.25	2.160953E-9	4.627588E+8	19.863633	0.800271	0	0
0	0	0	10.79124	6.412525	-8.928363	6.412525	1921162.5	2.499934E-9	4.000105E+8	19.767185	0.798526	0	0
0	0	0	10.462628	6.412518	-9.363689	6.412518	1681523	2.141206E-9	4.670264E+8	19.899925	0.79686	0	0
0	0	0	10.13765	6.412687	-9.794749	6.412687	1473945.5	3.864753E-9	2.587488E+8	19.726443	0.795512	0	0
0	0	0	9.822392	6.41227	-10.211106	6.41227	1297093.75	9.437623E-10	1.059589E+9	19.912382	0.793172	0	0
0	0	0	9.516689	6.412482	-10.616765	6.412482	1145892.5	1.317923E-9	7.587696E+8	19.707361	0.792696	0	0
0	0	0	9.217684	6.412546	-11.01309	6.412546	1015069	1.413759E-9	7.073343E+8	19.902126	0.789681	0	0
0	0	0	8.927989	6.412751	-11.397529	6.412751	902582.25	3.925874E-9	2.547204E+8	19.744451	0.789483	0	0
0	0	0	8.645645	6.412673	-11.771337	6.412673	804956	1.939455E-9	5.156089E+8	19.851679	0.786865	0	0
0	0	0	8.36963	6.4128	-12.137412	6.4128	719734.25	6.42093E-9	1.557407E+8	19.803487	0.78627	0	0
0	0	0	8.097495	6.412482	-12.496921	6.412482	644547.75	7.413126E-10	1.348959E+9	19.786095	0.78393	0	0
0	0	0	7.833528	6.412595	-12.846992	6.412595	579130.25	9.649295E-10	1.036345E+9	19.856603	0.78282	0	0
0	0	0	7.573235	6.412687	-13.192127	6.412687	521128.25	1.366424E-9	7.318375E+8	19.731281	0.781114	0	0
0	0	0	7.320212	6.41268	-13.527314	6.41268	470319.25	1.181078E-9	8.46684E+8	19.887178	0.779488	0	0
0	0	0	7.069312	6.412687	-13.859733	6.412687	424829.5	1.113924E-9	8.977276E+8	19.704562	0.778497	0	0
0	0	0	6.825272	6.412793	-14.183388	6.412793	384808.5	2.984808E-9	3.3503E+8	19.891042	0.776395	0	0
0	0	0	6.586256	6.41273	-14.499833	6.41273	349268.25	1.245618E-9	8.028146E+8	19.710421	0.775522	0	0
0	0	0	6.351649	6.412553	-14.810061	6.412553	317577.75	4.529305E-10	2.207844E+9	19.86692	0.773222	0	0
0	0	0	6.117452	6.412687	-15.120773	6.412687	288810.5	7.572753E-10	1.320524E+9	19.755347	0.772706	0	0
0	0	0	5.88795	6.41268	-15.424797	6.41268	263149.75	6.608288E-10	1.513251E+9	19.824361	0.770088	0	0
0	0	0	5.661715	6.412652	-15.724422	6.412652	240086.75	5.157233E-10	1.939024E+9	19.816323	0.769493	0	0
0	0	0	5.4345	6.412899	-16.026267	6.412899	218957.75	-1.772414E-9	-5.642022E+8	19.77069	0.76759	0	0
0	0	0	5.20651	6.412836	-16.328102	6.412836	199625.75	7.145103E-9	1.39956E+8	19.869514	0.76636	0	0
0	0	0	4.968392	6.412758	-16.643304	6.412758	181254.5	8.506596E-10	1.175558E+9	19.71499	0.765051	0	0
0	0	0	4.747302	6.412963	-16.9369	6.412963	165714.25	-6.025716E-10	-1.659554E+9	19.898652	0.762989	0	0
0	0	0	4.530501	6.412708	-17.223263	6.412708	151770	4.58673E-10	2.180203E+9	19.696052	0.762315	0	0
0	0	0	4.30786	6.4128	-17.518534	6.4128	138670.5	1.237116E-9	8.083315E+8	19.889107	0.759974	0	0
0	0	0	4.092651	6.412786	-17.803599	6.412786	127083.75	8.719123E-10	1.146904E+9	19.706646	0.759578	0	0
0	0	0	3.881567	6.412687	-18.082909	6.412687	116660.25	3.058889E-10	3.269161E+9	19.849394	0.757039	0	0
0	0	0	3.669216	6.412687	-18.364234	6.412687	107036.75	2.806556E-10	3.563085E+9	19.73603	0.75692	0	0
0	0	0	3.457152	6.412927	-18.646009	6.412927	98218.5	-5.146134E-10	-1.943206E+9	19.772385	0.754422	0	0
0	0	0	3.241821	6.412737	-18.930626	6.412737	90007.25	3.414967E-10	2.928286E+9	19.797844	0.753589	0	0
0	0	0	3.021181	6.412949	-19.223669	6.412949	82305.5	-3.410205E-10	-2.932375E+9	19.718537	0.751804	0	0
0	0	0	2.796212	6.412822	-19.521272	6.412822	75130.5	1.219652E-9	8.199062E+8	19.843454	0.750535	0	0
0	0	0	2.561646	6.412807	-19.83198	6.412807	68314.75	7.171314E-10	1.394445E+9	19.694578	0.749305	0	0
0	0	0	2.308337	6.412878	-20.167818	6.412878	61647	-8.439624E-10	-1.184887E+9	19.882497	0.747322	0	0
0	0	0	2.039959	6.412977	-20.52372	6.412977	55291.25	-1.791257E-10	-5.582672E+9	19.685684	0.746727	0	0
0	0	0	1.750632	6.412793	-20.906381	6.412793	49171.5	3.814042E-10	2.621891E+9	19.874281	0.744149	0	0
0	0	0	1.453219	6.412765	-21.300299	6.412765	43585.75	2.220991E-10	4.502495E+9	19.70797	0.74407	0	0
0	0	0	1.18333	6.4128	-21.65798	6.4128	39068.25	3.485383E-10	2.869125E+9	19.828713	0.741413	0	0
0	0	0	0.979637	6.412949	-21.928366	6.412949	35971.5	-1.490425E-10	-6.709495E+9	19.768999	0.740937	0	0
0	0	0	0.829603	6.412956	-22.127161	6.412956	33848.5	-1.311037E-10	-7.627551E+9	19.760125	0.738874	0	0
0	0	0	0.726491	6.413111	-22.264324	6.413111	32462.5	-5.165453E-11	-1.935939E+10	19.82554	0.737724	0	0
0	0	0	0.653924	6.412744	-22.359145	6.412744	31521.5	1.277538E-10	7.827558E+9	19.699125	0.736375	0	0
0	0	0	0.601449	6.41297	-22.429477	6.41297	30858	-1.057352E-10	-9.457591E+9	19.856493	0.734829	0	0
0	0	0	0.556692	6.412935	-22.488645	6.412935	30303	-1.459054E-10	-6.853758E+9	19.667834	0.733797	0	0
0	0	0	0.52239	6.412935	-22.53409	6.412935	29884.5	-1.438903E-10	-6.949737E+9	19.867612	0.731656	0	0
0	0	0	0.488495	6.41292	-22.578944	6.41292	29476.5	-1.693777E-10	-5.903966E+9	19.666363	0.7311	0	0
0	0	0	0.478	6.412878	-22.592695	6.412878	29351.5	-4.018291E-10	-2.48862E+9	19.838429	0.728721	0	0
0	0	0	0.458113	6.413076	-22.619754	6.413076	29115.75	-5.349199E-11	-1.869439E+10	19.688155	0.728403	0	0
0	0	0	0.432427	6.412885	-22.653098	6.412885	28814	-3.205997E-10	-3.119155E+9	19.789271	0.725786	0	0
0	0	0	0.41601	6.413062	-22.675482	6.413062	28623	-5.605319E-11	-1.78402E+10	19.739034	0.725429	0	0
0	0	0	0.410048	6.412906	-22.682822	6.412906	28553.75	-2.03422E-10	-4.915889E+9	19.717232	0.723327	0	0
0	0	0	0.404617	6.412765	-22.689508	6.412765	28491	1.45181E-10	6.887951E+9	19.788099	0.722533	0	0
0	0	0	0.397226	6.41297	-22.700038	6.41297	28405.75	-9.733252E-11	-1.027406E+10	19.663358	0.720868	0	0
0	0	0	0.386608	6.412871	-22.713749	6.412871	28283.75	-5.031429E-10	-1.987507E+9	19.819192	0.71936	0	0
0	0	0	0.372642	6.413041	-22.732862	6.413041	28124.25	-6.111998E-11	-1.636126E+10	19.640767	0.718329	0	0
0	0	0	0.362229	6.413048	-22.746684	6.413048	28005.5	-5.871435E-11	-1.703161E+10	19.839042	0.716108	0	0
0	0	0	0.352918	6.413033	-22.758968	6.413033	27900	-6.293456E-11	-1.588952E+10	19.648819	0.71591	0	0
0	0	0	0.345241	6.412871	-22.768553	6.412871	27813.25	-4.947731E-10	-2.021129E+9	19.812486	0.713411	0	0
0	0	0	0.34034	6.412878	-22.775071	6.412878	27758.25	-3.800171E-10	-2.631461E+9	19.683225	0.713173	0	0
0	0	0	0.336869	6.412793	-22.779364	6.412793	27719	2.150055E-10	4.651044E+9	19.759503	0.710793	0	0
0	0	0	0.334868	6.412871	-22.782295	6.412871	27696.75	-4.927006E-10	-2.02963E+9	19.733046	0.710357	0	0
0	0	0	0.331397	6.412864	-22.786868	6.412864	27657.75	-7.022662E-10	-1.423961E+9	19.698445	0.708255	0	0
0	0	0	0.328334	6.413083	-22.791715	6.413083	27623.25	-4.922775E-11	-2.031375E+10	19.785933	0.707303	0	0
0	0	0	0.323883	6.412913	-22.797001	6.412913	27573.5	-1.754066E-10	-5.701041E+9	19.634292	0.706153	0	0
0	0	0	0.317594	6.413019	-22.805715	6.413019	27503.5	-6.713797E-11	-1.48947E+10	19.821181	0.704408	0	0
0	0	0	0.309304	6.412765	-22.81578	6.412765	27411	1.396777E-10	7.159338E+9	19.618035	0.703813	0	0
0	0	0	0.30126	6.412871	-22.82682	6.412871	27321.75	-4.860297E-10	-2.057487E+9	19.821134	0.701592	0	0
0	0	0	0.294032	6.412878	-22.836422	6.412878	27242	-3.729495E-10	-2.681328E+9	19.629719	0.701275	0	0
0	0	0	0.286313	6.412829	-22.846469	6.412829	27156.75	6.065924E-10	1.648554E+9	19.787178	0.698855	0	0
0	0	0	0.281536	6.412906	-22.853079	6.412906	27104.25	-1.930955E-10	-5.178785E+9	19.673978	0.698696	0	0
0	0	0	0.276758	6.412631	-22.858415	6.412631	27051.75	5.242326E-11	1.90755E+10	19.736387	0.696277	0	0
0	0	0	0.271041	6.412899	-22.866957	6.412899	26989	-2.184699E-10	-4.577291E+9	19.7272	0.695761	0	0
0	0	0	0.26904	6.41297	-22.869863	6.41297	26967.25	-9.240349E-11	-1.08221E+10	19.668298	0.694056	0	0
0	0	0	0.267324	6.412906	-22.871906	6.412906	26948.5	-1.919859E-10	-5.208716E+9	19.777441	0.692985	0	0
0	0	0	0.266834	6.412949	-22.872708	6.412949	26943.25	-1.116353E-10	-8.957739E+9	19.618457	0.691676	0	0
0	0	0	0.264833	6.41285	-22.875002	6.41285	26921.25	-4.704539E-9	-2.125607E+8	19.801621	0.689971	0	0
0	0	0	0.262628	6.413019	-22.878536	6.413019	26897.25	-6.565807E-11	-1.523042E+10	19.605882	0.689336	0	0
0	0	0	0.262587	6.412913	-22.878207	6.412913	26896.75	-1.711015E-10	-5.844485E+9	19.799109	0.687353	0	0
0	0	0	0.260995	6.412857	-22.880113	6.412857	26879.5	-1.191838E-9	-8.390403E+8	19.615984	0.687115	0	0
0	0	0	0.258545	6.412843	-22.883308	6.412843	26852.75	2.417384E-9	4.136703E+8	19.765318	0.684497	0	0
0	0	0	0.258218	6.412723	-22.883308	6.412723	26849.25	9.033213E-11	1.107026E+10	19.657147	0.684656	0	0
0	0	0	0.256053	6.41268	-22.886022	6.41268	26825.5	6.736493E-11	1.484452E+10	19.700444	0.682475	0	0
0	0	0	0.256053	6.412892	-22.886787	6.412892	26825.5	-2.513966E-10	-3.977779E+9	19.712757	0.681761	0	0
0	0	0	0.254624	6.412942	-22.888859	6.412942	26810	-1.194103E-10	-8.374487E+9	19.640933	0.680095	0	0
0	0	0	0.254216	6.412758	-22.888737	6.412758	26805.75	1.258042E-10	7.948862E+9	19.758245	0.678984	0	0
0	0	0	0.253644	6.412814	-22.889699	6.412814	26799.5	3.416973E-10	2.926567E+9	19.590751	0.677914	0	0
0	0	0	0.253767	6.412878	-22.889766	6.412878	26800.75	-3.669087E-10	-2.725474E+9	19.781042	0.676089	0	0
0	0	0	0.254379	6.412617	-22.888011	6.412617	26807.5	4.876867E-11	2.050497E+10	19.577926	0.675692	0	0
0	0	0	0.254012	6.41292	-22.889594	6.41292	26803.5	-1.540181E-10	-6.492743E+9	19.771132	0.673352	0	0
0	0	0	0.253644	6.412857	-22.889852	6.412857	26799.5	-1.188291E-9	-8.41545E+8	19.584564	0.673392	0	0
0	0	0	0.253481	6.412913	-22.890272	6.412913	26797.5	-1.704701E-10	-5.866132E+9	19.721467	0.671131	0	0
0	0	0	0.252664	6.412871	-22.891201	6.412871	26788.75	-4.765481E-10	-2.098424E+9	19.632339	0.670814	0	0
0	0	0	0.25246	6.413055	-22.892134	6.413055	26786.5	-5.424462E-11	-1.843501E+10	19.674197	0.668553	0	0
0	0	0	0.252174	6.413055	-22.892513	6.413055	26783.5	-5.423854E-11	-1.843707E+10	19.690783	0.668038	0	0
0	0	0	0.252133	6.412843	-22.891802	6.412843	26783	2.411105E-9	4.147476E+8	19.612936	0.666332	0	0
0	0	0	0.251725	6.412984	-22.892853	6.412984	26778.5	-8.226793E-11	-1.215541E+10	19.742764	0.665222	0	0
0	0	0	0.251031	6.412822	-22.893187	6.412822	26771	4.345946E-10	2.300995E+9	19.571428	0.66427	0	0
0	0	0	0.250663	6.412942	-22.894107	6.412942	26767	-1.192188E-10	-8.387941E+9	19.766038	0.662564	0	0
0	0	0	0.249683	6.412814	-22.894946	6.412814	26756.5	3.411491E-10	2.93127E+9	19.559229	0.662247	0	0
0	0	0	0.249601	6.412913	-22.895412	6.412913	26755.5	-1.702029E-10	-5.87534E+9	19.766415	0.659629	0	0
0	0	0	0.250663	6.413125	-22.89477	6.413125	26767	-4.04265E-11	-2.473625E+10	19.579919	0.659828	0	0
0	0	0	0.251847	6.413083	-22.893048	6.413083	26780	-4.772498E-11	-2.095339E+10	19.715644	0.657369	0	0
0	0	0	0.251766	6.412885	-22.892442	6.412885	26779	-2.979572E-10	-3.356187E+9	19.626295	0.657369	0	0
0	0	0	0.250622	6.412885	-22.893957	6.412885	26766.5	-2.978181E-10	-3.357754E+9	19.647674	0.655266	0	0
0	0	0	0.249724	6.412927	-22.8953	6.412927	26756.75	-1.401913E-10	-7.13311E+9	19.682527	0.654672	0	0
0	0	0	0.248213	6.412857	-22.897047	6.412857	26740.5	-1.185675E-9	-8.434017E+8	19.579793	0.653363	0	0
0	0	0	0.248458	6.412885	-22.896824	6.412885	26743	-2.975566E-10	-3.360705E+9	19.727024	0.651975	0	0
0	0	0	0.245804	6.412949	-22.900571	6.412949	26714.5	-1.106875E-10	-9.034442E+9	19.55057	0.650904	0	0
0	0	0	0.24515	6.412878	-22.901181	6.412878	26707.25	-3.656287E-10	-2.735015E+9	19.739673	0.649159	0	0
0	0	0	0.242496	6.412913	-22.904825	6.412913	26678.5	-1.697131E-10	-5.892298E+9	19.53012	0.648921	0	0
0	0	0	0.241352	6.412701	-22.905575	6.412701	26666.25	7.668888E-11	1.30397E+10	19.73144	0.64662	0	0
0	0	0	0.23686	6.412836	-22.912011	6.412836	26617.75	9.527173E-10	1.049629E+9	19.553888	0.646422	0	0
0	0	0	0.235921	6.413012	-22.913893	6.413012	26607.5	-6.773358E-11	-1.476373E+10	19.68557	0.644161	0	0
0	0	0	0.232327	6.412927	-22.918347	6.412927	26568.75	-1.392063E-10	-7.183583E+9	19.588094	0.644121	0	0
0	0	0	0.229183	6.412963	-22.922641	6.412963	26535	-9.648678E-11	-1.036411E+10	19.619418	0.64194	0	0
0	0	0	0.225916	6.412708	-22.926051	6.412708	26499.75	8.008645E-11	1.248651E+10	19.647368	0.641305	0	0
0	0	0	0.223956	6.412765	-22.928852	6.412765	26478.75	1.349273E-10	7.411401E+9	19.560708	0.639878	0	0
0	0	0	0.222445	6.412871	-22.931236	6.412871	26462.5	-4.707444E-10	-2.124295E+9	19.692335	0.638608	0	0
0	0	0	0.222037	6.412899	-22.931879	6.412899	26458.25	-2.141736E-10	-4.669111E+9	19.523452	0.637736	0	0
0	0	0	0.219341	6.412949	-22.935628	6.412949	26429.25	-1.095056E-10	-9.13195E+9	19.727671	0.635713	0	0
0	0	0	0.216932	6.412737	-22.938055	6.412737	26403.5	1.001776E-10	9.982274E+9	19.506763	0.635673	0	0
0	0	0	0.214931	6.412864	-22.941165	6.412864	26382	-6.698733E-10	-1.49282E+9	19.70929	0.633175	0	0
0	0	0	0.214033	6.4128	-22.942126	6.4128	26372.5	2.352761E-10	4.250325E+9	19.532881	0.633175	0	0
0	0	0	0.211787	6.412991	-22.94579	6.412991	26348.5	-7.696721E-11	-1.299255E+10	19.6655	0.630597	0	0
0	0	0	0.208928	6.413019	-22.949679	6.413019	26318	-6.424408E-11	-1.556564E+10	19.58526	0.630636	0	0
0	0	0	0.207907	6.412836	-22.950368	6.412836	26307	9.415947E-10	1.062028E+9	19.607677	0.628693	0	0
0	0	0	0.204477	6.412984	-22.955449	6.412984	26270.5	-8.070727E-11	-1.239046E+10	19.636997	0.628138	0	0
0	0	0	0.205947	6.412977	-22.953476	6.412977	26286.25	-8.515891E-11	-1.174275E+10	19.553815	0.626591	0	0
0	0	0	0.204395	6.4128	-22.954894	6.4128	26269.5	2.343572E-10	4.26699E+9	19.691286	0.625322	0	0
0	0	0	0.203823	6.412772	-22.955549	6.412772	26263.5	1.463849E-10	6.831307E+9	19.502673	0.624687	0	0
0	0	0	0.203538	6.413041	-22.956897	6.413041	26260.5	-5.706966E-11	-1.752245E+10	19.710437	0.622744	0	0
0	0	0	0.204395	6.412892	-22.955225	6.412892	26269.5	-2.46186E-10	-4.06197E+9	19.498113	0.622426	0	0
0	0	0	0.206151	6.412751	-22.952389	6.412751	26288.25	1.143436E-10	8.745572E+9	19.698554	0.620205	0	0
0	0	0	0.206805	6.412878	-22.951982	6.412878	26295.25	-3.599883E-10	-2.777868E+9	19.511235	0.620205	0	0
0	0	0	0.209173	6.412885	-22.94887	6.412885	26320.5	-2.928557E-10	-3.414651E+9	19.651155	0.617865	0	0
0	0	0	0.2095	6.412744	-22.947927	6.412744	26324	1.066888E-10	9.373058E+9	19.564833	0.617627	0	0
0	0	0	0.209622	6.412906	-22.948351	6.412906	26325.5	-1.875475E-10	-5.331982E+9	19.595516	0.615446	0	0
0	0	0	0.210521	6.412772	-22.946676	6.412772	26335	1.467834E-10	6.81276E+9	19.60892	0.615168	0	0
0	0	0	0.211827	6.413019	-22.945838	6.413019	26349	-6.431975E-11	-1.554732E+10	19.516845	0.613463	0	0
0	0	0	0.212113	6.412758	-22.944515	6.412758	26352	1.236746E-10	8.085732E+9	19.648059	0.612312	0	0
0	0	0	0.213257	6.413062	-22.944098	6.413062	26364.25	-5.162982E-11	-1.936865E+10	19.483846	0.611281	0	0
0	0	0	0.214523	6.412899	-22.941834	6.412899	26377.75	-2.135219E-10	-4.68336E+9	19.672954	0.609615	0	0
0	0	0	0.214564	6.41292	-22.941856	6.41292	26378	-1.515731E-10	-6.597477E+9	19.457415	0.609496	0	0
0	0	0	0.215707	6.4128	-22.939908	6.4128	26390.25	2.354345E-10	4.247466E+9	19.665145	0.607196	0	0
0	0	0	0.214931	6.413026	-22.941752	6.413026	26382	-6.185886E-11	-1.616583E+10	19.480737	0.607196	0	0
0	0	0	0.215993	6.412772	-22.939427	6.412772	26393.5	1.471094E-10	6.79766E+9	19.631492	0.604816	0	0
0	0	0	0.215707	6.412963	-22.940494	6.412963	26390.25	-9.596044E-11	-1.042096E+10	19.531337	0.604618	0	0
0	0	0	0.219464	6.412892	-22.935262	6.412892	26430.5	-2.476948E-10	-4.037226E+9	19.559405	0.602754	0	0
0	0	0	0.222118	6.41297	-22.932026	6.41297	26459	-9.066196E-11	-1.102998E+10	19.583503	0.602357	0	0
0	0	0	0.223466	6.412871	-22.929883	6.412871	26473.5	-4.709401E-10	-2.123412E+9	19.500155	0.600731	0	0
0	0	0	0.224814	6.412949	-22.928379	6.412949	26488	-1.097491E-10	-9.111695E+9	19.63166	0.599581	0	0
0	0	0	0.222649	6.412899	-22.931068	6.412899	26464.75	-2.142262E-10	-4.667964E+9	19.446381	0.598788	0	0
0	0	0	0.221016	6.412786	-22.932823	6.412786	26447.25	1.814527E-10	5.511078E+9	19.64149	0.597122	0	0
0	0	0	0.219137	6.412892	-22.935695	6.412892	26427	-2.47662E-10	-4.037761E+9	19.426256	0.596765	0	0
0	0	0	0.218198	6.412878	-22.936888	6.412878	26417	-3.616551E-10	-2.765066E+9	19.64424	0.594385	0	0
0	0	0	0.216442	6.4128	-22.938934	6.4128	26398.25	2.355058E-10	4.246179E+9	19.435288	0.594663	0	0
0	0	0	0.215993	6.413111	-22.940651	6.413111	26393.5	-4.19975E-11	-2.381094E+10	19.603869	0.592164	0	0
0	0	0	0.213216	6.412793	-22.943182	6.412793	26363.75	2.044934E-10	4.890134E+9	19.471146	0.592323	0	0
0	0	0	0.210398	6.412716	-22.946635	6.412716	26333.75	8.384977E-11	1.192609E+10	19.543243	0.590062	0	0
0	0	0	0.209377	6.412822	-22.94837	6.412822	26322.75	4.273178E-10	2.340179E+9	19.534755	0.589626	0	0
0	0	0	0.20709	6.412758	-22.95117	6.412758	26298.25	1.234224E-10	8.102258E+9	19.480387	0.588039	0	0
0	0	0	0.204681	6.412899	-22.954872	6.412899	26272.75	-2.12672E-10	-4.702077E+9	19.582242	0.587206	0	0
0	0	0	0.205498	6.412956	-22.953994	6.412956	26281.25	-1.017938E-10	-9.823778E+9	19.443993	0.586056	0	0
0	0	0	0.204518	6.412751	-22.954553	6.412751	26271	1.142685E-10	8.751315E+9	19.628305	0.584708	0	0
0	0	0	0.202353	6.412814	-22.95765	6.412814	26247.75	3.346624E-10	2.988086E+9	19.423016	0.584232	0	0
0	0	0	0.201251	6.413048	-22.959952	6.413048	26236.25	-5.500507E-11	-1.818014E+10	19.634136	0.58213	0	0
0	0	0	0.201537	6.412998	-22.959395	6.412998	26239.25	-7.305632E-11	-1.368807E+10	19.427323	0.582169	0	0
0	0	0	0.200434	6.412822	-22.960218	6.412822	26227.5	4.257715E-10	2.348678E+9	19.590876	0.580107	0	0
0	0	0	0.198882	6.412857	-22.962401	6.412857	26211	-1.162197E-9	-8.604397E+8	19.451012	0.580027	0	0
0	0	0	0.197616	6.412793	-22.963849	6.412793	26197.5	2.032038E-10	4.921167E+9	19.542834	0.577687	0	0
0	0	0	0.197167	6.412807	-22.964495	6.412807	26192.75	2.749574E-10	3.636927E+9	19.512125	0.577489	0	0
0	0	0	0.195289	6.41285	-22.967137	6.41285	26172.75	-4.573737E-9	-2.186396E+8	19.46768	0.575823	0	0
0	0	0	0.194799	6.412949	-22.968143	6.412949	26167.5	-1.084211E-10	-9.223296E+9	19.55266	0.574871	0	0
0	0	0	0.194635	6.412956	-22.968385	6.412956	26165.75	-1.013465E-10	-9.867142E+9	19.404674	0.573959	0	0
0	0	0	0.194839	6.412942	-22.968064	6.412942	26168	-1.165509E-10	-8.579945E+9	19.582085	0.572373	0	0
0	0	0	0.195493	6.412927	-22.967147	6.412927	26175	-1.371432E-10	-7.291646E+9	19.371033	0.571976	0	0
0	0	0	0.195452	6.412751	-22.966563	6.412751	26174.5	1.138488E-10	8.783579E+9	19.578524	0.569993	0	0
0	0	0	0.19582	6.412758	-22.966102	6.412758	26178.5	1.228604E-10	8.139321E+9	19.362743	0.570191	0	0
0	0	0	0.196105	6.412822	-22.965953	6.412822	26181.5	4.250248E-10	2.352804E+9	19.549373	0.567851	0	0
0	0	0	0.196922	6.412991	-22.965483	6.412991	26190.25	-7.650494E-11	-1.307105E+10	19.383929	0.567931	0	0
0	0	0	0.198147	6.412744	-22.962967	6.412744	26203.25	1.061994E-10	9.416251E+9	19.501125	0.565749	0	0
0	0	0	0.198433	6.412878	-22.963073	6.412878	26206.25	-3.587698E-10	-2.787302E+9	19.43138	0.565789	0	0
0	0	0	0.198515	6.412836	-22.962812	6.412836	26207	9.380155E-10	1.06608E+9	19.432157	0.564004	0	0
0	0	0	0.199576	6.412864	-22.961507	6.412864	26218.25	-6.657154E-10	-1.502143E+9	19.495695	0.563369	0	0
0	0	0	0.200761	6.412814	-22.95976	6.412814	26231	3.344489E-10	2.989994E+9	19.380093	0.561981	0	0
0	0	0	0.202558	6.412786	-22.957277	6.412786	26250	1.800994E-10	5.55249E+9	19.529955	0.561069	0	0
0	0	0	0.202639	6.413083	-22.958241	6.413083	26251	-4.678224E-11	-2.137563E+10	19.349251	0.560236	0	0
0	0	0	0.203619	6.412723	-22.955641	6.412723	26261.5	8.835469E-11	1.131802E+10	19.566229	0.558372	0	0
0	0	0	0.203456	6.41268	-22.955704	6.41268	26259.75	6.59442E-11	1.516433E+10	19.341635	0.558332	0	0
0	0	0	0.205008	6.412871	-22.954337	6.412871	26276.25	-4.674312E-10	-2.139352E+9	19.545182	0.55627	0	0
0	0	0	0.205743	6.412885	-22.953414	6.412885	26284	-2.924496E-10	-3.419393E+9	19.359261	0.556468	0	0
0	0	0	0.204599	6.412829	-22.954725	6.412829	26271.75	5.868244E-10	1.704087E+9	19.497755	0.554088	0	0
0	0	0	0.206029	6.412885	-22.953036	6.412885	26287	-2.92483E-10	-3.419003E+9	19.418199	0.554168	0	0
0	0	0	0.20758	6.413076	-22.951669	6.413076	26303.5	-4.832527E-11	-2.069311E+10	19.429616	0.552661	0	0
0	0	0	0.210153	6.41309	-22.948311	6.41309	26331	-4.555834E-11	-2.194988E+10	19.462202	0.551867	0	0
0	0	0	0.21391	6.412836	-22.942416	6.412836	26371.25	9.438944E-10	1.059441E+9	19.36153	0.550717	0	0
0	0	0	0.213665	6.412829	-22.942715	6.412829	26368.5	5.889855E-10	1.697835E+9	19.505601	0.549369	0	0
0	0	0	0.212032	6.412694	-22.944394	6.412694	26351	7.228354E-11	1.383441E+10	19.314351	0.548774	0	0
0	0	0	0.212767	6.412765	-22.943675	6.412765	26359	1.343171E-10	7.445071E+9	19.517437	0.547068	0	0
0	0	0	0.21146	6.413019	-22.946325	6.413019	26345	-6.430999E-11	-1.554968E+10	19.28214	0.547148	0	0
0	0	0	0.209541	6.412977	-22.948715	6.412977	26324.5	-8.528283E-11	-1.172569E+10	19.498198	0.544927	0	0
0	0	0	0.208316	6.413104	-22.950797	6.413104	26311.5	-4.301912E-11	-2.324548E+10	19.299964	0.545085	0	0
0	0	0	0.206886	6.413041	-22.952461	6.413041	26296.25	-5.714735E-11	-1.749862E+10	19.461307	0.542864	0	0
0	0	0	0.204559	6.412927	-22.955136	6.412927	26271.25	-1.376475E-10	-7.264932E+9	19.3354	0.542943	0	0
0	0	0	0.202925	6.412885	-22.957147	6.412885	26254	-2.921158E-10	-3.4233E+9	19.411615	0.540762	0	0
0	0	0	0.202639	6.412723	-22.956939	6.412723	26251	8.831937E-11	1.132255E+10	19.400609	0.540524	0	0
0	0	0	0.202068	6.412793	-22.957952	6.412793	26244.75	2.035703E-10	4.912307E+9	19.356653	0.538977	0	0
0	0	0	0.200597	6.412935	-22.96041	6.412935	26229.25	-1.262907E-10	-7.918237E+9	19.434504	0.538501	0	0
0	0	0	0.200434	6.412864	-22.960371	6.412864	26227.5	-6.659503E-10	-1.501614E+9	19.294408	0.53743	0	0
0	0	0	0.198474	6.412666	-22.962253	6.412666	26206.5	6.068106E-11	1.647961E+10	19.477508	0.53628	0	0
0	0	0	0.197739	6.412737	-22.963482	6.412737	26198.75	9.940074E-11	1.006029E+10	19.269505	0.535804	0	0
0	0	0	0.196636	6.412892	-22.965505	6.412892	26187	-2.454128E-10	-4.074766E+9	19.491175	0.5339	0	0
0	0	0	0.196636	6.412956	-22.965734	6.412956	26187	-1.014288E-10	-9.859135E+9	19.265306	0.534019	0	0
0	0	0	0.197453	6.412949	-22.964627	6.412949	26195.75	-1.085382E-10	-9.213349E+9	19.460887	0.531679	0	0
0	0	0	0.196024	6.412871	-22.96624	6.412871	26180.5	-4.657279E-10	-2.147176E+9	19.29914	0.532036	0	0
0	0	0	0.195493	6.412843	-22.966841	6.412843	26175	2.35637E-9	4.243815E+8	19.400159	0.529934	0	0
0	0	0	0.194676	6.41292	-22.968204	6.41292	26166.25	-1.503563E-10	-6.650867E+9	19.342069	0.529895	0	0
0	0	0	0.194309	6.412758	-22.968104	6.412758	26162.5	1.227853E-10	8.144298E+9	19.329411	0.528189	0	0
0	0	0	0.192961	6.412624	-22.969404	6.412624	26148.25	4.907186E-11	2.037828E+10	19.391094	0.527555	0	0
0	0	0	0.192308	6.412723	-22.970627	6.412723	26141.25	8.795012E-11	1.137008E+10	19.279646	0.526444	0	0
0	0	0	0.192838	6.412836	-22.970332	6.412836	26146.75	9.35859E-10	1.068537E+9	19.446502	0.525294	0	0
0	0	0	0.193124	6.412935	-22.97031	6.412935	26149.75	-1.25908E-10	-7.94231E+9	19.251737	0.524976	0	0
0	0	0	0.193124	6.412836	-22.969953	6.412836	26149.75	9.359664E-10	1.068414E+9	19.467745	0.522993	0	0
0	0	0	0.193533	6.412744	-22.96908	6.412744	26154.25	1.060008E-10	9.433892E+9	19.247971	0.523192	0	0
0	0	0	0.193165	6.412913	-22.97018	6.412913	26150.25	-1.663527E-10	-6.011325E+9	19.446801	0.521129	0	0
0	0	0	0.193737	6.413097	-22.970086	6.413097	26156.25	-4.397539E-11	-2.273999E+10	19.250054	0.521447	0	0
0	0	0	0.195452	6.412786	-22.966691	6.412786	26174.5	1.795814E-10	5.568506E+9	19.41047	0.519225	0	0
0	0	0	0.196636	6.412758	-22.96502	6.412758	26187	1.229003E-10	8.136679E+9	19.305267	0.519305	0	0
0	0	0	0.197453	6.412963	-22.964678	6.412963	26195.75	-9.52532E-11	-1.049833E+10	19.343459	0.51756	0	0
0	0	0	0.198066	6.412567	-22.962437	6.412567	26202.25	3.925425E-11	2.547495E+10	19.33926	0.517322	0	0
0	0	0	0.198229	6.412942	-22.963573	6.412942	26204	-1.167112E-10	-8.568158E+9	19.291394	0.515696	0	0
0	0	0	0.198025	6.412836	-22.963461	6.412836	26201.75	9.378276E-10	1.066294E+9	0	0	0	0
0	0	0	0.200475	6.412949	-22.960623	6.412949	26228	-1.086718E-10	-9.20202E+9	0	0	0	0
0	0	0	0.199822	6.412822	-22.96103	6.412822	26221	4.25666E-10	2.34926E+9	0	0	0	0
0	0	0	0.200516	6.413019	-22.960824	6.413019	26228.25	-6.402499E-11	-1.56189E+10	0	0	0	0
0	0	0	0.200924	6.412942	-22.960003	6.412942	26232.75	-1.168393E-10	-8.558767E+9	0	0	0	0
0	0	0	0.202068	6.412885	-22.958284	6.412885	26244.75	-2.920129E-10	-3.424507E+9	0	0	0	0
0	0	0	0.202272	6.413055	-22.958625	6.413055	26247	-5.315209E-11	-1.881394E+10	0	0	0	0
0	0	0	0.202313	6.412977	-22.958291	6.412977	26247.5	-8.503337E-11	-1.176009E+10	0	0	0	0
0	0	0	0.203252	6.412829	-22.956511	6.412829	26257.5	5.865061E-10	1.705012E+9	0	0	0	0
0	0	0	0.206641	6.413005	-22.952658	6.413005	26293.5	-6.99304E-11	-1.429993E+10	0	0	0	0
0	0	0	0.20705	6.413069	-22.952347	6.413069	26298	-4.985681E-11	-2.005744E+10	0	0	0	0
0	0	0	0.209745	6.412906	-22.948189	6.412906	26326.75	-1.875564E-10	-5.331728E+9	0	0	0	0
0	0	0	0.209663	6.412807	-22.94794	6.412807	26325.75	2.763536E-10	3.618553E+9	0	0	0	0
0	0	0	0.209091	6.412765	-22.948544	6.412765	26319.75	1.341171E-10	7.456173E+9	0	0	0	0
0	0	0	0.207662	6.413097	-22.951637	6.413097	26304.5	-4.422464E-11	-2.261183E+10	0	0	0	0
0	0	0	0.206519	6.413033	-22.952922	6.413033	26292.25	-5.930793E-11	-1.686115E+10	0	0	0	0
0	0	0	0.206355	6.412857	-22.952501	6.412857	26290.5	-1.165722E-9	-8.578378E+8	0	0	0	0
0	0	0	0.205089	6.412836	-22.954101	6.412836	26277	9.40521E-10	1.063241E+9	0	0	0	0
0	0	0	0.204273	6.412843	-22.955209	6.412843	26268.25	2.364765E-9	4.22875E+8	0	0	0	0
0	0	0	0.202149	6.41285	-22.958048	6.41285	26245.75	-4.586494E-9	-2.180314E+8	0	0	0	0
0	0	0	0.200312	6.41285	-22.960482	6.41285	26226.25	-4.583087E-9	-2.181936E+8	0	0	0	0
0	0	0	0.199781	6.412899	-22.961364	6.412899	26220.5	-2.12249E-10	-4.711447E+9	0	0	0	0
0	0	0	0.19876	6.412765	-22.962232	6.412765	26209.75	1.335565E-10	7.487466E+9	0	0	0	0
0	0	0	0.196718	6.413019	-22.965856	6.413019	26188	-6.392674E-11	-1.564291E+10	0	0	0	0
0	0	0	0.197126	6.412807	-22.964549	6.412807	26192.25	2.749522E-10	3.636996E+9	0	0	0	0
0	0	0	0.19684	6.412878	-22.965183	6.412878	26189.25	-3.585371E-10	-2.789112E+9	0	0	0	0
0	0	0	0.196146	6.412991	-22.966511	6.412991	26182	-7.648084E-11	-1.307517E+10	0	0	0	0
0	0	0	0.19586	6.413062	-22.967145	6.413062	26179	-5.126704E-11	-1.950571E+10	0	0	0	0
0	0	0	0.195779	6.412857	-22.966513	6.412857	26178	-1.160733E-9	-8.615243E+8	0	0	0	0
0	0	0	0.195329	6.412843	-22.967057	6.412843	26173.25	2.356213E-9	4.244099E+8	0	0	0	0
0	0	0	0.194717	6.412687	-22.967307	6.412687	26166.75	6.861051E-11	1.457503E+10	0	0	0	0
0	0	0	0.193614	6.412963	-22.969763	6.412963	26155	-9.510502E-11	-1.051469E+10	0	0	0	0
0	0	0	0.193002	6.412758	-22.969835	6.412758	26148.5	1.227196E-10	8.148659E+9	0	0	0	0
0	0	0	0.192593	6.4128	-22.970529	6.4128	26144.25	2.332398E-10	4.287432E+9	0	0	0	0
0	0	0	0.192063	6.412899	-22.971589	6.412899	26138.5	-2.115853E-10	-4.726227E+9	0	0	0	0
0	0	0	0.192144	6.412751	-22.970945	6.412751	26139.5	1.136966E-10	8.79534E+9	0	0	0	0
0	0	0	0.192022	6.412829	-22.971388	6.412829	26138.25	5.838424E-10	1.712791E+9	0	0	0	0
0	0	0	0.192063	6.4128	-22.971232	6.4128	26138.5	2.331885E-10	4.288375E+9	0	0	0	0
0	0	0	0.192879	6.412624	-22.969512	6.412624	26147.25	4.906998E-11	2.037906E+10	0	0	0	0
0	0	0	0.19243	6.412892	-22.971077	6.412892	26142.5	-2.449958E-10	-4.081703E+9	0	0	0	0
0	0	0	0.19439	6.412892	-22.96848	6.412892	26163.25	-2.451903E-10	-4.078465E+9	0	0	0	0
0	0	0	0.194717	6.412814	-22.967767	6.412814	26166.75	3.336297E-10	2.997335E+9	0	0	0	0
0	0	0	0.19488	6.412906	-22.967882	6.412906	26168.5	-1.86429E-10	-5.363971E+9	0	0	0	0
0	0	0	0.195044	6.412892	-22.967615	6.412892	26170.25	-2.452559E-10	-4.077374E+9	0	0	0	0
0	0	0	0.195452	6.413069	-22.967711	6.413069	26174.5	-4.962268E-11	-2.015208E+10	0	0	0	0
0	0	0	0.196187	6.413083	-22.966789	6.413083	26182.25	-4.665972E-11	-2.143176E+10	0	0	0	0
0	0	0	0.197371	6.412617	-22.963536	6.412617	26195	4.76544E-11	2.098442E+10	0	0	0	0
0	0	0	0.199536	6.413012	-22.962097	6.413012	26218	-6.674204E-11	-1.498306E+10	0	0	0	0
0	0	0	0.199046	6.413224	-22.963512	6.413224	26212.75	-2.919849E-11	-3.424835E+10	0	0	0	0
0	0	0	0.199862	6.413048	-22.961792	6.413048	26221.25	-5.497362E-11	-1.819054E+10	0	0	0	0
0	0	0	0.199617	6.413083	-22.962244	6.413083	26218.75	-4.672477E-11	-2.140192E+10	0	0	0	0
0	0	0	0.201047	6.412892	-22.959662	6.412892	26234	-2.458533E-10	-4.067466E+9	0	0	0	0
0	0	0	0.2017	6.41285	-22.958643	6.41285	26241	-4.585664E-9	-2.180709E+8	0	0	0	0
0	0	0	0.202598	6.412864	-22.957504	6.412864	26250.5	-6.665343E-10	-1.500298E+9	0	0	0	0
0	0	0	0.202639	6.412737	-22.95699	6.412737	26251	9.959898E-11	1.004026E+10	0	0	0	0
0	0	0	0.203293	6.412843	-22.956507	6.412843	26258	2.363842E-9	4.230401E+8	0	0	0	0
0	0	0	0.207295	6.412956	-22.951614	6.412956	26300.5	-1.018684E-10	-9.816588E+9	0	0	0	0
0	0	0	0.207785	6.412942	-22.950914	6.412942	26305.75	-1.171644E-10	-8.535016E+9	0	0	0	0
0	0	0	0.20758	6.412814	-22.950725	6.412814	26303.5	3.353732E-10	2.981752E+9	0	0	0	0
0	0	0	0.20611	6.413083	-22.953642	6.413083	26288	-4.684818E-11	-2.134555E+10	0	0	0	0
0	0	0	0.207458	6.412638	-22.950249	6.412638	26302.25	5.268931E-11	1.897918E+10	0	0	0	0
0	0	0	0.206274	0	0.206274	0	26289.75	0	0	0	0	0	0
0	0	0	0.205008	0	0.205008	0	26276.25	0	0	0	0	0	0
