Vload_(V)	ILoad_(A)	RsLoad (ohm)	SunsVoc_Voltage_(V)	SunsVoc_Current_(A)	Model_Voltage_(V)	Model_Current_(A)	Carrier_Density_(cm-3)	Lifetime_(s)	Inverse_Lifetime_(s-1)	Efficiency_(%)	Intensity_(suns)	Dark_IV_Voltage_(V)	Dark_IV_Current_(A)
2.673992	6.04413	0	52.253689	-0.232561	52.369007	-0.232561	8.483385E+15	0.000601	1543.767976	19.805349	1.112617	0	0
2.666953	6.043404	3.334265	52.743524	-0.4759	52.964137	-0.4759	1.00673E+16	0.000687	1287.648363	19.817874	1.112102	0	0
3.239965	6.041212	4.309778	52.847739	-0.282789	52.976889	-0.282789	1.043454E+16	0.000734	1182.307705	19.883504	1.111983	0	0
6.652169	6.036103	4.621575	52.811966	0.03052	52.797955	0.03052	1.030722E+16	0.000762	1135.195304	19.675979	1.112458	0	0
10.797281	6.024496	4.597587	52.727189	0.365539	52.557342	0.365539	1.001074E+16	0.000784	1108.808327	19.876608	1.110359	0	0
14.171306	6.019156	4.189061	52.615787	0.721844	52.275083	0.721844	9.632096E+15	0.000805	1088.126263	19.668274	1.111349	0	0
17.856671	6.015111	3.665992	52.504548	1.063852	51.994617	1.063852	9.266108E+15	0.000828	1065.697034	19.722511	1.109012	0	0
21.456408	6.005351	3.231015	52.379711	1.393836	51.70014	1.393836	8.869357E+15	0.000848	1048.052667	19.736512	1.108418	0	0
25.036253	5.998812	2.720046	52.257119	1.682717	51.423104	1.682717	8.493702E+15	0.000866	1034.551681	19.547493	1.107467	0	0
28.616128	5.995251	2.163863	52.13853	1.947135	51.158238	1.947135	8.143069E+15	0.000884	1020.94344	19.71515	1.105408	0	0
32.269916	5.99314	1.57655	52.013529	2.203851	50.885833	2.203851	7.786649E+15	0.000902	1008.025709	19.478477	1.106002	0	0
35.851078	5.96991	1.170891	51.896777	2.440714	50.629094	2.440714	7.465594E+15	0.000922	992.510192	19.548398	1.103744	0	0
36.899441	5.950111	1.110754	51.770592	2.663714	50.364927	2.663714	7.131069E+15	0.000938	981.217952	19.534362	1.103427	0	0
37.976151	5.925329	1.039445	51.642283	2.861153	50.108228	2.861153	6.803791E+15	0.000951	974.813876	19.360573	1.103071	0	0
39.028188	5.881344	1.006639	51.522551	3.042665	49.867158	3.042665	6.509736E+15	0.000965	966.136771	19.521205	1.101883	0	0
40.098415	5.829507	0.951443	51.40535	3.21525	49.631219	3.21525	6.232192E+15	0.00098	955.913757	19.291744	1.102437	0	0
41.154671	5.756495	0.904949	51.28627	3.383203	49.392907	3.383203	5.960322E+15	0.000996	944.614899	19.388951	1.100892	0	0
42.222152	5.663461	0.849266	51.160044	3.543785	49.147325	3.543785	5.682943E+15	0.001011	935.439527	19.360758	1.10113	0	0
43.284016	5.538302	0.796391	51.040148	3.687816	48.916477	3.687816	5.429463E+15	0.001025	926.656385	19.243247	1.100377	0	0
44.311857	5.362821	0.757549	50.919027	3.829136	48.683401	3.829136	5.182976E+15	0.001041	916.10125	19.431633	1.099031	0	0
45.339721	5.141815	0.710736	50.796435	3.960501	48.452106	3.960501	4.943012E+15	0.001055	907.030813	19.203304	1.099704	0	0
46.327074	4.843321	0.679564	50.676131	4.082585	48.227159	4.082585	4.716549E+15	0.00107	897.973406	19.349114	1.097803	0	0
47.308434	4.45276	0.654025	50.551579	4.196248	47.999971	4.196248	4.491224E+15	0.001081	891.430058	19.298596	1.097882	0	0
48.272434	3.955376	0.633812	50.43593	4.293321	47.792563	4.293321	4.290075E+15	0.00109	886.862726	19.219812	1.096219	0	0
49.1909	3.376307	0.61735	50.315299	4.390368	47.577267	4.390368	4.088292E+15	0.0011	881.587344	19.381354	1.09503	0	0
50.060924	2.701692	0.617585	50.197117	4.479969	47.368304	4.479969	3.898326E+15	0.001109	876.7493	19.163609	1.094991	0	0
50.871615	1.993645	0.636811	50.082285	4.564215	47.165725	4.564215	3.720841E+15	0.001118	871.120931	19.333632	1.092456	0	0
51.618136	1.274031	0.63724	49.958183	4.646456	46.951057	4.646456	3.53666E+15	0.001126	867.628213	19.251971	1.092178	0	0
42.8343	5.592461	0.821845	49.845637	4.717959	46.757231	4.717959	3.376279E+15	0.001133	864.061258	19.186525	1.090317	0	0
52.671122	0	0	49.728109	4.788731	46.556274	4.788731	3.215346E+15	0.001139	860.537981	19.336304	1.088336	0	0
0	0	0	49.612868	4.852363	46.362023	4.852363	3.063845E+15	0.001144	858.830035	19.10739	1.088099	0	0
0	0	0	49.499833	4.91302	46.171741	4.91302	2.921122E+15	0.001149	856.29131	19.283273	1.085207	0	0
0	0	0	49.381202	4.972026	45.974256	4.972026	2.777407E+15	0.001152	854.933592	19.159584	1.08489	0	0
0	0	0	49.270862	5.02597	45.790394	5.02597	2.649148E+15	0.001157	852.325796	19.134028	1.082593	0	0
0	0	0	49.152232	5.079812	45.594752	5.079812	2.516892E+15	0.001161	850.770049	19.252724	1.081326	0	0
0	0	0	49.038175	5.129644	45.407228	5.129644	2.395074E+15	0.001165	848.799068	19.049993	1.080335	0	0
0	0	0	48.922444	5.176813	45.218614	5.176813	2.276647E+15	0.001168	847.79065	19.219897	1.078157	0	0
0	0	0	48.806877	5.22122	45.031497	5.22122	2.163427E+15	0.001169	847.301332	19.083311	1.078117	0	0
0	0	0	48.693473	5.262787	44.848694	5.262787	2.057064E+15	0.001171	846.834127	19.090712	1.075899	0	0
0	0	0	48.575619	5.3021	44.660926	5.3021	1.951335E+15	0.00117	848.512564	19.1765	1.074909	0	0
0	0	0	48.462747	5.339054	44.481042	5.339054	1.854518E+15	0.00117	848.957174	18.987236	1.074434	0	0
0	0	0	48.349221	5.37338	44.301703	5.37338	1.761377E+15	0.001168	850.901235	19.192272	1.071859	0	0
0	0	0	48.235001	5.406587	44.121761	5.406587	1.671809E+15	0.001167	852.624578	19.030617	1.072136	0	0
0	0	0	48.118127	5.438009	43.939083	5.438009	1.584312E+15	0.001163	855.856562	19.085113	1.06972	0	0
0	0	0	48.008031	5.466627	43.76732	5.466627	1.505596E+15	0.00116	858.495323	19.154973	1.068769	0	0
0	0	0	47.890871	5.495128	43.585608	5.495128	1.425638E+15	0.001155	862.303084	18.992167	1.067383	0	0
0	0	0	47.779836	5.52094	43.413939	5.52094	1.353355E+15	0.001151	865.99832	19.196999	1.064769	0	0
0	0	0	47.665535	5.547005	43.237229	5.547005	1.282367E+15	0.001148	868.724999	19.021958	1.064452	0	0
0	0	0	47.549886	5.570441	43.060402	5.570441	1.213942E+15	0.00114	874.729256	19.100276	1.061719	0	0
0	0	0	47.439463	5.59291	42.891159	5.59291	1.151683E+15	0.001135	878.537239	19.13482	1.06057	0	0
0	0	0	47.323773	5.614244	42.715302	5.614244	1.089549E+15	0.001127	884.978264	18.989225	1.058867	0	0
0	0	0	47.216332	5.63406	42.55169	5.63406	1.034573E+15	0.001122	889.244375	19.185722	1.055936	0	0
0	0	0	47.100356	5.652973	42.376836	5.652973	9.780615E+14	0.001112	897.447498	18.984135	1.055461	0	0
0	0	0	46.990955	5.671284	42.211233	5.671284	9.273429E+14	0.001106	902.389284	19.093776	1.052332	0	0
0	0	0	46.87939	5.687903	42.043828	5.687903	8.781046E+14	0.001097	910.671135	19.076801	1.051698	0	0
0	0	0	46.767579	5.704777	41.875624	5.704777	8.311723E+14	0.00109	916.66276	18.954264	1.049797	0	0
0	0	0	46.653114	5.720553	41.704465	5.720553	7.855248E+14	0.00108	924.972014	19.146721	1.047381	0	0
0	0	0	46.546367	5.735114	41.544763	5.735114	7.450509E+14	0.001073	931.443508	18.930824	1.047103	0	0
0	0	0	46.428309	5.749509	41.369405	5.749509	7.025416E+14	0.001061	941.902517	19.076214	1.044014	0	0
0	0	0	46.32438	5.762081	41.214936	5.762081	6.669959E+14	0.001052	949.850408	19.034057	1.043341	0	0
0	0	0	46.209955	5.774833	41.045643	5.774833	6.298028E+14	0.00104	960.550004	18.936313	1.04136	0	0
0	0	0	46.10182	5.786821	40.885536	5.786821	5.964437E+14	0.001031	969.195483	19.107437	1.03938	0	0
0	0	0	45.989234	5.798041	40.719803	5.798041	5.634763E+14	0.001019	981.239726	18.888671	1.039182	0	0
0	0	0	45.877668	5.80935	40.555234	5.80935	5.325038E+14	0.001009	990.656743	19.067634	1.035696	0	0
0	0	0	45.764306	5.819738	40.388863	5.819738	5.026816E+14	0.000997	1003.053697	18.992929	1.03526	0	0
0	0	0	45.654945	5.829434	40.22852	5.829434	4.754141E+14	0.000985	1014.803007	18.942145	1.03328	0	0
0	0	0	45.53995	5.838938	40.060414	5.838938	4.48257E+14	0.000972	1028.688025	19.101258	1.031379	0	0
0	0	0	45.432958	5.847461	39.90418	5.847461	4.243196E+14	0.00096	1041.617388	18.892734	1.030745	0	0
0	0	0	45.316288	5.856375	39.73404	5.856375	3.996065E+14	0.000947	1055.946365	19.083132	1.027774	0	0
0	0	0	45.204395	5.864626	39.571024	5.864626	3.772011E+14	0.000935	1069.540485	18.974701	1.02722	0	0
0	0	0	45.092381	5.872575	39.408009	5.872575	3.559786E+14	0.000923	1083.141704	18.974642	1.024209	0	0
0	0	0	44.976364	5.87986	39.239971	5.87986	3.352076E+14	0.000908	1101.444526	19.096996	1.022546	0	0
0	0	0	44.867657	5.887174	39.08194	5.887174	3.168062E+14	0.000898	1113.551624	18.90671	1.02108	0	0
0	0	0	44.752416	5.89382	38.915392	5.89382	2.983625E+14	0.000883	1132.344546	19.081481	1.018149	0	0
0	0	0	44.640442	5.900253	38.753494	5.900253	2.814369E+14	0.00087	1149.083708	18.936611	1.017476	0	0
0	0	0	44.526794	5.906505	38.589356	5.906505	2.652091E+14	0.000857	1166.421567	18.966753	1.014545	0	0
0	0	0	44.413105	5.912516	38.425313	5.912516	2.49884E+14	0.000845	1183.906045	19.052004	1.01304	0	0
0	0	0	44.29962	5.918275	38.26172	5.918275	2.35445E+14	0.000832	1201.539543	18.870711	1.011574	0	0
0	0	0	44.18589	5.923639	38.098106	5.923639	2.217895E+14	0.000819	1221.167898	19.083312	1.008287	0	0
0	0	0	44.069138	5.92857	37.930657	5.92857	2.08574E+14	0.000803	1245.406793	18.910802	1.00793	0	0
0	0	0	43.960717	5.933381	37.774846	5.933381	1.969909E+14	0.000791	1263.74996	18.962621	1.005276	0	0
0	0	0	43.844129	5.938062	37.607738	5.938062	1.852359E+14	0.000777	1287.14639	19.015537	1.003652	0	0
0	0	0	43.728765	5.942701	37.442309	5.942701	1.742803E+14	0.000764	1308.24236	18.852639	1.002543	0	0
0	0	0	43.615035	5.94664	37.279828	5.94664	1.641016E+14	0.000749	1335.433154	19.065552	0.999375	0	0
0	0	0	43.494118	5.950864	37.106976	5.950864	1.539185E+14	0.000734	1362.108215	18.870332	0.999176	0	0
0	0	0	43.383083	5.954437	36.948522	5.954437	1.451152E+14	0.00072	1389.388323	18.975104	0.996166	0	0
0	0	0	43.261921	5.958293	36.775602	5.958293	1.360727E+14	0.000705	1418.020509	18.984008	0.995176	0	0
0	0	0	43.14619	5.961828	36.610538	5.961828	1.279539E+14	0.000692	1445.893836	18.863279	0.993275	0	0
0	0	0	43.029969	5.965097	36.445032	5.965097	1.202809E+14	0.000677	1477.036915	19.061401	0.990581	0	0
0	0	0	42.90603	5.968639	36.268418	5.968639	1.125975E+14	0.000664	1507.134112	18.860526	0.98971	0	0
0	0	0	42.791157	5.97113	36.105556	5.97113	1.059092E+14	0.000645	1549.428972	18.988975	0.98666	0	0
0	0	0	42.670158	5.974032	35.933656	5.974032	9.928815E+13	0.00063	1587.065223	18.965977	0.985472	0	0
0	0	0	42.550221	5.976932	35.763191	5.976932	9.312895E+13	0.000617	1622.010487	18.868507	0.983293	0	0
0	0	0	42.431918	5.979786	35.595012	5.979786	8.742393E+13	0.000604	1654.486978	19.044253	0.980758	0	0
0	0	0	42.298055	5.982748	35.404968	5.982748	8.13846E+13	0.00059	1695.451803	18.826467	0.979966	0	0
0	0	0	42.17334	5.98499	35.228465	5.98499	7.613034E+13	0.000573	1746.272108	18.995211	0.976599	0	0
0	0	0	42.051198	5.98721	35.055538	5.98721	7.131045E+13	0.000557	1794.320301	18.915704	0.975847	0	0
0	0	0	41.929178	5.98959	34.882558	5.98959	6.67975E+13	0.000545	1835.439734	18.874686	0.973114	0	0
0	0	0	41.804504	5.992002	34.705798	5.992002	6.247889E+13	0.000533	1875.513273	19.024401	0.971133	0	0
0	0	0	41.674072	5.9938	34.521699	5.9938	5.825715E+13	0.000515	1942.055799	18.807077	0.97042	0	0
0	0	0	41.551685	5.995969	34.348348	5.995969	5.455378E+13	0.000504	1984.50917	19.002838	0.966895	0	0
0	0	0	41.423336	5.997678	34.167199	5.997678	5.092099E+13	0.000488	2050.653978	18.884739	0.96642	0	0
0	0	0	41.29907	5.999762	33.991262	5.999762	4.763303E+13	0.000478	2093.849933	18.885567	0.963568	0	0
0	0	0	41.169291	6.001295	33.808274	6.001295	4.442433E+13	0.000461	2167.54797	18.985735	0.961944	0	0
0	0	0	41.04478	6.003189	33.632166	6.003189	4.154814E+13	0.000451	2215.116895	18.801323	0.960716	0	0
0	0	0	40.911939	6.004915	33.444607	6.004915	3.868352E+13	0.000439	2278.859759	19.005028	0.957587	0	0
0	0	0	40.780527	6.006525	33.259158	6.006525	3.60432E+13	0.000426	2345.353421	18.844446	0.95727	0	0
0	0	0	40.651034	6.008019	33.076507	6.008019	3.361702E+13	0.000414	2414.742162	18.894316	0.954339	0	0
0	0	0	40.512394	6.009251	32.881391	6.009251	3.119946E+13	0.000398	2513.03813	18.967307	0.952992	0	0
0	0	0	40.380287	6.010718	32.695076	6.010718	2.905718E+13	0.000387	2584.8377	18.794094	0.951527	0	0
0	0	0	40.242137	6.012059	32.500459	6.012059	2.697352E+13	0.000374	2672.758692	18.999423	0.948596	0	0
0	0	0	40.105049	6.013729	32.306872	6.013729	2.505312E+13	0.000367	2727.754903	18.830273	0.947883	0	0
0	0	0	39.963387	6.014808	32.107641	6.014808	2.321175E+13	0.000352	2839.721515	18.915844	0.945189	0	0
0	0	0	39.824869	6.015934	31.912719	6.015934	2.154182E+13	0.00034	2942.339334	18.937364	0.944001	0	0
0	0	0	39.681451	6.0171	31.710879	6.0171	1.993897E+13	0.000328	3047.380798	18.805899	0.94214	0	0
0	0	0	39.539911	6.017941	31.512074	6.017941	1.84738E+13	0.000314	3186.791581	19.006945	0.939486	0	0
0	0	0	39.391552	6.019176	31.303199	6.019176	1.705322E+13	0.000304	3289.443572	18.804427	0.938852	0	0
0	0	0	39.24744	6.020474	31.100146	6.020474	1.577775E+13	0.000297	3370.363153	18.932858	0.935644	0	0
0	0	0	39.095895	6.020998	30.887741	6.020998	1.453908E+13	0.00028	3576.499177	18.904666	0.934812	0	0
0	0	0	38.94774	6.022126	30.679232	6.022126	1.342202E+13	0.000271	3685.240972	18.800732	0.932752	0	0
0	0	0	38.791785	6.022702	30.460567	6.022702	1.233859E+13	0.000256	3903.880434	18.983409	0.930494	0	0
0	0	0	38.637627	6.023919	30.243508	6.023919	1.135349E+13	0.00025	4001.646068	18.789036	0.929425	0	0
0	0	0	38.478446	6.024515	30.020278	6.024515	1.041865E+13	0.000236	4232.145415	18.95227	0.926256	0	0
0	0	0	38.318326	6.025476	29.795206	6.025476	9.555839E+12	0.000228	4388.10473	18.875694	0.925583	0	0
0	0	0	38.151508	6.026289	29.560967	6.026289	8.732762E+12	0.000218	4592.486259	18.81209	0.923365	0	0
0	0	0	37.984568	6.026976	29.326721	6.026976	7.979978E+12	0.000207	4832.227535	18.967475	0.921226	0	0
0	0	0	37.815913	6.027654	29.090075	6.027654	7.285272E+12	0.000197	5083.645082	18.745818	0.920751	0	0
0	0	0	37.642276	6.028323	28.846466	6.028323	6.63312E+12	0.000187	5356.88329	18.952347	0.917305	0	0
0	0	0	37.469047	6.0292	28.603106	6.0292	6.040632E+12	0.00018	5555.936437	18.834874	0.916711	0	0
0	0	0	37.288182	6.029577	28.349796	6.029577	5.478384E+12	0.000167	5971.429005	18.833915	0.914294	0	0
0	0	0	37.108909	6.030445	28.097968	6.030445	4.97271E+12	0.000162	6186.222052	18.951725	0.912393	0	0
0	0	0	36.923062	6.03106	27.837312	6.03106	4.497681E+12	0.000153	6532.208393	18.751559	0.911482	0	0
0	0	0	36.737419	6.031312	27.577479	6.031312	4.068454E+12	0.000141	7082.392773	18.952994	0.908511	0	0
0	0	0	36.545078	6.032042	27.307546	6.032042	3.666877E+12	0.000135	7410.390312	18.802697	0.908155	0	0
0	0	0	36.350206	6.032509	27.034461	6.032509	3.300402E+12	0.000126	7914.718116	18.853672	0.905145	0	0
0	0	0	36.151781	6.033122	26.756174	6.033122	2.964842E+12	0.00012	8346.223346	18.925388	0.903758	0	0
0	0	0	35.950947	6.033299	26.475185	6.033299	2.659922E+12	0.000109	9152.846948	18.764617	0.902214	0	0
0	0	0	35.746315	6.034014	26.188033	6.034014	2.381458E+12	0.000105	9548.779337	18.968096	0.89952	0	0
0	0	0	35.53911	6.034219	25.898078	6.034219	2.129177E+12	9.557339E-5	10463.163221	18.771682	0.899203	0	0
0	0	0	35.331292	6.034868	25.606547	6.034868	1.902984E+12	9.140727E-5	10940.048321	18.870672	0.896153	0	0
0	0	0	35.121433	6.035275	25.312539	6.035275	1.69894E+12	8.535307E-5	11716.040165	18.874511	0.895559	0	0
0	0	0	34.910226	6.035413	25.017075	6.035413	1.515665E+12	7.734789E-5	12928.600741	18.762707	0.8935	0	0
0	0	0	34.695793	6.036047	24.716277	6.036047	1.349802E+12	7.429161E-5	13460.469512	18.963602	0.890965	0	0
0	0	0	34.485648	6.036213	24.422237	6.036213	1.204876E+12	6.770236E-5	14770.533704	18.758254	0.890489	0	0
0	0	0	34.269296	6.036556	24.119216	6.036556	1.071906E+12	6.296354E-5	15882.206958	18.903973	0.887202	0	0
0	0	0	34.051841	6.036965	23.814533	6.036965	9.530409E+11	5.917358E-5	16899.434635	18.852962	0.886925	0	0
0	0	0	33.835571	6.037112	23.511942	6.037112	8.478979E+11	5.374796E-5	18605.357448	18.767365	0.884667	0	0
0	0	0	33.61587	6.037284	23.204508	6.037284	7.529561E+11	4.892789E-5	20438.241414	18.945276	0.882528	0	0
0	0	0	33.38988	6.037695	22.887861	6.037695	6.663752E+11	4.606947E-5	21706.348774	18.731117	0.881973	0	0
0	0	0	33.167566	6.037878	22.57674	6.037878	5.909221E+11	4.205022E-5	23781.090414	18.914449	0.878726	0	0
0	0	0	32.938758	6.038321	22.256077	6.038321	5.22176E+11	3.99902E-5	25006.128103	18.818006	0.878329	0	0
0	0	0	32.701049	6.038371	21.923656	6.038371	4.59212E+11	3.547135E-5	28191.76852	18.785463	0.876072	0	0
0	0	0	32.472405	6.038924	21.603001	6.038924	4.058236E+11	3.467762E-5	28837.041667	18.910744	0.874527	0	0
0	0	0	32.233388	6.038831	21.269	6.038831	3.566367E+11	2.99438E-5	33395.891044	18.721398	0.873259	0	0
0	0	0	32.001273	6.03907	20.944044	6.03907	3.145826E+11	2.765851E-5	36155.233237	18.923695	0.870368	0	0
0	0	0	31.763563	6.039328	20.611223	6.039328	2.766493E+11	2.563181E-5	39014.023574	18.790743	0.869972	0	0
0	0	0	31.522831	6.039613	20.274119	6.039613	2.428929E+11	2.392131E-5	41803.72422	18.818949	0.867397	0	0
0	0	0	31.281528	6.039797	19.936396	6.039797	2.131893E+11	2.1888E-5	45687.14246	18.902923	0.866249	0	0
0	0	0	31.031445	6.040133	19.586103	6.040133	1.862322E+11	2.073139E-5	48236.041988	18.713168	0.865219	0	0
0	0	0	30.783281	6.040117	19.239156	6.040117	1.628526E+11	1.805497E-5	55386.403081	18.916499	0.862169	0	0
0	0	0	30.533402	6.040459	18.88912	6.040459	1.422759E+11	1.724507E-5	57987.574313	18.746818	0.861812	0	0
0	0	0	30.278541	6.040369	18.532948	6.040369	1.239649E+11	1.466518E-5	68188.743206	18.825219	0.859198	0	0
0	0	0	30.019514	6.04091	18.169717	6.04091	1.077675E+11	1.489245E-5	67148.128081	18.870565	0.85805	0	0
0	0	0	29.760773	6.040966	17.807828	6.040966	9.370092E+10	1.317531E-5	75899.566818	18.728398	0.856386	0	0
0	0	0	29.495662	6.041187	17.436699	6.041187	8.119033E+10	1.227565E-5	81462.061616	18.92589	0.854168	0	0
0	0	0	29.227366	6.040996	17.061938	6.040996	7.022906E+10	9.970901E-6	100291.836679	18.71766	0.853811	0	0
0	0	0	28.953148	6.041457	16.677581	6.041457	6.055348E+10	1.007838E-5	99222.307617	18.839743	0.850841	0	0
0	0	0	28.674112	6.041724	16.286865	6.041724	5.20751E+10	9.630914E-6	103832.301251	18.806951	0.850286	0	0
0	0	0	28.394014	6.041566	15.895536	6.041566	4.475811E+10	7.766319E-6	128761.121147	18.719505	0.848187	0	0
0	0	0	28.105871	6.041906	15.491923	6.041906	3.830228E+10	7.663093E-6	130495.615719	18.90638	0.84589	0	0
0	0	0	27.813154	6.041934	15.08256	6.041934	3.269668E+10	6.623613E-6	150975.015466	18.685727	0.845533	0	0
0	0	0	27.513985	6.04224	14.66358	6.04224	2.781428E+10	6.549558E-6	152682.055476	18.849755	0.842523	0	0
0	0	0	27.207098	6.042048	14.234867	6.042048	2.356243E+10	5.036481E-6	198551.343724	18.763161	0.842325	0	0
0	0	0	26.886245	6.042375	13.785508	6.042375	1.981041E+10	5.022918E-6	199087.449853	18.718418	0.839988	0	0
0	0	0	26.557266	6.042456	13.32531	6.042456	1.658284E+10	4.406847E-6	226919.625845	18.862898	0.838285	0	0
0	0	0	26.230369	6.042702	12.867654	6.042702	1.389675E+10	4.331224E-6	230881.592379	18.657557	0.837374	0	0
0	0	0	25.906943	6.042729	12.415331	6.042729	1.166763E+10	3.706804E-6	269774.175826	18.853552	0.83472	0	0
0	0	0	25.584089	6.042703	11.963927	6.042703	9.799097E+9	3.055977E-6	327227.59878	18.720365	0.834522	0	0
0	0	0	25.266053	6.042883	11.518793	6.042883	8.25127E+9	2.94457E-6	339608.112186	18.738159	0.831908	0	0
0	0	0	24.947528	6.043129	11.072814	6.043129	6.946092E+9	3.089238E-6	323704.417968	18.831322	0.83064	0	0
0	0	0	24.624633	6.043023	10.621531	6.043023	5.833569E+9	2.345451E-6	426357.238766	18.642679	0.82965	0	0
0	0	0	24.300227	6.043136	10.167627	6.043136	4.895234E+9	2.192576E-6	456084.449954	18.852744	0.826798	0	0
0	0	0	23.970309	6.043243	9.706024	6.043243	4.095607E+9	2.054897E-6	486642.435074	18.678492	0.826481	0	0
0	0	0	23.63794	6.04323	9.241276	6.04323	3.422062E+9	1.691841E-6	591072.099929	18.761051	0.823907	0	0
0	0	0	23.282457	6.043556	8.743391	6.043556	2.823781E+9	2.189166E-6	456794.987008	18.788355	0.823075	0	0
0	0	0	22.927914	6.04335	8.248096	6.04335	2.331282E+9	1.32982E-6	751981.524816	18.649132	0.82153	0	0
0	0	0	22.564427	6.043489	7.739457	6.043489	1.915397E+9	1.331125E-6	751244.167296	18.851318	0.819074	0	0
0	0	0	22.190323	6.043636	7.215946	6.043636	1.564697E+9	1.409844E-6	709298.377928	18.643004	0.818718	0	0
0	0	0	21.80013	6.04345	6.670761	6.04345	1.267139E+9	8.291632E-7	1206035.151931	18.779262	0.815985	0	0
0	0	0	21.400013	6.043789	6.11038	6.043789	1.020678E+9	1.333102E-6	750130.127452	18.736841	0.815589	0	0
0	0	0	21.012474	6.043636	5.568828	6.043636	8.277628E+8	7.461677E-7	1340181.235441	18.64709	0.813688	0	0
0	0	0	20.652213	6.043669	5.06495	6.043669	6.812827E+8	6.585466E-7	1518495.5005	18.811656	0.811826	0	0
0	0	0	20.312412	6.043643	4.589837	6.043643	5.669595E+8	5.181201E-7	1930054.341492	18.600551	0.811232	0	0
0	0	0	19.97939	6.043643	4.124135	6.043643	4.735526E+8	4.327781E-7	2310652.919774	18.789152	0.808142	0	0
0	0	0	19.64796	6.043776	3.660308	6.043776	3.958752E+8	4.978349E-7	2008697.936102	18.688773	0.807667	0	0
0	0	0	19.316448	6.043563	3.197283	6.043563	3.309247E+8	2.598474E-7	3848412.314049	18.647915	0.805964	0	0
0	0	0	18.984529	6.043922	2.732159	6.043922	2.765694E+8	5.931746E-7	1685844.164248	18.788981	0.804261	0	0
0	0	0	18.655141	6.043849	2.271731	6.043849	2.314587E+8	3.670033E-7	2724770.939347	18.581073	0.803468	0	0
0	0	0	18.322772	6.043736	1.807247	6.043736	1.933941E+8	2.185763E-7	4575061.653345	18.774643	0.800933	0	0
0	0	0	17.993016	6.043796	1.345946	6.043796	1.618178E+8	2.156902E-7	4636278.233955	18.626132	0.800775	0	0
0	0	0	17.655747	6.043909	0.873988	6.043909	1.348483E+8	2.718259E-7	3678825.660862	18.665573	0.798121	0	0
0	0	0	17.318396	6.043929	0.40217	6.043929	1.123687E+8	2.490305E-7	4015573.110423	18.758171	0.796576	0	0
0	0	0	16.973898	6.044002	-0.079792	6.044002	9.327546E+7	3.252576E-7	3074486.363237	18.565709	0.795745	0	0
0	0	0	16.626093	6.044002	-0.566175	6.044002	7.728816E+7	2.695164E-7	3710349.277443	18.769942	0.79317	0	0
0	0	0	16.278125	6.043949	-1.052633	6.043949	6.403541E+7	1.575858E-7	6345751.03485	18.5754	0.793051	0	0
0	0	0	15.926848	6.043822	-1.543504	6.043822	5.296035E+7	7.671173E-8	1.303582E+7	18.672977	0.790635	0	0
0	0	0	15.57206	6.043882	-2.039823	6.043882	4.371767E+7	7.865236E-8	1.271418E+7	18.691286	0.789764	0	0
0	0	0	15.212535	6.043836	-2.542456	6.043836	3.599573E+7	5.449982E-8	1.834868E+7	18.573221	0.787942	0	0
0	0	0	14.84913	6.044095	-3.051418	6.044095	2.957565E+7	3.818508E-7	2618824.11061	18.771733	0.785724	0	0
0	0	0	14.479926	6.043995	-3.567429	6.043995	2.422457E+7	8.029677E-8	1.24538E+7	18.55557	0.785367	0	0
0	0	0	14.105414	6.044155	-4.091641	6.044155	1.97848E+7	-3.46527E-7	-2885778.404497	18.703007	0.782753	0	0
0	0	0	13.725715	6.043989	-4.622124	6.043989	1.611349E+7	5.089018E-8	1.965016E+7	18.639193	0.78208	0	0
0	0	0	13.342791	6.044075	-5.157883	6.044075	1.310057E+7	1.071256E-7	9334837.196153	18.561711	0.780376	0	0
0	0	0	12.966155	6.044015	-5.684401	6.044015	1.068728E+7	4.161181E-8	2.403164E+7	18.723055	0.778356	0	0
0	0	0	12.587763	6.044002	-6.213517	6.044002	8710276	3.037797E-8	3.291859E+7	18.510276	0.777881	0	0
0	0	0	12.201775	6.044082	-6.753545	6.044082	7069902.5	6.586514E-8	1.518254E+7	18.70824	0.77491	0	0
0	0	0	11.821587	6.044221	-7.285658	6.044221	5756471	-2.786366E-8	-3.588904E+7	18.572881	0.774752	0	0
0	0	0	11.440908	6.044175	-7.817869	6.044175	4685805	-4.596149E-8	-2.175734E+7	18.571727	0.772613	0	0
0	0	0	11.062925	6.044122	-8.346288	6.044122	3819836.5	2.165172E-7	4618571.03641	18.665741	0.771385	0	0
0	0	0	10.682858	6.044162	-8.877918	6.044162	3110401.5	-4.31681E-8	-2.316525E+7	18.480622	0.770276	0	0
0	0	0	10.305733	6.044288	-9.40572	6.044288	2536754	-7.123957E-9	-1.403714E+8	18.699555	0.767583	0	0
0	0	0	9.927218	6.044301	-9.935098	6.044301	2067352	-5.356023E-9	-1.867057E+8	18.521231	0.767503	0	0
0	0	0	9.551562	6.044308	-10.460458	6.044308	1687413	-4.208686E-9	-2.376038E+8	18.600757	0.764929	0	0
0	0	0	9.182522	6.044042	-10.975657	6.044042	1382234.5	7.015322E-9	1.425451E+8	18.619483	0.764335	0	0
0	0	0	8.816218	6.044075	-11.488022	6.044075	1133924.5	9.272816E-9	1.078421E+8	18.473073	0.76275	0	0
0	0	0	8.45412	6.044301	-11.99516	6.044301	932340	-2.41547E-9	-4.139982E+8	18.669299	0.760493	0	0
0	0	0	8.094064	6.044135	-12.498115	6.044135	767438.5	-6.26076E-8	-1.59725E+7	18.457114	0.760374	0	0
0	0	0	7.737887	6.044241	-12.996574	6.044241	633029.5	-2.51757E-9	-3.972085E+8	18.602095	0.757522	0	0
0	0	0	7.381547	6.044381	-13.49538	6.044381	522114.5	-9.234798E-10	-1.082861E+9	18.572202	0.756888	0	0
0	0	0	7.033252	6.044142	-13.981624	6.044142	432510	-1.589686E-8	-6.290552E+7	18.487022	0.755066	0	0
0	0	0	6.688387	6.044175	-14.464015	6.044175	358948.5	-3.52072E-9	-2.840328E+8	18.642062	0.753482	0	0
0	0	0	6.349035	6.044334	-14.939143	6.044334	298787.5	-6.485043E-10	-1.54201E+9	18.41822	0.753046	0	0
0	0	0	6.017482	6.043975	-15.401532	6.043975	249760.5	7.207641E-10	1.387417E+9	18.60762	0.750036	0	0
0	0	0	5.685073	6.044115	-15.866883	6.044115	208681.5	6.403377E-9	1.561676E+8	18.495849	0.749957	0	0
0	0	0	5.359523	6.044374	-16.323075	6.044374	175006.5	-3.17946E-10	-3.145188E+9	18.477104	0.747739	0	0
0	0	0	5.033647	6.044481	-16.779183	6.044481	146740	-1.858374E-10	-5.381048E+9	18.598263	0.746233	0	0
0	0	0	4.700992	6.044315	-17.243786	6.044315	122588.5	-2.947648E-10	-3.392535E+9	18.403743	0.745362	0	0
0	0	0	4.39235	6.044215	-17.675046	6.044215	103750.5	-5.413588E-10	-1.847204E+9	18.600543	0.742906	0	0
0	0	0	4.080481	6.044268	-18.111374	6.044268	87654.5	-2.816284E-10	-3.550778E+9	18.423682	0.742906	0	0
0	0	0	3.77829	6.044315	-18.534145	6.044315	74443.5	-1.789998E-10	-5.586597E+9	18.481871	0.740411	0	0
0	0	0	3.484634	6.044175	-18.944292	6.044175	63516.5	-6.22996E-10	-1.605147E+9	18.533859	0.739223	0	0
0	0	0	3.196205	6.044215	-19.347793	6.044215	54346.5	-2.835741E-10	-3.526415E+9	18.38331	0.738074	0	0
0	0	0	2.910022	6.044334	-19.748453	6.044334	46557	-1.010498E-10	-9.896114E+9	18.587702	0.735816	0	0
0	0	0	2.632905	6.044148	-20.135288	6.044148	40079.5	-9.50728E-10	-1.051825E+9	18.371018	0.735777	0	0
0	0	0	2.36416	6.044348	-20.511869	6.044348	34660.5	-7.064464E-11	-1.415536E+10	18.496935	0.733123	0	0
0	0	0	2.101621	6.044348	-20.879018	6.044348	30074.5	-6.129751E-11	-1.631388E+10	18.458219	0.732529	0	0
0	0	0	1.848434	6.044241	-21.232683	6.044241	26227	-1.043051E-10	-9.587258E+9	18.36343	0.730746	0	0
0	0	0	1.603047	6.044241	-21.575845	6.044241	22969	-9.1348E-11	-1.094715E+10	18.539309	0.728647	0	0
0	0	0	1.37473	6.044128	-21.8947	6.044128	20302.5	7.544998E-9	1.325381E+8	18.305253	0.728489	0	0
0	0	0	1.165524	6.044235	-22.187674	6.044235	18131	-7.66652E-11	-1.304373E+10	18.490346	0.725756	0	0
0	0	0	0.983515	6.044441	-22.443003	6.044441	16432	-2.347697E-11	-4.259494E+10	18.372655	0.725676	0	0
0	0	0	0.826703	6.044481	-22.662454	6.044481	15096.5	-1.911881E-11	-5.230451E+10	18.358106	0.723379	0	0
0	0	0	0.694188	6.044507	-22.847875	6.044507	14053	-1.654439E-11	-6.044345E+10	18.479857	0.722032	0	0
0	0	0	0.576293	6.044354	-23.012151	6.044354	13185.5	-2.60799E-11	-3.83437E+10	18.274447	0.721161	0	0
0	0	0	0.47804	6.044228	-23.14906	6.044228	12503	-5.643506E-11	-1.771948E+10	18.488098	0.718507	0	0
0	0	0	0.39457	6.044368	-23.266335	6.044368	11952	-2.232019E-11	-4.480248E+10	18.303957	0.718705	0	0
0	0	0	0.324045	6.044308	-23.364726	6.044308	11504.5	-2.869406E-11	-3.485042E+10	18.363707	0.71621	0	0
0	0	0	0.265322	6.044135	-23.44617	6.044135	11145	-9.091786E-10	-1.099894E+9	18.404353	0.715338	0	0
0	0	0	0.217543	6.044374	-23.513926	6.044374	10861	-1.97319E-11	-5.067935E+10	18.242379	0.714309	0	0
0	0	0	0.176625	6.044195	-23.570443	6.044195	10623.5	-7.236675E-11	-1.38185E+10	18.455305	0.711813	0	0
0	0	0	0.145753	6.044188	-23.61359	6.044188	10447.5	-7.923677E-11	-1.26204E+10	18.24159	0.711615	0	0
0	0	0	0.12268	6.044188	-23.645856	6.044188	10318	-7.82546E-11	-1.27788E+10	18.370615	0.708961	0	0
0	0	0	0.08948	6.044374	-23.693017	6.044374	10134.5	-1.841202E-11	-5.431234E+10	18.332246	0.708486	0	0
0	0	0	0.073717	6.044501	-23.715558	6.044501	10048.5	-1.204188E-11	-8.30435E+10	18.244307	0.707021	0	0
0	0	0	0.060976	6.044428	-23.733088	6.044428	9979.5	-1.489429E-11	-6.713981E+10	18.422072	0.705199	0	0
0	0	0	0.041864	6.044215	-23.758977	6.044215	9877	-5.15371E-11	-1.94035E+10	18.19132	0.704921	0	0
0	0	0	0.023774	6.044261	-23.784459	6.044261	9781	-3.30113E-11	-3.029266E+10	18.382139	0.70203	0	0
0	0	0	0.006704	6.044414	-23.808933	6.044414	9691	-1.513927E-11	-6.605339E+10	18.274643	0.701792	0	0
0	0	0	-7.474219E-5	6.044128	-23.817286	6.044128	9655.5	3.588271E-9	2.786858E+8	18.250756	0.69997	0	0
0	0	0	-0.004281	6.044394	-23.824216	6.044394	9633.5	-1.618325E-11	-6.179228E+10	18.357407	0.698663	0	0
0	0	0	-0.009222	6.044315	-23.830812	6.044315	9608	-2.310249E-11	-4.328537E+10	18.16223	0.697752	0	0
0	0	0	-0.017471	6.044334	-23.842427	6.044334	9565.5	-2.076147E-11	-4.816616E+10	18.364843	0.695494	0	0
0	0	0	-0.026537	6.044288	-23.854921	6.044288	9518.5	-2.673066E-11	-3.741022E+10	18.182736	0.695613	0	0
0	0	0	-0.033152	6.044295	-23.864199	6.044295	9484.5	-2.556205E-11	-3.91205E+10	18.268725	0.693118	0	0
0	0	0	-0.043729	6.044454	-23.879619	6.044454	9430.5	-1.292171E-11	-7.738915E+10	18.297313	0.692048	0	0
0	0	0	-0.051447	6.044281	-23.889731	6.044281	9391	-2.752829E-11	-3.632627E+10	18.14548	0.690979	0	0
0	0	0	-0.058144	6.044082	-23.89831	6.044082	9357	8.717564E-11	1.147109E+10	18.341984	0.688761	0	0
0	0	0	-0.0628	6.044288	-23.905633	6.044288	9333.5	-2.621113E-11	-3.815173E+10	18.115863	0.688919	0	0
0	0	0	-0.066108	6.044647	-23.911675	6.044647	9317	-8.008807E-12	-1.248625E+11	18.278448	0.686067	0	0
0	0	0	-0.067537	6.044261	-23.912153	6.044261	9310	-3.142165E-11	-3.182519E+10	18.215329	0.68579	0	0
0	0	0	-0.068762	6.044401	-23.914417	6.044401	9303.5	-1.524601E-11	-6.559091E+10	18.143984	0.683968	0	0
0	0	0	-0.07113	6.044361	-23.917572	6.044361	9292	-1.785103E-11	-5.601916E+10	18.302462	0.682423	0	0
0	0	0	-0.071539	6.044215	-23.917566	6.044215	9290	-4.84742E-11	-2.062953E+10	18.065705	0.682225	0	0
0	0	0	-0.072968	6.044448	-23.920483	6.044448	9282.5	-1.298489E-11	-7.701258E+10	18.259109	0.679492	0	0
0	0	0	-0.073621	6.04466	-23.922236	6.04466	9279	-7.776289E-12	-1.28596E+11	18.100778	0.67973	0	0
0	0	0	-0.073907	6.044075	-23.920327	6.044075	9277.5	7.586835E-11	1.318073E+10	18.142192	0.677235	0	0
0	0	0	-0.074397	6.044288	-23.921852	6.044288	9275.5	-2.604825E-11	-3.83903E+10	18.232722	0.676046	0	0
0	0	0	-0.074397	6.044228	-23.921616	6.044228	9275.5	-4.186702E-11	-2.388515E+10	18.044477	0.675254	0	0
0	0	0	-0.074356	6.044148	-23.921244	6.044148	9275.5	-2.200246E-10	-4.544947E+9	18.254921	0.672798	0	0
0	0	0	-0.074438	6.044241	-23.921725	6.044241	9275	-3.688679E-11	-2.710997E+10	18.044333	0.672957	0	0
0	0	0	-0.073785	6.044295	-23.921021	6.044295	9278.5	-2.500685E-11	-3.998905E+10	18.141128	0.670422	0	0
0	0	0	-0.074193	6.044215	-23.921278	6.044215	9276.5	-4.840376E-11	-2.065955E+10	18.12908	0.670026	0	0
0	0	0	-0.074438	6.044255	-23.921778	6.044255	9275	-3.296684E-11	-3.033352E+10	18.009071	0.668719	0	0
0	0	0	-0.074071	6.044308	-23.921474	6.044308	9277	-2.313832E-11	-4.321836E+10	18.211941	0.66658	0	0
0	0	0	-0.074683	6.044414	-23.92275	6.044414	9274	-1.448783E-11	-6.902344E+10	17.979543	0.66658	0	0
0	0	0	-0.074683	6.044228	-23.922015	6.044228	9274	-4.186025E-11	-2.388901E+10	18.154752	0.663728	0	0
0	0	0	-0.075173	6.044215	-23.922648	6.044215	9271.5	-4.837767E-11	-2.067069E+10	18.040489	0.663886	0	0
0	0	0	-0.07501	6.044228	-23.922472	6.044228	9272	-4.185123E-11	-2.389416E+10	18.004227	0.661906	0	0
0	0	0	-0.07501	6.044388	-23.923102	6.044388	9272	-1.597721E-11	-6.258916E+10	18.130238	0.660757	0	0
0	0	0	-0.074806	6.044308	-23.922502	6.044308	9273.5	-2.312959E-11	-4.323467E+10	17.945014	0.659807	0	0
0	0	0	-0.075051	6.044388	-23.923159	6.044388	9272	-1.597721E-11	-6.258916E+10	18.153588	0.65739	0	0
0	0	0	-0.075092	6.044102	-23.922088	6.044102	9272	1.483816E-10	6.739379E+9	17.978369	0.657707	0	0
0	0	0	-0.075418	6.044162	-23.922781	6.044162	9270	-1.286517E-10	-7.772923E+9	18.033224	0.655331	0	0
0	0	0	-0.0755	6.044434	-23.923971	6.044434	9270	-1.353342E-11	-7.389114E+10	18.069212	0.654578	0	0
0	0	0	-0.076194	6.044241	-23.924181	6.044241	9266.5	-3.685299E-11	-2.713484E+10	17.904378	0.653628	0	0
0	0	0	-0.077052	6.044388	-23.925957	6.044388	9262	-1.595997E-11	-6.265674E+10	18.109857	0.651251	0	0
0	0	0	-0.077011	6.044281	-23.92548	6.044281	9262	-2.715014E-11	-3.683222E+10	17.887679	0.651489	0	0
0	0	0	-0.07746	6.044248	-23.925977	6.044248	9260	-3.476052E-11	-2.876827E+10	18.044082	0.648558	0	0
0	0	0	-0.078113	6.044334	-23.927232	6.044334	9257	-2.009188E-11	-4.977135E+10	17.973824	0.648597	0	0
0	0	0	-0.078358	6.044075	-23.926552	6.044075	9255.5	7.568844E-11	1.321206E+10	17.906176	0.647053	0	0
0	0	0	-0.078604	6.044414	-23.928232	6.044414	9254	-1.445659E-11	-6.917262E+10	18.055018	0.645429	0	0
0	0	0	-0.078563	6.044255	-23.927546	6.044255	9254.5	-3.289397E-11	-3.040071E+10	17.826566	0.645191	0	0
0	0	0	-0.079951	6.044361	-23.929907	6.044361	9247.5	-1.776554E-11	-5.628873E+10	18.035963	0.642379	0	0
0	0	0	-0.080319	6.044441	-23.930736	6.044441	9245.5	-1.320937E-11	-7.570386E+10	17.892162	0.642537	0	0
0	0	0	-0.082034	6.044481	-23.933292	6.044481	9237	-1.16981E-11	-8.548393E+10	17.91389	0.640398	0	0
0	0	0	-0.081503	6.044634	-23.933153	6.044634	9240	-8.152131E-12	-1.226673E+11	17.997463	0.639448	0	0
0	0	0	-0.082115	6.044095	-23.931884	6.044095	9237	1.192845E-10	8.383316E+9	17.817313	0.638418	0	0
0	0	0	-0.081462	6.044421	-23.932256	6.044421	9240	-1.410531E-11	-7.08953E+10	18.00829	0.636398	0	0
0	0	0	-0.081993	6.044301	-23.932526	6.044301	9237.5	-2.393212E-11	-4.178485E+10	17.806218	0.636437	0	0
0	0	0	-0.082483	6.044221	-23.932897	6.044221	9235	-4.470044E-11	-2.237114E+10	17.925086	0.633902	0	0
0	0	0	-0.082687	6.044195	-23.933077	6.044195	9234	-6.290155E-11	-1.589786E+10	17.908766	0.633546	0	0
0	0	0	-0.083749	6.044341	-23.935139	6.044341	9228.5	-1.940054E-11	-5.154495E+10	17.804652	0.63212	0	0
0	0	0	-0.084606	6.044228	-23.935893	6.044228	9224	-4.163457E-11	-2.40185E+10	17.971838	0.630456	0	0
0	0	0	-0.084688	6.044421	-23.936768	6.044421	9224	-1.408088E-11	-7.101828E+10	17.743284	0.630654	0	0
0	0	0	-0.084035	6.044428	-23.93588	6.044428	9227	-1.377119E-11	-7.261534E+10	17.924586	0.628001	0	0
0	0	0	-0.084361	6.044341	-23.935996	6.044341	9225.5	-1.939424E-11	-5.156171E+10	17.821584	0.627684	0	0
0	0	0	-0.083667	6.044374	-23.935156	6.044374	9229	-1.676694E-11	-5.964117E+10	17.793745	0.625981	0	0
0	0	0	-0.08477	6.044381	-23.936725	6.044381	9223.5	-1.631388E-11	-6.129751E+10	17.900069	0.624911	0	0
0	0	0	-0.084116	6.044401	-23.93589	6.044401	9227	-1.512065E-11	-6.613472E+10	17.695342	0.624436	0	0
0	0	0	-0.083463	6.044175	-23.934084	6.044175	9230	-9.053162E-11	-1.104586E+10	17.906367	0.622099	0	0
0	0	0	-0.083341	6.044461	-23.935041	6.044461	9230.5	-1.23938E-11	-8.068551E+10	17.695198	0.622733	0	0
0	0	0	-0.082932	6.044448	-23.934417	6.044448	9232.5	-1.291495E-11	-7.742965E+10	17.796445	0.620158	0	0
0	0	0	-0.082401	6.044348	-23.933281	6.044348	9235.5	-1.882369E-11	-5.312454E+10	17.803594	0.619485	0	0
0	0	0	-0.080972	6.044182	-23.930626	6.044182	9242.5	-7.906161E-11	-1.264836E+10	17.672255	0.618257	0	0
0	0	0	-0.081258	6.044241	-23.931262	6.044241	9241	-3.675157E-11	-2.720972E+10	17.871656	0.616356	0	0
0	0	0	-0.081748	6.044188	-23.931738	6.044188	9238.5	-7.006737E-11	-1.427198E+10	17.636617	0.616554	0	0
0	0	0	-0.081299	6.044354	-23.931765	6.044354	9240.5	-1.8277E-11	-5.471359E+10	17.807819	0.614058	0	0
0	0	0	-0.080931	6.044461	-23.931671	6.044461	9242.5	-1.240991E-11	-8.058075E+10	17.700763	0.614256	0	0
0	0	0	-0.080155	6.044321	-23.930035	6.044321	9246.5	-2.146181E-11	-4.659439E+10	17.6791	0.612315	0	0
0	0	0	-0.079869	6.044281	-23.929478	6.044281	9248	-2.71091E-11	-3.688798E+10	17.802969	0.610969	0	0
0	0	0	-0.079747	6.044082	-23.928519	6.044082	9248.5	8.616479E-11	1.160567E+10	17.587004	0.610691	0	0
0	0	0	-0.078971	6.044315	-23.928353	6.044315	9252.5	-2.224769E-11	-4.494849E+10	17.805674	0.608156	0	0
0	0	0	-0.079298	6.044162	-23.928206	6.044162	9250.5	-1.283811E-10	-7.789308E+9	17.606911	0.608553	0	0
0	0	0	-0.078808	6.044381	-23.928387	6.044381	9253.5	-1.636694E-11	-6.109878E+10	17.69275	0.606176	0	0
0	0	0	-0.079747	6.044068	-23.928467	6.044068	9248.5	6.73925E-11	1.483845E+10	17.71321	0.605938	0	0
0	0	0	-0.079543	6.044128	-23.928418	6.044128	9249.5	3.437389E-9	2.909185E+8	17.574337	0.604829	0	0
0	0	0	-0.079094	6.044228	-23.928183	6.044228	9252	-4.176095E-11	-2.394581E+10	17.776517	0.602611	0	0
0	0	0	-0.079175	6.044454	-23.929189	6.044454	9251.5	-1.267644E-11	-7.88865E+10	17.539821	0.602968	0	0
0	0	0	-0.07942	6.044228	-23.92864	6.044228	9250	-4.175192E-11	-2.395099E+10	17.698933	0.600314	0	0
0	0	0	-0.078971	6.044241	-23.928064	6.044241	9252.5	-3.679731E-11	-2.71759E+10	17.608595	0.600552	0	0
0	0	0	-0.080155	6.044394	-23.930324	6.044394	9246.5	-1.553313E-11	-6.437851E+10	17.563184	0.598571	0	0
0	0	0	-0.080686	6.044301	-23.930699	6.044301	9244	-2.394896E-11	-4.175547E+10	17.699395	0.597343	0	0
0	0	0	-0.080809	6.044308	-23.930896	6.044308	9243.5	-2.305476E-11	-4.337499E+10	17.478045	0.596908	0	0
0	0	0	-0.08183	6.044334	-23.932429	6.044334	9238	-2.005064E-11	-4.987371E+10	17.685612	0.594571	0	0
0	0	0	-0.081748	6.044208	-23.931816	6.044208	9238.5	-5.228378E-11	-1.912639E+10	17.503991	0.594808	0	0
0	0	0	-0.08232	6.044261	-23.932826	6.044261	9235.5	-3.117021E-11	-3.208191E+10	17.560273	0.592749	0	0
0	0	0	-0.082932	6.044341	-23.933997	6.044341	9232.5	-1.940895E-11	-5.152262E+10	17.591042	0.592432	0	0
0	0	0	-0.082932	6.044448	-23.934417	6.044448	9232.5	-1.291495E-11	-7.742965E+10	17.445855	0.591164	0	0
0	0	0	-0.085587	6.044381	-23.937867	6.044381	9219.5	-1.63068E-11	-6.13241E+10	17.638621	0.589303	0	0
0	0	0	-0.085913	6.044448	-23.938586	6.044448	9217.5	-1.289397E-11	-7.755565E+10	17.412873	0.589382	0	0
0	0	0	-0.086812	6.044421	-23.939737	6.044421	9213.5	-1.406485E-11	-7.109921E+10	17.572252	0.586807	0	0
0	0	0	-0.086607	6.044467	-23.939636	6.044467	9214	-1.21282E-11	-8.245244E+10	17.481943	0.586886	0	0
0	0	0	-0.087465	6.044235	-23.939916	6.044235	9210	-3.89436E-11	-2.567816E+10	17.411008	0.585421	0	0
0	0	0	-0.087914	6.044168	-23.940282	6.044168	9207.5	-1.058283E-10	-9.449271E+9	17.550193	0.584074	0	0
0	0	0	-0.08771	6.044381	-23.940836	6.044381	9209	-1.628823E-11	-6.139402E+10	17.337771	0.583916	0	0
0	0	0	-0.087547	6.044408	-23.940713	6.044408	9209.5	-1.473109E-11	-6.788362E+10	17.558758	0.581262	0	0
0	0	0	-0.088813	6.044474	-23.942746	6.044474	9203.5	-1.188061E-11	-8.41708E+10	17.378968	0.581618	0	0
0	0	0	-0.090242	6.044381	-23.944377	6.044381	9196.5	-1.626612E-11	-6.147747E+10	17.438307	0.579321	0	0
0	0	0	-0.089874	6.044341	-23.943706	6.044341	9198	-1.933643E-11	-5.171587E+10	17.466462	0.578965	0	0
0	0	0	-0.089344	6.044467	-23.943462	6.044467	9200.5	-1.211043E-11	-8.257342E+10	17.298518	0.577974	0	0
0	0	0	-0.090201	6.044414	-23.944451	6.044414	9196.5	-1.436676E-11	-6.960511E+10	17.49831	0.576152	0	0
0	0	0	-0.089344	6.044315	-23.942858	6.044315	9200.5	-2.212266E-11	-4.520253E+10	17.279379	0.576311	0	0
0	0	0	-0.090038	6.044328	-23.943882	6.044328	9197	-2.063106E-11	-4.847061E+10	17.441928	0.573697	0	0
0	0	0	-0.088241	6.044175	-23.940765	6.044175	9206.5	-9.030112E-11	-1.107406E+10	17.362166	0.573855	0	0
0	0	0	-0.088241	6.044428	-23.941763	6.044428	9206.5	-1.37406E-11	-7.277703E+10	17.282588	0.57231	0	0
0	0	0	-0.088608	6.044554	-23.942775	6.044554	9204.5	-9.647757E-12	-1.03651E+11	17.421742	0.571241	0	0
0	0	0	-0.085709	6.044281	-23.937644	6.044281	9219	-2.702409E-11	-3.700402E+10	17.202285	0.570766	0	0
0	0	0	-0.086036	6.044374	-23.938469	6.044374	9217	-1.674514E-11	-5.971882E+10	17.405658	0.568508	0	0
0	0	0	-0.086199	6.044374	-23.938697	6.044374	9216.5	-1.674423E-11	-5.972206E+10	17.23179	0.568746	0	0
0	0	0	-0.08526	6.044275	-23.93699	6.044275	9221	-2.826873E-11	-3.537478E+10	17.306278	0.566488	0	0
0	0	0	-0.086771	6.044454	-23.939812	6.044454	9213.5	-1.262437E-11	-7.921185E+10	17.339426	0.566013	0	0
0	0	0	-0.084525	6.044261	-23.93591	6.044261	9225	-3.113477E-11	-3.211843E+10	17.173577	0.56522	0	0
0	0	0	-0.084566	6.044321	-23.936203	6.044321	9224.5	-2.141075E-11	-4.670552E+10	17.365056	0.563438	0	0
0	0	0	-0.083545	6.044514	-23.935536	6.044514	9229.5	-1.067783E-11	-9.365198E+10	17.135377	0.563557	0	0
0	0	0	-0.083177	6.044388	-23.934524	6.044388	9231.5	-1.590742E-11	-6.286375E+10	17.307952	0.56118	0	0
0	0	0	-0.083218	6.044414	-23.934686	6.044414	9231.5	-1.442144E-11	-6.934121E+10	17.225903	0.56122	0	0
0	0	0	-0.082115	6.044221	-23.932383	6.044221	9237	-4.471012E-11	-2.23663E+10	17.175959	0.559596	0	0
0	0	0	-0.080931	6.044434	-23.931566	6.044434	9242.5	-1.349327E-11	-7.4111E+10	17.310733	0.558328	0	0
0	0	0	-0.081666	6.044275	-23.931965	6.044275	9239	-2.832391E-11	-3.530586E+10	17.058381	0.558447	0	0
0	0	0	-0.082401	6.044301	-23.933097	6.044301	9235.5	-2.392694E-11	-4.17939E+10	17.280535	0.555873	0	0
0	0	0	-0.081299	6.044328	-23.93166	6.044328	9240.5	-2.072864E-11	-4.824243E+10	17.087164	0.556229	0	0
0	0	0	-0.081013	6.044547	-23.932127	6.044547	9242	-9.841266E-12	-1.016129E+11	17.155935	0.554169	0	0
0	0	0	-0.081789	6.044414	-23.932687	6.044414	9238.5	-1.443237E-11	-6.928867E+10	17.190699	0.553536	0	0
0	0	0	-0.08232	6.044255	-23.9328	6.044255	9235.5	-3.282644E-11	-3.046325E+10	17.038411	0.552981	0	0
0	0	0	-0.08138	6.044215	-23.931329	6.044215	9240.5	-4.821591E-11	-2.074004E+10	17.229684	0.551238	0	0
0	0	0	-0.08232	6.044308	-23.933009	6.044308	9235.5	-2.303481E-11	-4.341256E+10	16.996509	0.551318	0	0
0	0	0	-0.08232	6.044155	-23.932406	6.044155	9235.5	-1.617261E-10	-6.183295E+9	17.1788	0.548783	0	0
0	0	0	-0.08281	6.044162	-23.933117	6.044162	9233.5	-1.281452E-10	-7.803649E+9	17.058382	0.54906	0	0
0	0	0	-0.083422	6.044122	-23.933817	6.044122	9230	5.232421E-10	1.911161E+9	17.048397	0.547159	0	0
0	0	0	-0.083708	6.044182	-23.934453	6.044182	9229	-7.894613E-11	-1.266687E+10	17.160374	0.546406	0	0
0	0	0	-0.084566	6.044348	-23.936308	6.044348	9224.5	-1.880127E-11	-5.318789E+10	16.92895	0.54605	0	0
0	0	0	-0.084933	6.044168	-23.936113	6.044168	9222.5	-1.060007E-10	-9.433902E+9	17.138149	0.54403	0	0
0	0	0	-0.086893	6.044328	-23.939484	6.044328	9213	-2.066695E-11	-4.838643E+10	16.928769	0.544346	0	0
0	0	0	-0.087343	6.044368	-23.94027	6.044368	9210.5	-1.720048E-11	-5.813791E+10	17.025977	0.542208	0	0
0	0	0	-0.087914	6.044308	-23.940833	6.044308	9207.5	-2.296497E-11	-4.354458E+10	17.015055	0.541811	0	0
0	0	0	-0.086812	6.044215	-23.938924	6.044215	9213.5	-4.807503E-11	-2.080082E+10	16.908114	0.540584	0	0
0	0	0	-0.088894	6.044534	-23.943096	6.044534	9203	-1.012199E-11	-9.879479E+10	17.10099	0.538999	0	0
0	0	0	-0.089017	6.044428	-23.942848	6.044428	9202.5	-1.373463E-11	-7.280866E+10	16.869793	0.539039	0	0
0	0	0	-0.090119	6.044428	-23.94439	6.044428	9197	-1.372642E-11	-7.285221E+10	17.040158	0.537098	0	0
0	0	0	-0.090691	6.044441	-23.945242	6.044441	9194	-1.313579E-11	-7.612792E+10	16.896172	0.537375	0	0
0	0	0	-0.08918	6.044321	-23.942656	6.044321	9201.5	-2.135736E-11	-4.682226E+10	16.917951	0.535236	0	0
0	0	0	-0.090119	6.044561	-23.944914	6.044561	9197	-9.491178E-12	-1.05361E+11	16.985329	0.534603	0	0
0	0	0	-0.090405	6.044421	-23.944763	6.044421	9195.5	-1.403738E-11	-7.123839E+10	16.80094	0.533929	0	0
0	0	0	-0.092937	6.044275	-23.947726	6.044275	9182.5	-2.81507E-11	-3.55231E+10	17.018956	0.53183	0	0
0	0	0	-0.09261	6.044301	-23.947374	6.044301	9184.5	-2.379481E-11	-4.202597E+10	16.785973	0.532622	0	0
0	0	0	-0.093223	6.044248	-23.948021	6.044248	9181.5	-3.446584E-11	-2.901423E+10	16.920961	0.530087	0	0
0	0	0	-0.093795	6.044401	-23.949424	6.044401	9178.5	-1.504117E-11	-6.648418E+10	16.857726	0.530364	0	0
0	0	0	-0.09306	6.044494	-23.948764	6.044494	9182	-1.120421E-11	-8.925217E+10	16.780256	0.52882	0	0
0	0	0	-0.091712	6.044594	-23.947273	6.044594	9189	-8.803824E-12	-1.13587E+11	16.931588	0.527513	0	0
0	0	0	-0.092243	6.044394	-23.947228	6.044394	9186.5	-1.543234E-11	-6.479899E+10	16.717993	0.527433	0	0
0	0	0	-0.091835	6.044281	-23.946211	6.044281	9188.5	-2.693469E-11	-3.712685E+10	16.921711	0.525374	0	0
0	0	0	-0.091222	6.044454	-23.946036	6.044454	9191.5	-1.259423E-11	-7.940145E+10	16.755308	0.525849	0	0
0	0	0	-0.091222	6.044514	-23.946273	6.044514	9191.5	-1.063387E-11	-9.403916E+10	16.802718	0.523591	0	0
0	0	0	-0.090977	6.044334	-23.945221	6.044334	9192.5	-1.995189E-11	-5.012057E+10	16.847029	0.522997	0	0
0	0	0	-0.089344	6.044241	-23.94257	6.044241	9200.5	-3.65905E-11	-2.732949E+10	0	0	0	0
0	0	0	-0.088853	6.044328	-23.942225	6.044328	9203	-2.064452E-11	-4.843901E+10	0	0	0	0
0	0	0	-0.086934	6.044315	-23.939489	6.044315	9212.5	-2.215151E-11	-4.514365E+10	0	0	0	0
0	0	0	-0.086567	6.044095	-23.938109	6.044095	9214.5	1.18994E-10	8.403787E+9	0	0	0	0
0	0	0	-0.085954	6.044348	-23.93825	6.044348	9217.5	-1.8787E-11	-5.322828E+10	0	0	0	0
0	0	0	-0.085791	6.044288	-23.937785	6.044288	9218.5	-2.588818E-11	-3.862767E+10	0	0	0	0
0	0	0	-0.085709	6.044441	-23.938274	6.044441	9219	-1.31715E-11	-7.592147E+10	0	0	0	0
0	0	0	-0.084321	6.044514	-23.936621	6.044514	9225.5	-1.06732E-11	-9.369258E+10	0	0	0	0
0	0	0	-0.083871	6.044448	-23.935731	6.044448	9228	-1.290865E-11	-7.746741E+10	0	0	0	0
0	0	0	-0.083586	6.044321	-23.934832	6.044321	9229.5	-2.142235E-11	-4.668021E+10	0	0	0	0
0	0	0	-0.082156	6.044481	-23.933463	6.044481	9236.5	-1.169747E-11	-8.548856E+10	0	0	0	0
0	0	0	-0.08281	6.044301	-23.933669	6.044301	9233.5	-2.392176E-11	-4.180295E+10	0	0	0	0
0	0	0	-0.083055	6.044408	-23.934431	6.044408	9232	-1.476708E-11	-6.771818E+10	0	0	0	0
0	0	0	-0.08428	6.044301	-23.935724	6.044301	9226	-2.390233E-11	-4.183693E+10	0	0	0	0
0	0	0	-0.083341	6.044467	-23.935067	6.044467	9230.5	-1.214992E-11	-8.230505E+10	0	0	0	0
0	0	0	-0.083259	6.044095	-23.933483	6.044095	9231	1.192071E-10	8.388765E+9	0	0	0	0
0	0	0	-0.083463	6.044241	-23.934346	6.044241	9230	-3.670783E-11	-2.724215E+10	0	0	0	0
0	0	0	-0.082646	6.044368	-23.933702	6.044368	9234	-1.724437E-11	-5.798995E+10	0	0	0	0
0	0	0	-0.083667	6.044255	-23.934684	6.044255	9229	-3.280333E-11	-3.048471E+10	0	0	0	0
0	0	0	-0.084361	6.044288	-23.935786	6.044288	9225.5	-2.590783E-11	-3.859836E+10	0	0	0	0
0	0	0	-0.084239	6.044215	-23.935326	6.044215	9226.5	-4.814286E-11	-2.077151E+10	0	0	0	0
0	0	0	-0.08526	6.044155	-23.936518	6.044155	9221	-1.614721E-10	-6.193019E+9	0	0	0	0
0	0	0	-0.086036	6.044108	-23.937419	6.044108	9217	1.938855E-10	5.157682E+9	0	0	0	0
0	0	0	-0.086689	6.044281	-23.939015	6.044281	9214	-2.700944E-11	-3.70241E+10	0	0	0	0
0	0	0	-0.087751	6.044321	-23.940657	6.044321	9208.5	-2.137361E-11	-4.678667E+10	0	0	0	0
0	0	0	-0.088894	6.044454	-23.942781	6.044454	9203	-1.260999E-11	-7.930223E+10	0	0	0	0
0	0	0	-0.089956	6.044374	-23.943951	6.044374	9197.5	-1.670971E-11	-5.984544E+10	0	0	0	0
0	0	0	-0.090201	6.044414	-23.944451	6.044414	9196.5	-1.436676E-11	-6.960511E+10	0	0	0	0
0	0	0	-0.091753	6.044401	-23.946569	6.044401	9188.5	-1.505756E-11	-6.641183E+10	0	0	0	0
0	0	0	-0.092039	6.044501	-23.947362	6.044501	9187.5	-1.101008E-11	-9.082586E+10	0	0	0	0
0	0	0	-0.0931	6.044281	-23.947981	6.044281	9182	-2.691563E-11	-3.715313E+10	0	0	0	0
0	0	0	-0.0931	6.044348	-23.948243	6.044348	9182	-1.871465E-11	-5.343408E+10	0	0	0	0
0	0	0	-0.093591	6.044348	-23.948929	6.044348	9179.5	-1.870955E-11	-5.344863E+10	0	0	0	0
0	0	0	-0.093223	6.044301	-23.948231	6.044301	9181.5	-2.378704E-11	-4.20397E+10	0	0	0	0
0	0	0	-0.092815	6.044195	-23.94724	6.044195	9183.5	-6.255755E-11	-1.598528E+10	0	0	0	0
0	0	0	-0.095142	6.044235	-23.950653	6.044235	9172	-3.878292E-11	-2.578455E+10	0	0	0	0
0	0	0	-0.095918	6.044261	-23.951843	6.044261	9168	-3.094239E-11	-3.231812E+10	0	0	0	0
0	0	0	-0.094897	6.044501	-23.95136	6.044501	9173	-1.09927E-11	-9.096943E+10	0	0	0	0
0	0	0	-0.096612	6.044321	-23.95305	6.044321	9164.5	-2.127148E-11	-4.70113E+10	0	0	0	0
0	0	0	-0.096572	6.044228	-23.952625	6.044228	9165	-4.136826E-11	-2.417312E+10	0	0	0	0
0	0	0	-0.095265	6.044454	-23.95169	6.044454	9171.5	-1.256682E-11	-7.95746E+10	0	0	0	0
0	0	0	-0.09404	6.044581	-23.950476	6.044581	9177.5	-9.052105E-12	-1.104715E+11	0	0	0	0
0	0	0	-0.094652	6.044441	-23.950781	6.044441	9174	-1.310721E-11	-7.629388E+10	0	0	0	0
0	0	0	-0.093672	6.044481	-23.949568	6.044481	9179	-1.162465E-11	-8.602409E+10	0	0	0	0
0	0	0	-0.093836	6.044321	-23.949166	6.044321	9178.5	-2.130398E-11	-4.693959E+10	0	0	0	0
0	0	0	-0.091385	6.044428	-23.94616	6.044428	9190.5	-1.371672E-11	-7.290373E+10	0	0	0	0
0	0	0	-0.091426	6.044255	-23.945535	6.044255	9190.5	-3.266649E-11	-3.061241E+10	0	0	0	0
0	0	0	-0.090446	6.044388	-23.944689	6.044388	9195	-1.584452E-11	-6.311329E+10	0	0	0	0
0	0	0	-0.090364	6.044315	-23.944286	6.044315	9195.5	-2.211063E-11	-4.522711E+10	0	0	0	0
0	0	0	-0.08869	6.044334	-23.942023	6.044334	9204	-1.997685E-11	-5.005795E+10	0	0	0	0
0	0	0	-0.088527	6.044394	-23.942031	6.044394	9205	-1.546342E-11	-6.466876E+10	0	0	0	0
0	0	0	-0.088078	6.044328	-23.94114	6.044328	9207	-2.065349E-11	-4.841797E+10	0	0	0	0
0	0	0	-0.085995	6.044354	-23.938333	6.044354	9217.5	-1.82315E-11	-5.485011E+10	0	0	0	0
0	0	0	-0.085505	6.044275	-23.937333	6.044275	9220	-2.826566E-11	-3.537862E+10	0	0	0	0
0	0	0	-0.085791	6.044248	-23.937627	6.044248	9218.5	-3.460473E-11	-2.889778E+10	0	0	0	0
0	0	0	-0.086362	6.044301	-23.938637	6.044301	9215.5	-2.387512E-11	-4.18846E+10	0	0	0	0
0	0	0	-0.084566	6.044188	-23.935678	6.044188	9224.5	-6.996119E-11	-1.429364E+10	0	0	0	0
0	0	0	-0.084443	6.044315	-23.936005	6.044315	9225	-2.218157E-11	-4.508248E+10	0	0	0	0
0	0	0	-0.084933	6.044414	-23.937084	6.044414	9222.5	-1.440738E-11	-6.940888E+10	0	0	0	0
0	0	0	-0.084647	6.044368	-23.936501	6.044368	9224	-1.722569E-11	-5.805282E+10	0	0	0	0
0	0	0	-0.08477	6.044122	-23.935701	6.044122	9223.5	5.228736E-10	1.912508E+9	0	0	0	0
0	0	0	-0.084239	6.044288	-23.935615	6.044288	9226.5	-2.591064E-11	-3.859418E+10	0	0	0	0
0	0	0	-0.084361	6.044175	-23.93534	6.044175	9225.5	-9.048748E-11	-1.105125E+10	0	0	0	0
0	0	0	-0.085056	6.044241	-23.936573	6.044241	9222	-3.667601E-11	-2.726578E+10	0	0	0	0
0	0	0	-0.085791	6.044168	-23.937313	6.044168	9218.5	-1.059547E-10	-9.437995E+9	0	0	0	0
0	0	0	-0.086893	6.044215	-23.939038	6.044215	9213	-4.807242E-11	-2.080195E+10	0	0	0	0
0	0	0	-0.085791	6.044281	-23.937759	6.044281	9218.5	-2.702263E-11	-3.700602E+10	0	0	0	0
0	0	0	-0.086281	6.044122	-23.937814	6.044122	9216	5.224484E-10	1.914065E+9	0	0	0	0
0	0	0	-0.086648	6.044354	-23.939247	6.044354	9214	-1.822458E-11	-5.487094E+10	0	0	0	0
0	0	0	-0.0882	6.044255	-23.941023	6.044255	9206.5	-3.272336E-11	-3.055921E+10	0	0	0	0
0	0	0	-0.089384	6.044328	-23.942968	6.044328	9200.5	-2.063891E-11	-4.845217E+10	0	0	0	0
0	0	0	-0.089303	6.044514	-23.943589	6.044514	9201	-1.064486E-11	-9.394206E+10	0	0	0	0
0	0	0	-0.090609	0	-0.090609	0	9194.5	0	0	0	0	0	0
0	0	0	-0.092243	0	-0.092243	0	9186.5	0	0	0	0	0	0
