Vload_(V)	ILoad_(A)	RsLoad (ohm)	SunsVoc_Voltage_(V)	SunsVoc_Current_(A)	Model_Voltage_(V)	Model_Current_(A)	Carrier_Density_(cm-3)	Lifetime_(s)	Inverse_Lifetime_(s-1)	Efficiency_(%)	Intensity_(suns)	Dark_IV_Voltage_(V)	Dark_IV_Current_(A)
2.961782	6.42067	0	65.113089	-0.807369	65.329522	-0.807369	3.928063E+15	0.000228	4357.848288	19.677326	1.107655	0	0
2.962165	6.41788	4.590918	65.058205	-0.546835	65.206549	-0.546835	3.877397E+15	0.000234	4255.717034	19.683221	1.1071	0	0
7.070299	6.409386	6.108852	64.914256	-0.118845	64.947495	-0.118845	3.747235E+15	0.000241	4133.975001	19.763404	1.107338	0	0
12.19618	6.389806	5.998293	64.738128	0.314014	64.647073	0.314014	3.593206E+15	0.000247	4027.088665	19.610593	1.107576	0	0
16.856346	6.382649	5.377757	64.567717	0.712582	64.353997	0.712582	3.449483E+15	0.000254	3922.203954	19.788155	1.106229	0	0
21.6639	6.37844	4.677199	64.401226	1.072847	64.069023	1.072847	3.313938E+15	0.00026	3825.985582	19.628441	1.106348	0	0
26.826941	6.289821	4.430528	64.233428	1.418528	63.780286	1.418528	3.182043E+15	0.000267	3727.96127	19.748791	1.104288	0	0
31.691978	6.284913	3.675648	64.060771	1.740993	63.487063	1.740993	3.051107E+15	0.000274	3638.252286	19.700642	1.103813	0	0
36.56536	6.275489	2.933248	63.894893	2.042056	63.202193	2.042056	2.929729E+15	0.000281	3546.033039	19.632604	1.102664	0	0
41.100067	6.339818	1.936762	63.719377	2.333465	62.903907	2.333465	2.805857E+15	0.000288	3456.983524	19.746319	1.101159	0	0
45.914671	6.316329	1.292453	63.545781	2.604799	62.609079	2.604799	2.687797E+15	0.000296	3369.998091	19.550447	1.101436	0	0
47.344705	6.300923	1.128272	63.376432	2.854494	62.321706	2.854494	2.576756E+15	0.000303	3285.868634	19.723963	1.099099	0	0
48.754887	6.276074	0.98897	63.205898	3.083796	62.035732	3.083796	2.468927E+15	0.000311	3209.515871	19.566874	1.099654	0	0
50.166988	6.234116	0.878841	63.039244	3.297772	61.755786	3.297772	2.367293E+15	0.000318	3133.237712	19.649958	1.097674	0	0
51.599059	6.163689	0.795261	62.87112	3.493634	61.477131	3.493634	2.26839E+15	0.000325	3065.328272	19.633554	1.098545	0	0
53.023518	6.060236	0.722099	62.715777	3.668924	61.218561	3.668924	2.180144E+15	0.000333	2998.867111	19.550733	1.097951	0	0
54.421106	5.907364	0.662127	62.55921	3.832214	60.960316	3.832214	2.09416E+15	0.00034	2937.183682	19.702414	1.097476	0	0
55.812023	5.684477	0.609073	62.403663	3.985191	60.704741	3.985191	2.011589E+15	0.000347	2877.448586	19.529422	1.098268	0	0
57.166291	5.368039	0.565697	62.246402	4.127981	60.448693	4.127981	1.930914E+15	0.000354	2822.318399	19.720232	1.096327	0	0
58.512458	4.925215	0.529556	62.089998	4.264899	60.193704	4.264899	1.853395E+15	0.000361	2765.127158	19.602206	1.097515	0	0
59.822883	4.334599	0.49885	61.931184	4.393623	59.936905	4.393623	1.77737E+15	0.000368	2711.577756	19.653376	1.09601	0	0
61.07847	3.58435	0.471767	61.772942	4.515058	59.681816	4.515058	1.704234E+15	0.000375	2658.847554	19.715645	1.095772	0	0
62.251029	2.692529	0.450022	61.614006	4.627744	59.427735	4.627744	1.633327E+15	0.000382	2610.526391	19.585778	1.095376	0	0
63.332486	1.709684	0.448505	61.457929	4.731737	59.179397	4.731737	1.566109E+15	0.000389	2564.937451	19.757425	1.093792	0	0
64.201562	0.788666	0.465411	61.304465	4.8307	58.934982	4.8307	1.50228E+15	0.000397	2517.48703	19.562891	1.094109	0	0
53.721339	5.991541	0.691426	61.146305	4.924726	58.685212	4.924726	1.438779E+15	0.000404	2473.395623	19.710341	1.091336	0	0
64.876839	0	0	60.988676	5.011258	58.438206	5.011258	1.377727E+15	0.00041	2433.818903	19.629624	1.091455	0	0
0	0	0	60.83758	5.088009	58.203149	5.088009	1.32124E+15	0.000416	2399.876698	19.61897	1.089276	0	0
0	0	0	60.696041	5.159307	57.982045	5.159307	1.270083E+15	0.000423	2363.150882	19.708037	1.087969	0	0
0	0	0	60.550091	5.227183	57.755834	5.227183	1.219062E+15	0.000429	2329.739071	19.541498	1.087217	0	0
0	0	0	60.404549	5.289543	57.531996	5.289543	1.169888E+15	0.000434	2300.983572	19.727522	1.084325	0	0
0	0	0	60.264398	5.348696	57.315941	5.348696	1.1241E+15	0.00044	2269.621671	19.541625	1.084523	0	0
0	0	0	60.126574	5.40445	57.103881	5.40445	1.08053E+15	0.000446	2238.463874	19.662438	1.081394	0	0
0	0	0	59.984953	5.457946	56.887197	5.457946	1.037226E+15	0.000452	2209.2894	19.627271	1.081157	0	0
0	0	0	59.844843	5.508014	56.673598	5.508014	9.958098E+14	0.000458	2181.61578	19.580255	1.079097	0	0
0	0	0	59.707142	5.556732	56.46316	5.556732	9.564506E+14	0.000465	2150.247986	19.703167	1.07779	0	0
0	0	0	59.56695	5.602211	56.250549	5.602211	9.177134E+14	0.000471	2123.142937	19.516031	1.077513	0	0
0	0	0	59.430474	5.644512	56.044042	5.644512	8.812628E+14	0.000477	2096.780845	19.700393	1.074859	0	0
0	0	0	59.286933	5.684885	55.828622	5.684885	8.44231E+14	0.000482	2074.99575	19.550833	1.075334	0	0
0	0	0	59.151519	5.722204	55.625251	5.722204	8.104908E+14	0.000487	2051.832012	19.624161	1.072997	0	0
0	0	0	59.014717	5.757473	55.420714	5.757473	7.775521E+14	0.000492	2030.829401	19.641399	1.072918	0	0
0	0	0	58.883264	5.790505	55.224187	5.790505	7.469601E+14	0.000498	2008.778547	19.550832	1.071571	0	0
0	0	0	58.747482	5.822036	55.022311	5.822036	7.164222E+14	0.000502	1989.6735	19.718006	1.06967	0	0
0	0	0	58.617826	5.851319	54.829611	5.851319	6.882431E+14	0.000507	1969.880792	19.532801	1.06971	0	0
0	0	0	58.485801	5.879238	54.634179	5.879238	6.60509E+14	0.000512	1951.999074	19.694194	1.067175	0	0
0	0	0	58.35639	5.905217	54.443117	5.905217	6.342401E+14	0.000517	1935.356126	19.586562	1.067095	0	0
0	0	0	58.225713	5.929822	54.250879	5.929822	6.086111E+14	0.00052	1920.629347	19.626073	1.064164	0	0
0	0	0	58.099079	5.953249	54.064512	5.953249	5.84613E+14	0.000525	1904.082682	19.68181	1.063055	0	0
0	0	0	57.97416	5.975249	53.88109	5.975249	5.617276E+14	0.000529	1888.426691	19.551143	1.06159	0	0
0	0	0	57.843278	5.996085	53.690103	5.996085	5.385677E+14	0.000532	1877.533778	19.721884	1.059094	0	0
0	0	0	57.721544	6.015786	53.511954	6.015786	5.177587E+14	0.000537	1862.407761	19.536448	1.058698	0	0
0	0	0	57.596094	6.034288	53.329346	6.034288	4.970337E+14	0.00054	1851.443758	19.68103	1.055173	0	0
0	0	0	57.473462	6.052093	53.150778	6.052093	4.77462E+14	0.000544	1838.549946	19.600439	1.054658	0	0
0	0	0	57.349564	6.068466	52.971274	6.068466	4.583611E+14	0.000546	1830.115543	19.571535	1.052282	0	0
0	0	0	57.228688	6.084118	52.796155	6.084118	4.40361E+14	0.000549	1820.294507	19.67302	1.050658	0	0
0	0	0	57.10724	6.099168	52.620481	6.099168	4.228909E+14	0.000552	1810.753514	19.504769	1.049509	0	0
0	0	0	56.983382	6.113535	52.441832	6.113535	4.056928E+14	0.000554	1803.188133	19.704117	1.046301	0	0
0	0	0	56.864589	6.126929	52.270581	6.126929	3.897691E+14	0.000557	1795.028907	19.517374	1.046657	0	0
0	0	0	56.742569	6.139928	52.095059	6.139928	3.739799E+14	0.000559	1788.0421	19.644352	1.043251	0	0
0	0	0	56.624469	6.151952	51.925426	6.151952	3.592305E+14	0.000561	1781.746567	19.610255	1.042894	0	0
0	0	0	56.508861	6.16386	51.759105	6.16386	3.452862E+14	0.000564	1771.577264	19.556126	1.040676	0	0
0	0	0	56.385657	6.175029	51.582862	6.175029	3.309489E+14	0.000566	1767.95095	19.701951	1.038696	0	0
0	0	0	56.27352	6.185702	51.421913	6.185702	3.183562E+14	0.000569	1758.038727	19.511307	1.0383	0	0
0	0	0	56.15297	6.195627	51.249959	6.195627	3.052908E+14	0.000569	1755.857236	19.70445	1.034933	0	0
0	0	0	56.035892	6.205484	51.082649	6.205484	2.93057E+14	0.000572	1749.05155	19.558884	1.034616	0	0
0	0	0	55.921263	6.214517	50.919207	6.214517	2.815016E+14	0.000573	1744.424126	19.628666	1.031962	0	0
0	0	0	55.801	6.223474	50.748022	6.223474	2.698146E+14	0.000574	1740.918841	19.65362	1.030932	0	0
0	0	0	55.69119	6.231779	50.591504	6.231779	2.595231E+14	0.000577	1733.737656	19.549099	1.02911	0	0
0	0	0	55.572315	6.239483	50.423005	6.239483	2.487784E+14	0.000576	1734.858276	19.716906	1.026259	0	0
0	0	0	55.460055	6.247159	50.263452	6.247159	2.389993E+14	0.000578	1729.344971	19.524205	1.025625	0	0
0	0	0	55.345876	6.254387	50.101555	6.254387	2.294087E+14	0.000579	1726.604008	19.691133	1.022416	0	0
0	0	0	55.230227	6.261308	49.937812	6.261308	2.200494E+14	0.00058	1725.12509	19.571044	1.021941	0	0
0	0	0	55.118784	6.267986	49.779929	6.267986	2.113585E+14	0.000581	1720.805955	19.610114	1.018654	0	0
0	0	0	55.005789	6.273986	49.620419	6.273986	2.028652E+14	0.000581	1722.392603	19.667702	1.01703	0	0
0	0	0	54.893978	6.280167	49.462293	6.280167	1.947674E+14	0.000582	1718.412416	19.540464	1.015247	0	0
0	0	0	54.779309	6.285718	49.300728	6.285718	1.867696E+14	0.000581	1721.210023	19.717293	1.012356	0	0
0	0	0	54.666886	6.291349	49.142089	6.291349	1.792209E+14	0.000582	1718.87038	19.523534	1.011603	0	0
0	0	0	54.553074	6.296478	48.981922	6.296478	1.718647E+14	0.000581	1721.355423	19.668205	1.008395	0	0
0	0	0	54.44159	6.301857	48.824647	6.301857	1.649288E+14	0.000583	1716.051139	19.593442	1.007523	0	0
0	0	0	54.324634	6.306786	48.660219	6.306786	1.579304E+14	0.000582	1717.752987	19.582035	1.005068	0	0
0	0	0	54.219113	6.31131	48.511739	6.31131	1.518526E+14	0.000583	1715.53825	19.689759	1.002889	0	0
0	0	0	54.102769	6.315506	48.348688	6.315506	1.454029E+14	0.00058	1722.897493	19.512822	1.001859	0	0
0	0	0	53.994348	6.319664	48.196463	6.319664	1.396223E+14	0.00058	1723.301137	19.707939	0.99877	0	0
0	0	0	53.882783	6.323724	48.039968	6.323724	1.338977E+14	0.00058	1724.742538	19.525842	0.998611	0	0
0	0	0	53.771748	6.327721	47.884207	6.327721	1.284183E+14	0.00058	1724.197262	19.661978	0.995284	0	0
0	0	0	53.659447	6.331276	47.727075	6.331276	1.230902E+14	0.000578	1730.042287	19.618387	0.994492	0	0
0	0	0	53.551802	6.334941	47.576169	6.334941	1.18178E+14	0.000579	1728.078782	19.574222	0.992076	0	0
0	0	0	53.436234	6.338248	47.414701	6.338248	1.131095E+14	0.000576	1735.85092	19.708625	0.989858	0	0
0	0	0	53.332714	6.341318	47.269926	6.341318	1.087437E+14	0.000575	1738.306635	19.527818	0.989026	0	0
0	0	0	53.21833	6.344276	47.110333	6.344276	1.041048E+14	0.000572	1748.078676	19.721291	0.985501	0	0
0	0	0	53.110849	6.347458	46.959943	6.347458	9.991663E+13	0.000573	1745.490112	19.549841	0.985382	0	0
0	0	0	52.999691	6.350045	46.805055	6.350045	9.575339E+13	0.000569	1757.022415	19.649032	0.982055	0	0
0	0	0	52.888861	6.352877	46.650341	6.352877	9.176656E+13	0.000568	1759.845075	19.649419	0.980708	0	0
0	0	0	52.776356	6.355511	46.49349	6.355511	8.788115E+13	0.000566	1766.241201	19.566615	0.978411	0	0
0	0	0	52.66622	6.358039	46.339958	6.358039	8.422962E+13	0.000565	1771.314253	19.718225	0.976034	0	0
0	0	0	52.550979	6.360383	46.179577	6.360383	8.0564E+13	0.000561	1782.619091	19.518209	0.975401	0	0
0	0	0	52.44411	6.362757	46.030616	6.362757	7.730128E+13	0.00056	1784.682788	19.70697	0.971677	0	0
0	0	0	52.328869	6.364751	45.870529	6.364751	7.392481E+13	0.000555	1801.949902	19.55858	0.9714	0	0
0	0	0	52.2142	6.366997	45.710941	6.366997	7.07057E+13	0.000553	1808.334708	19.622348	0.96835	0	0
0	0	0	52.102471	6.369099	45.555505	6.369099	6.769888E+13	0.000551	1814.669125	19.663725	0.966924	0	0
0	0	0	51.985433	6.370714	45.393261	6.370714	6.468122E+13	0.000544	1839.86305	19.545474	0.965181	0	0
0	0	0	51.877257	6.373054	45.2424	6.373054	6.200757E+13	0.000547	1829.285892	19.729449	0.962369	0	0
0	0	0	51.760219	6.374928	45.079837	6.374928	5.923503E+13	0.000544	1839.550034	19.518854	0.962092	0	0
0	0	0	51.634238	6.376601	44.905186	6.376601	5.638453E+13	0.000537	1861.846395	19.689062	0.958884	0	0
0	0	0	51.516343	6.378181	44.741707	6.378181	5.383749E+13	0.000532	1880.038936	19.581003	0.958369	0	0
0	0	0	51.39318	6.379778	44.570958	6.379778	5.12958E+13	0.000527	1899.036134	19.614442	0.955596	0	0
0	0	0	51.283003	6.381452	44.417929	6.381452	4.912103E+13	0.000526	1901.946373	19.692053	0.953933	0	0
0	0	0	51.159472	6.383036	44.246643	6.383036	4.678915E+13	0.000522	1916.082502	19.536687	0.952784	0	0
0	0	0	51.034185	6.384438	44.073122	6.384438	4.45342E+13	0.000516	1938.071555	19.735741	0.949734	0	0
0	0	0	50.916944	6.38572	43.910758	6.38572	4.252012E+13	0.000511	1958.057563	19.53208	0.949576	0	0
0	0	0	50.793372	6.387104	43.739573	6.387104	4.049345E+13	0.000506	1974.626659	19.679972	0.946209	0	0
0	0	0	50.675967	6.388569	43.576745	6.388569	3.865543E+13	0.000505	1978.274752	19.592505	0.945694	0	0
0	0	0	50.551293	6.389601	43.404399	6.389601	3.679285E+13	0.000497	2011.589433	19.59608	0.942921	0	0
0	0	0	50.427435	6.390961	43.232791	6.390961	3.502949E+13	0.000495	2020.340598	19.70176	0.94102	0	0
0	0	0	50.301781	6.392044	43.05901	6.392044	3.332517E+13	0.000489	2046.303668	19.539796	0.939752	0	0
0	0	0	50.176658	6.392995	42.886092	6.392995	3.170888E+13	0.000481	2079.170822	19.738036	0.936663	0	0
0	0	0	50.049003	6.394041	42.709574	6.394041	3.013917E+13	0.000475	2104.754774	19.544786	0.936386	0	0
0	0	0	49.913915	6.395028	42.522899	6.395028	2.856116E+13	0.000468	2138.683997	19.672665	0.933098	0	0
0	0	0	49.784545	6.395711	42.344416	6.395711	2.712616E+13	0.000456	2191.852167	19.616741	0.932544	0	0
0	0	0	49.650969	6.396935	42.159512	6.396935	2.571893E+13	0.000455	2198.428592	19.580265	0.929969	0	0
0	0	0	49.519556	6.3977	41.978104	6.3977	2.440471E+13	0.000446	2242.199051	19.713066	0.927751	0	0
0	0	0	49.378343	6.398474	41.783209	6.398474	2.306617E+13	0.000436	2292.365878	19.531686	0.926761	0	0
0	0	0	49.23954	6.399228	41.591635	6.399228	2.182108E+13	0.000427	2340.867378	19.729196	0.923632	0	0
0	0	0	49.097306	6.40022	41.395049	6.40022	2.061403E+13	0.000423	2363.190263	19.542887	0.923592	0	0
0	0	0	48.95205	6.401163	41.194356	6.401163	1.94494E+13	0.000419	2389.284536	19.643644	0.920304	0	0
0	0	0	48.805079	6.401614	40.99189	6.401614	1.833721E+13	0.000404	2475.577705	19.620688	0.919552	0	0
0	0	0	48.655087	6.402304	40.784971	6.402304	1.7267E+13	0.000395	2533.8747	19.56182	0.917215	0	0
0	0	0	48.500765	6.402822	40.572306	6.402822	1.62304E+13	0.000382	2619.658977	19.713554	0.915155	0	0
0	0	0	48.343871	6.403546	40.355838	6.403546	1.523969E+13	0.000374	2676.706368	19.528843	0.914403	0	0
0	0	0	48.179014	6.404153	40.128564	6.404153	1.426321E+13	0.000362	2758.628768	19.718621	0.911076	0	0
0	0	0	48.015341	6.405029	39.902565	6.405029	1.335513E+13	0.000358	2790.007759	19.556073	0.911155	0	0
0	0	0	47.838682	6.405481	39.659245	6.405481	1.243926E+13	0.000344	2908.763163	19.631566	0.908065	0	0
0	0	0	47.657081	6.405901	39.409169	6.405901	1.156273E+13	0.000329	3042.869604	19.647652	0.906877	0	0
0	0	0	47.463598	6.406521	39.142492	6.406521	1.069625E+13	0.000317	3151.11215	19.552863	0.905134	0	0
0	0	0	47.264723	6.406889	38.868726	6.406889	9.872823E+12	0.000301	3325.300075	19.72436	0.902837	0	0
0	0	0	47.052781	6.407601	38.576537	6.407601	9.064551E+12	0.000291	3434.56667	19.53363	0.902084	0	0
0	0	0	46.828425	6.408148	38.267492	6.408148	8.280542E+12	0.000278	3602.522225	19.718989	0.898797	0	0
0	0	0	46.591777	6.408508	37.941791	6.408508	7.526598E+12	0.00026	3849.292066	19.576664	0.898718	0	0
0	0	0	46.345369	6.409284	37.602101	6.409284	6.814105E+12	0.000251	3980.589506	19.627641	0.895549	0	0
0	0	0	46.091121	6.409624	37.252213	6.409624	6.149293E+12	0.000234	4279.201221	19.668749	0.894519	0	0
0	0	0	45.829113	6.410102	36.891459	6.410102	5.531748E+12	0.00022	4550.954608	19.551862	0.892816	0	0
0	0	0	45.555835	6.410785	36.514912	6.410785	4.95341E+12	0.00021	4754.134741	19.727106	0.8904	0	0
0	0	0	45.270264	6.411169	36.121874	6.411169	4.413379E+12	0.000195	5128.492033	19.540899	0.889489	0	0
0	0	0	44.97032	6.411569	35.709043	6.411569	3.909285E+12	0.00018	5545.954885	19.705561	0.886439	0	0
0	0	0	44.656776	6.412082	35.277342	6.412082	3.443645E+12	0.000168	5941.290974	19.589931	0.88636	0	0
0	0	0	44.326817	6.412184	34.823666	6.412184	3.013277E+12	0.000149	6708.695286	19.609249	0.883706	0	0
0	0	0	43.977296	6.41254	34.34272	6.41254	2.615812E+12	0.000135	7403.803624	19.678971	0.882042	0	0
0	0	0	43.615035	6.413068	33.843984	6.413068	2.259016E+12	0.000125	8016.907252	19.541733	0.880775	0	0
0	0	0	43.231579	6.413553	33.316159	6.413553	1.934155E+12	0.000114	8765.71704	19.734331	0.878121	0	0
0	0	0	42.827011	6.413601	32.759976	6.413601	1.641863E+12	9.750023E-5	10256.385795	19.533542	0.878042	0	0
0	0	0	42.397819	6.414186	32.169088	6.414186	1.379871E+12	8.933261E-5	11194.119954	19.692345	0.874675	0	0
0	0	0	41.93514	6.414503	31.532573	6.414503	1.144027E+12	7.787139E-5	12841.68667	19.598392	0.874437	0	0
0	0	0	41.449389	6.414839	30.864294	6.414839	9.396433E+11	6.76405E-5	14784.04162	19.609349	0.871546	0	0
0	0	0	40.94179	6.4152	30.16592	6.4152	7.649528E+11	5.869902E-5	17036.059087	19.689229	0.870318	0	0
0	0	0	40.401032	6.415537	29.421982	6.415537	6.144137E+11	5.024459E-5	19902.640081	19.535589	0.868971	0	0
0	0	0	39.836303	6.415828	28.64515	6.415828	4.887192E+11	4.236595E-5	23603.863483	19.73102	0.866317	0	0
0	0	0	39.247317	6.415762	27.835587	6.415762	3.849292E+11	3.291904E-5	30377.558956	19.53831	0.86608	0	0
0	0	0	38.633502	6.41613	26.991109	6.41613	3.001409E+11	2.775103E-5	36034.704491	19.681447	0.862832	0	0
0	0	0	37.986855	6.41646	26.101538	6.41646	2.30932E+11	2.302734E-5	43426.633137	19.621578	0.862396	0	0
0	0	0	37.31301	6.416922	25.174305	6.416922	1.757318E+11	1.968108E-5	50810.213159	19.593007	0.859901	0	0
0	0	0	36.610335	6.417013	24.208114	6.417013	1.321712E+11	1.517302E-5	65906.444914	19.707265	0.858118	0	0
0	0	0	35.879237	6.417166	23.202722	6.417166	9.826889E+10	1.177183E-5	84948.586058	19.529513	0.857049	0	0
0	0	0	35.122535	6.417415	22.16192	6.417415	7.230774E+10	9.324595E-6	107243.260955	19.722646	0.854197	0	0
0	0	0	34.347253	6.417493	21.095906	6.417493	5.280561E+10	6.976009E-6	143348.444392	19.525418	0.854356	0	0
0	0	0	33.550123	6.41754	19.999911	6.41754	3.82232E+10	5.126783E-6	195054.105448	19.661176	0.850791	0	0
0	0	0	32.719261	6.417651	18.857403	6.417651	2.72919E+10	3.794224E-6	263558.493168	19.611332	0.850513	0	0
0	0	0	31.870146	6.417894	17.689495	6.417894	1.934308E+10	2.924844E-6	341898.56433	19.566537	0.848216	0	0
0	0	0	31.017397	6.418313	16.516169	6.418313	1.368916E+10	2.437909E-6	410187.503109	19.70502	0.846038	0	0
0	0	0	30.154846	6.418209	15.330535	6.418209	9.649433E+9	1.645635E-6	607668.08261	19.522501	0.845087	0	0
0	0	0	29.281474	6.4185	14.129101	6.4185	6.772064E+9	1.30966E-6	763557.007844	19.713022	0.842473	0	0
0	0	0	28.39238	6.418726	12.906176	6.418726	4.722498E+9	1.019914E-6	980475.051182	19.537177	0.842433	0	0
0	0	0	27.497691	6.418692	11.67618	6.418692	3.28577E+9	6.971743E-7	1434361.495991	19.65948	0.839264	0	0
0	0	0	26.596672	6.418678	10.437432	6.418678	2.280279E+9	4.805017E-7	2081158.196462	19.635204	0.838591	0	0
0	0	0	25.690468	6.41889	9.190974	6.41889	1.579158E+9	3.724394E-7	2685000.664441	19.565812	0.836413	0	0
0	0	0	24.78802	6.419222	7.949345	6.419222	1.095279E+9	3.176019E-7	3148595.296549	19.708944	0.834313	0	0
0	0	0	23.884061	6.419209	6.706529	6.419209	7.592023E+8	2.180433E-7	4586244.376617	19.51603	0.833521	0	0
0	0	0	22.971445	6.419067	5.45216	6.419067	5.24404E+8	1.373429E-7	7281044.440763	19.704986	0.830828	0	0
0	0	0	22.097951	6.419308	4.250532	6.419308	3.680128E+8	1.133785E-7	8820015.054869	19.527843	0.830867	0	0
0	0	0	21.256308	6.419541	3.092694	6.419541	2.616185E+8	9.724031E-8	1.02838E+7	19.633971	0.827659	0	0
0	0	0	20.45632	6.419534	1.992795	6.419534	1.891507E+8	6.986969E-8	1.431236E+7	19.624357	0.827065	0	0
0	0	0	19.69729	6.419696	0.948717	6.419696	1.390464E+8	5.993142E-8	1.668574E+7	19.554232	0.824886	0	0
0	0	0	18.968398	6.419569	-0.05308	6.419569	1.034708E+8	3.944788E-8	2.534991E+7	19.693602	0.823064	0	0
0	0	0	18.270623	6.419802	-1.013165	6.419802	7.797496E+7	3.771256E-8	2.651636E+7	19.498885	0.822549	0	0
0	0	0	17.599392	6.419732	-1.935849	6.419732	5.939723E+7	2.656545E-8	3.764288E+7	19.696332	0.81942	0	0
0	0	0	16.946252	6.419936	-2.834502	6.419936	4.557877E+7	2.607714E-8	3.834777E+7	19.558215	0.819262	0	0
0	0	0	16.31553	6.420035	-3.702015	6.420035	3.529446E+7	2.333924E-8	4.284629E+7	19.626499	0.816727	0	0
0	0	0	15.709107	6.419922	-4.535459	6.419922	2.760125E+7	1.549337E-8	6.454374E+7	19.652637	0.81538	0	0
0	0	0	15.120734	6.420028	-5.344776	6.420028	2.174349E+7	1.422021E-8	7.032247E+7	19.539584	0.813915	0	0
0	0	0	14.549511	6.420339	-6.131177	6.420339	1.724843E+7	2.187232E-8	4.571988E+7	19.702309	0.811617	0	0
0	0	0	13.992133	6.420198	-6.897093	6.420198	1.375965E+7	1.222901E-8	8.177276E+7	19.497304	0.811182	0	0
0	0	0	13.450068	6.420473	-7.643314	6.420473	1.10449E+7	2.355745E-8	4.244941E+7	19.682099	0.808211	0	0
0	0	0	12.932832	6.420268	-8.353821	6.420268	8955462	9.359059E-9	1.068483E+8	19.544605	0.808053	0	0
0	0	0	12.435279	6.420297	-9.038032	6.420297	7319474.5	8.228187E-9	1.215335E+8	19.609941	0.80528	0	0
0	0	0	11.951161	6.420276	-9.703604	6.420276	6015025.25	6.39865E-9	1.56283E+8	19.642312	0.80425	0	0
0	0	0	11.487543	6.420403	-10.341493	6.420403	4984304.875	7.823041E-9	1.278275E+8	19.51819	0.802745	0	0
0	0	0	11.038871	6.420339	-10.958185	6.420339	4155310.125	5.269305E-9	1.897784E+8	19.696337	0.800606	0	0
0	0	0	10.605024	6.420565	-11.555491	6.420565	3485077.25	1.393619E-8	7.175562E+7	19.489392	0.800566	0	0
0	0	0	10.184856	6.420311	-12.132328	6.420311	2939206.875	3.434048E-9	2.912015E+8	19.681421	0.797279	0	0
0	0	0	9.770201	6.420622	-12.703551	6.420622	2484383.375	2.152007E-8	4.646825E+7	19.538203	0.797477	0	0
0	0	0	9.371105	6.420749	-13.252749	6.420749	2113229.25	-1.127241E-8	-8.871218E+7	19.589178	0.794546	0	0
0	0	0	8.978421	6.42077	-13.792761	6.42077	1802202.25	-7.573711E-9	-1.320357E+8	19.631623	0.793516	0	0
0	0	0	8.59766	6.420608	-14.315723	6.420608	1544400.875	1.035804E-8	9.654332E+7	19.512362	0.792011	0	0
0	0	0	8.229478	6.42053	-14.821688	6.42053	1330243.625	3.980196E-9	2.512439E+8	19.687279	0.789832	0	0
0	0	0	7.867665	6.420812	-15.320192	6.420812	1148746.125	-3.389365E-9	-2.950405E+8	19.46764	0.789753	0	0
0	0	0	7.517247	6.420551	-15.801066	6.420551	996605	3.512515E-9	2.846963E+8	19.65792	0.786585	0	0
0	0	0	7.179814	6.420579	-16.265131	6.420579	869177.75	4.016246E-9	2.489887E+8	19.525643	0.786664	0	0
0	0	0	6.863861	6.420636	-16.699767	6.420636	764674	9.349577E-9	1.069567E+8	19.579794	0.78401	0	0
0	0	0	6.560772	6.420706	-17.11677	6.420706	676252.75	-7.818082E-9	-1.279086E+8	19.637846	0.782742	0	0
0	0	0	6.272588	6.420749	-17.513176	6.420749	601680.875	-3.20948E-9	-3.11577E+8	19.503534	0.781673	0	0
0	0	0	5.993879	6.420685	-17.896162	6.420685	537392.5	-1.492221E-8	-6.701422E+7	19.688833	0.779336	0	0
0	0	0	5.721417	6.420827	-18.271321	6.420827	481190.5	-1.291495E-9	-7.742963E+8	19.478632	0.779138	0	0
0	0	0	5.454019	6.420869	-18.639151	6.420869	431751.875	-9.117242E-10	-1.096823E+9	19.660623	0.776049	0	0
0	0	0	5.191685	6.420791	-18.999566	6.420791	388188.75	-1.345816E-9	-7.430439E+8	19.5369	0.776286	0	0
0	0	0	4.929922	6.420834	-19.359648	6.420834	349102	-8.964836E-10	-1.115469E+9	19.580363	0.773593	0	0
0	0	0	4.65987	6.420671	-19.730351	6.420671	312897.5	-1.328141E-7	-7529323.578164	19.637645	0.772523	0	0
0	0	0	4.406438	6.420954	-20.079894	6.420954	282343.875	-4.179788E-10	-2.392466E+9	19.486591	0.771652	0	0
0	0	0	4.152679	6.42094	-20.428758	6.42094	254739.875	-3.968894E-10	-2.519593E+9	19.66829	0.769236	0	0
0	0	0	3.89157	6.420904	-20.787647	6.420904	229150.875	-4.108869E-10	-2.43376E+9	19.455013	0.769157	0	0
0	0	0	3.628337	6.420933	-21.149701	6.420933	205954.875	-3.295213E-10	-3.034705E+9	19.627971	0.766027	0	0
0	0	0	3.360531	6.420848	-21.517606	6.420848	184763.875	-4.36722E-10	-2.289786E+9	19.516377	0.766107	0	0
0	0	0	3.106037	6.420841	-21.867506	6.420841	166650.5	-4.102255E-10	-2.437684E+9	19.54388	0.763691	0	0
0	0	0	2.875147	6.420855	-22.185034	6.420855	151758.125	-3.449845E-10	-2.898681E+9	19.618164	0.7627	0	0
0	0	0	2.670311	6.420961	-22.467097	6.420961	139664	-2.017314E-10	-4.957087E+9	19.463482	0.761789	0	0
0	0	0	2.485975	6.420791	-22.719895	6.420791	129606.625	-4.493344E-10	-2.225514E+9	19.672935	0.759056	0	0
0	0	0	2.319157	6.420827	-22.949406	6.420827	121130.75	-3.251098E-10	-3.075884E+9	19.455143	0.759294	0	0
0	0	0	2.168062	6.420904	-23.157468	6.420904	113933	-2.042915E-10	-4.894966E+9	19.641059	0.755967	0	0
0	0	0	2.007084	6.420805	-23.378421	6.420805	106734.5	-3.313723E-10	-3.017754E+9	19.53644	0.756006	0	0
0	0	0	1.856234	6.420961	-23.586455	6.420961	100402.25	-1.450215E-10	-6.895529E+9	19.541891	0.753788	0	0
0	0	0	1.705261	6.421053	-23.794408	6.421053	94441	-1.036563E-10	-9.64727E+9	19.621085	0.75264	0	0
0	0	0	1.566784	6.420904	-23.984224	6.420904	89284.875	-1.600953E-10	-6.246279E+9	19.451669	0.751768	0	0
0	0	0	1.429287	6.420777	-24.172775	6.420777	84443.75	-3.314323E-10	-3.017207E+9	19.648541	0.749392	0	0
0	0	0	1.30298	6.420827	-24.346644	6.420827	80228.375	-2.153295E-10	-4.644045E+9	19.445519	0.749392	0	0
0	0	0	1.172629	6.420968	-24.52644	6.420968	76098.5	-1.073087E-10	-9.318912E+9	19.617849	0.746302	0	0
0	0	0	1.052488	6.420961	-24.691607	6.420961	72480.625	-1.046914E-10	-9.551886E+9	19.51711	0.746381	0	0
0	0	0	0.938023	6.42125	-24.850159	6.42125	69193.75	-5.005707E-11	-1.99772E+10	19.519472	0.744044	0	0
0	0	0	0.819638	6.421137	-25.012486	6.421137	65951.125	-5.925312E-11	-1.687675E+10	19.610363	0.742817	0	0
0	0	0	0.717015	6.420855	-25.152455	6.420855	63263.375	-1.438136E-10	-6.953444E+9	19.44255	0.742024	0	0
0	0	0	0.608635	6.42125	-25.303074	6.42125	60543.75	-4.379937E-11	-2.283138E+10	19.645341	0.739489	0	0
0	0	0	0.5054	6.421173	-25.44471	6.421173	58062	-4.849884E-11	-2.061905E+10	19.443409	0.739529	0	0
0	0	0	0.410904	6.42118	-25.574671	6.42118	55879.5	-4.60288E-11	-2.172553E+10	19.609183	0.736558	0	0
0	0	0	0.317103	6.421109	-25.703364	6.421109	53794.375	-5.144212E-11	-1.943932E+10	19.511972	0.736598	0	0
0	0	0	0.231713	6.421038	-25.820488	6.421038	51963.875	-5.922209E-11	-1.688559E+10	19.509361	0.73438	0	0
0	0	0	0.161597	6.421144	-25.917329	6.421144	50507.5	-4.470208E-11	-2.237032E+10	19.59219	0.73335	0	0
0	0	0	0.101526	6.421123	-25.999841	6.421123	49292.25	-4.566705E-11	-2.189763E+10	19.420171	0.732597	0	0
0	0	0	0.051951	6.421293	-26.068697	6.421293	48311.375	-3.257089E-11	-3.070226E+10	19.632954	0.729706	0	0
0	0	0	0.022753	6.421074	-26.107954	6.421074	47742.875	-4.965026E-11	-2.014088E+10	19.421031	0.730023	0	0
0	0	0	-0.005629	6.421201	-26.147497	6.421201	47196.625	-3.732441E-11	-2.679212E+10	19.579068	0.727052	0	0
0	0	0	-0.034868	6.421166	-26.187557	6.421166	46640.375	-3.951386E-11	-2.530757E+10	19.490982	0.726933	0	0
0	0	0	-0.045853	6.421088	-26.202345	6.421088	46433.125	-4.665518E-11	-2.143385E+10	19.480752	0.724874	0	0
0	0	0	-0.054919	6.421046	-26.214638	6.421046	46262.75	-5.173246E-11	-1.933022E+10	19.580649	0.723646	0	0
0	0	0	-0.068517	6.421046	-26.233336	6.421046	46008.5	-5.144815E-11	-1.943705E+10	19.409505	0.723091	0	0
0	0	0	-0.080442	6.4213	-26.250768	6.4213	45786.5	-3.052236E-11	-3.276287E+10	19.612616	0.720437	0	0
0	0	0	-0.094203	6.421017	-26.268539	6.421017	45531.75	-5.505952E-11	-1.816216E+10	19.428621	0.7202	0	0
0	0	0	-0.102779	6.421321	-26.281569	6.421321	45373.75	-2.926238E-11	-3.417357E+10	19.576767	0.717704	0	0
0	0	0	-0.10915	6.421144	-26.289609	6.421144	45256.75	-4.005486E-11	-2.496576E+10	19.490243	0.717427	0	0
0	0	0	-0.112008	6.421053	-26.293165	6.421053	45204.25	-4.961514E-11	-2.015514E+10	19.483788	0.715288	0	0
0	0	0	-0.114908	6.421159	-26.297584	6.421159	45151.125	-3.880542E-11	-2.576959E+10	19.579415	0.71414	0	0
0	0	0	-0.1165	6.420961	-26.298967	6.420961	45122	-6.517444E-11	-1.534344E+10	19.400967	0.713585	0	0
0	0	0	-0.117889	6.421046	-26.301222	6.421046	45096.625	-5.042846E-11	-1.983007E+10	19.606903	0.710813	0	0
0	0	0	-0.119359	6.421208	-26.303906	6.421208	45069.75	-3.51743E-11	-2.842984E+10	19.407737	0.710971	0	0
0	0	0	-0.11895	6.421102	-26.302912	6.421102	45077.25	-4.381121E-11	-2.282521E+10	19.561407	0.708079	0	0
0	0	0	-0.120298	6.421024	-26.304448	6.421024	45052.625	-5.339358E-11	-1.872884E+10	19.466334	0.708	0	0
0	0	0	-0.120911	6.421031	-26.305319	6.421031	45041.375	-5.233644E-11	-1.910715E+10	19.471887	0.705822	0	0
0	0	0	-0.121686	6.421024	-26.306357	6.421024	45027.25	-5.33635E-11	-1.87394E+10	19.555406	0.70503	0	0
0	0	0	-0.121727	6.420975	-26.306212	6.420975	45026.5	-6.202136E-11	-1.612348E+10	19.396002	0.704237	0	0
0	0	0	-0.121931	6.421031	-26.306723	6.421031	45022.75	-5.23148E-11	-1.911505E+10	19.605135	0.701663	0	0
0	0	0	-0.122912	6.421038	-26.3081	6.421038	45004.875	-5.129107E-11	-1.949657E+10	19.409205	0.701623	0	0
0	0	0	-0.123157	6.42094	-26.308033	6.42094	45000.375	-7.011141E-11	-1.426301E+10	19.556799	0.69893	0	0
0	0	0	-0.123892	6.420841	-26.30864	6.420841	44987	-1.107396E-10	-9.030192E+9	19.454249	0.699049	0	0
0	0	0	-0.12528	6.420989	-26.311155	6.420989	44961.625	-5.9188E-11	-1.689532E+10	19.459614	0.696989	0	0
0	0	0	-0.125933	6.421067	-26.31237	6.421067	44949.75	-4.757821E-11	-2.101802E+10	19.547676	0.695959	0	0
0	0	0	-0.125852	6.421017	-26.312056	6.421017	44951.25	-5.435755E-11	-1.839671E+10	19.390791	0.694929	0	0
0	0	0	-0.126097	6.420876	-26.311817	6.420876	44946.875	-9.165648E-11	-1.09103E+10	19.598469	0.692513	0	0
0	0	0	-0.126097	6.42106	-26.312566	6.42106	44946.875	-4.843797E-11	-2.064496E+10	19.374167	0.692711	0	0
0	0	0	-0.127853	6.421017	-26.314807	6.421017	44914.875	-5.431356E-11	-1.841161E+10	19.539509	0.68982	0	0
0	0	0	-0.128588	6.421137	-26.316308	6.421137	44901.5	-4.03413E-11	-2.478849E+10	19.430679	0.690137	0	0
0	0	0	-0.13014	6.421159	-26.318528	6.421159	44873.25	-3.85666E-11	-2.592917E+10	19.44749	0.68772	0	0
0	0	0	-0.130303	6.421208	-26.318954	6.421208	44870.25	-3.501861E-11	-2.855625E+10	19.517116	0.686968	0	0
0	0	0	-0.130956	6.420855	-26.318412	6.420855	44858.375	-1.019744E-10	-9.806382E+9	19.374134	0.685819	0	0
0	0	0	-0.130875	6.42118	-26.319625	6.42118	44859.875	-3.695176E-11	-2.706231E+10	19.578942	0.683641	0	0
0	0	0	-0.132059	6.421137	-26.321081	6.421137	44838.25	-4.028447E-11	-2.482346E+10	19.3641	0.683839	0	0
0	0	0	-0.133162	6.421137	-26.322597	6.421137	44818.25	-4.026651E-11	-2.483454E+10	19.541078	0.680868	0	0
0	0	0	-0.135285	6.421116	-26.32543	6.421116	44779.75	-4.214347E-11	-2.372847E+10	19.426169	0.681106	0	0
0	0	0	-0.136102	6.421279	-26.327216	6.421279	44764.875	-3.08806E-11	-3.238279E+10	19.428704	0.678927	0	0
0	0	0	-0.136306	6.42113	-26.326891	6.42113	44761.125	-4.083255E-11	-2.449027E+10	19.520257	0.677739	0	0
0	0	0	-0.135857	6.421166	-26.326418	6.421166	44769.25	-3.792864E-11	-2.63653E+10	19.361053	0.676986	0	0
0	0	0	-0.136674	6.421293	-26.32806	6.421293	44754.5	-3.017289E-11	-3.314233E+10	19.563432	0.67461	0	0
0	0	0	-0.136796	6.421279	-26.32817	6.421279	44752.25	-3.087189E-11	-3.239192E+10	19.329451	0.674927	0	0
0	0	0	-0.137368	6.421024	-26.327919	6.421024	44741.875	-5.302529E-11	-1.885892E+10	19.515784	0.671956	0	0
0	0	0	-0.137164	6.421222	-26.328445	6.421222	44745.625	-3.402753E-11	-2.938797E+10	19.385859	0.672273	0	0
0	0	0	-0.13798	6.421173	-26.329367	6.421173	44730.75	-3.736333E-11	-2.676421E+10	19.419582	0.670055	0	0
0	0	0	-0.140308	6.421144	-26.332452	6.421144	44688.625	-3.955204E-11	-2.528315E+10	19.48695	0.669183	0	0
0	0	0	-0.13896	6.421257	-26.33106	6.421257	44713	-3.195781E-11	-3.129125E+10	19.359813	0.667876	0	0
0	0	0	-0.13994	6.421229	-26.332292	6.421229	44695.25	-3.355974E-11	-2.979761E+10	19.556632	0.665817	0	0
0	0	0	-0.137776	6.420947	-26.328164	6.420947	44734.5	-6.791645E-11	-1.472397E+10	19.334703	0.666015	0	0
0	0	0	-0.138266	6.420947	-26.328838	6.420947	44725.625	-6.790298E-11	-1.472689E+10	19.518945	0.663401	0	0
0	0	0	-0.139736	6.421257	-26.332127	6.421257	44699	-3.19478E-11	-3.130106E+10	19.386312	0.663559	0	0
0	0	0	-0.139777	6.421109	-26.331578	6.421109	44698.25	-4.274374E-11	-2.339524E+10	19.406044	0.661499	0	0
0	0	0	-0.139614	6.420989	-26.330863	6.420989	44701.25	-5.884524E-11	-1.699373E+10	19.471063	0.660588	0	0
0	0	0	-0.139042	6.421335	-26.331489	6.421335	44711.5	-2.822268E-11	-3.543249E+10	19.339961	0.65936	0	0
0	0	0	-0.138634	6.421053	-26.329775	6.421053	44718.875	-4.908241E-11	-2.03739E+10	19.53181	0.657261	0	0
0	0	0	-0.138062	6.421166	-26.32945	6.421166	44729.25	-3.789475E-11	-2.638888E+10	19.307889	0.65734	0	0
0	0	0	-0.137082	6.421123	-26.32793	6.421123	44747.125	-4.145619E-11	-2.412185E+10	19.497184	0.654687	0	0
0	0	0	-0.135816	6.421222	-26.326592	6.421222	44770.125	-3.404616E-11	-2.937189E+10	19.351634	0.654924	0	0
0	0	0	-0.137041	6.42106	-26.327614	6.42106	44747.875	-4.822352E-11	-2.073677E+10	19.403006	0.652587	0	0
0	0	0	-0.136183	6.421314	-26.327472	6.421314	44763.375	-2.918549E-11	-3.42636E+10	19.453906	0.651756	0	0
0	0	0	-0.134795	6.421031	-26.324411	6.421031	44788.625	-5.204275E-11	-1.921497E+10	19.324181	0.650726	0	0
0	0	0	-0.134223	6.420918	-26.323163	6.420918	44799	-7.575648E-11	-1.320019E+10	19.51134	0.648666	0	0
0	0	0	-0.135163	6.421257	-26.325838	6.421257	44781.875	-3.200704E-11	-3.124313E+10	19.281739	0.648983	0	0
0	0	0	-0.135367	6.421144	-26.325658	6.421144	44778.25	-3.963136E-11	-2.523254E+10	19.478022	0.646171	0	0
0	0	0	-0.134713	6.420897	-26.323751	6.420897	44790.125	-8.281131E-11	-1.207565E+10	19.343159	0.646289	0	0
0	0	0	-0.134019	6.420848	-26.322595	6.420848	44802.625	-1.058989E-10	-9.442969E+9	19.403245	0.643953	0	0
0	0	0	-0.133243	6.420947	-26.321931	6.420947	44816.75	-6.804133E-11	-1.469695E+10	19.438878	0.6432	0	0
0	0	0	-0.135408	6.421074	-26.325426	6.421074	44777.5	-4.656642E-11	-2.14747E+10	19.318375	0.642051	0	0
0	0	0	-0.133774	6.421081	-26.323208	6.421081	44807.125	-4.579576E-11	-2.183608E+10	19.498686	0.640309	0	0
0	0	0	-0.133039	6.42106	-26.322111	6.42106	44820.5	-4.830178E-11	-2.070317E+10	19.264586	0.640427	0	0
0	0	0	-0.135163	6.421095	-26.325175	6.421095	44781.875	-4.424784E-11	-2.259997E+10	19.471869	0.637536	0	0
0	0	0	-0.134142	6.42106	-26.323627	6.42106	44800.5	-4.828023E-11	-2.071241E+10	19.311312	0.637813	0	0
0	0	0	-0.13455	6.42113	-26.324477	6.42113	44793	-4.086162E-11	-2.447284E+10	19.401286	0.63508	0	0
0	0	0	-0.135612	6.421137	-26.325966	6.421137	44773.75	-4.022652E-11	-2.485922E+10	19.421035	0.634526	0	0
0	0	0	-0.135122	6.42101	-26.324773	6.42101	44782.625	-5.527856E-11	-1.80902E+10	19.3152	0.633337	0	0
0	0	0	-0.135979	6.421024	-26.32601	6.421024	44767.125	-5.305522E-11	-1.884829E+10	19.483198	0.631595	0	0
0	0	0	-0.134632	6.421067	-26.32433	6.421067	44791.5	-4.741071E-11	-2.109228E+10	19.262635	0.631515	0	0
0	0	0	-0.136061	6.420869	-26.325488	6.420869	44765.625	-9.45309E-11	-1.057855E+10	19.458367	0.629218	0	0
0	0	0	-0.137776	6.421222	-26.329287	6.421222	44734.5	-3.401907E-11	-2.939528E+10	19.295587	0.629574	0	0
0	0	0	-0.138797	6.421152	-26.330403	6.421152	44716	-3.899546E-11	-2.564401E+10	19.413886	0.626604	0	0
0	0	0	-0.13896	6.421272	-26.331118	6.421272	44713	-3.12071E-11	-3.204399E+10	19.394299	0.626525	0	0
0	0	0	-0.140267	6.421159	-26.332453	6.421159	44689.375	-3.840857E-11	-2.603586E+10	19.317501	0.625059	0	0
0	0	0	-0.142227	6.42118	-26.335235	6.42118	44653.875	-3.678208E-11	-2.718715E+10	19.456131	0.623633	0	0
0	0	0	-0.14088	6.421116	-26.333123	6.421116	44678.25	-4.204795E-11	-2.378237E+10	19.236335	0.623514	0	0
0	0	0	-0.141656	6.421272	-26.334824	6.421272	44664.125	-3.117299E-11	-3.207906E+10	19.451779	0.620583	0	0
0	0	0	-0.142227	6.421081	-26.334832	6.421081	44653.875	-4.563913E-11	-2.191102E+10	19.268383	0.621019	0	0
0	0	0	-0.141982	6.421173	-26.334869	6.421173	44658.25	-3.730277E-11	-2.680766E+10	19.381952	0.618603	0	0
0	0	0	-0.143167	6.421152	-26.336411	6.421152	44636.75	-3.892635E-11	-2.568954E+10	19.348922	0.618405	0	0
0	0	0	-0.144024	6.420968	-26.336841	6.420968	44621.375	-6.292187E-11	-1.589272E+10	19.290069	0.61686	0	0
0	0	0	-0.143616	6.421067	-26.336683	6.421067	44628.75	-4.723844E-11	-2.11692E+10	19.421539	0.615592	0	0
0	0	0	-0.143575	6.421144	-26.336944	6.421144	44629.375	-3.94996E-11	-2.531671E+10	19.22963	0.615038	0	0
0	0	0	-0.144106	6.421201	-26.337904	6.421201	44619.875	-3.528665E-11	-2.833933E+10	19.451972	0.612463	0	0
0	0	0	-0.144473	6.421038	-26.337747	6.421038	44613.125	-5.08446E-11	-1.966777E+10	19.242856	0.613137	0	0
0	0	0	-0.143902	6.421081	-26.337134	6.421081	44623.5	-4.560809E-11	-2.192594E+10	19.385889	0.610483	0	0
0	0	0	-0.143534	6.421286	-26.337464	6.421286	44630.25	-3.043442E-11	-3.285754E+10	19.329699	0.610483	0	0
0	0	0	-0.144759	6.421102	-26.338399	6.421102	44608	-4.335514E-11	-2.306532E+10	19.283264	0.60874	0	0
0	0	0	-0.144351	6.421152	-26.33804	6.421152	44615.375	-3.890771E-11	-2.570185E+10	19.398458	0.60775	0	0
0	0	0	-0.143126	6.421243	-26.33673	6.421243	44637.625	-3.269033E-11	-3.059009E+10	19.210958	0.607037	0	0
0	0	0	-0.143289	6.42106	-26.336205	6.42106	44634.625	-4.810147E-11	-2.078938E+10	19.423847	0.60474	0	0
0	0	0	-0.14137	6.421385	-26.334892	6.421385	44669.375	-2.624461E-11	-3.810306E+10	19.19976	0.605255	0	0
0	0	0	-0.143779	6.420954	-26.336447	6.420954	44625.75	-6.606347E-11	-1.513696E+10	19.368261	0.602363	0	0
0	0	0	-0.140961	6.421144	-26.33335	6.421144	44676.75	-3.954153E-11	-2.528987E+10	19.283647	0.602482	0	0
0	0	0	-0.14043	6.421116	-26.332505	6.421116	44686.375	-4.20556E-11	-2.377805E+10	19.267113	0.600779	0	0
0	0	0	-0.140675	6.421137	-26.332928	6.421137	44681.875	-4.014398E-11	-2.491033E+10	19.373108	0.599828	0	0
0	0	0	-0.140185	6.420989	-26.331649	6.420989	44690.75	-5.883142E-11	-1.699772E+10	19.209459	0.598996	0	0
0	0	0	-0.138062	6.421024	-26.328874	6.421024	44729.25	-5.301033E-11	-1.886425E+10	19.420386	0.596818	0	0
0	0	0	-0.138225	6.421441	-26.330798	6.421441	44726.375	-2.435191E-11	-4.106454E+10	19.208045	0.597135	0	0
0	0	0	-0.137654	6.421194	-26.329004	6.421194	44736.75	-3.585627E-11	-2.788913E+10	19.370273	0.594679	0	0
0	0	0	-0.136878	6.421081	-26.327476	6.421081	44750.75	-4.573814E-11	-2.186359E+10	19.26432	0.594837	0	0
0	0	0	-0.13847	6.421074	-26.329637	6.421074	44721.875	-4.650857E-11	-2.150141E+10	19.267729	0.592897	0	0
0	0	0	-0.137899	6.42089	-26.328102	6.42089	44732.25	-8.536019E-11	-1.171506E+10	19.349009	0.591906	0	0
0	0	0	-0.137164	6.421067	-26.327811	6.421067	44745.625	-4.736215E-11	-2.111391E+10	19.180386	0.591233	0	0
0	0	0	-0.135898	6.420982	-26.325725	6.420982	44768.625	-6.026909E-11	-1.659225E+10	19.393966	0.588975	0	0
0	0	0	-0.134877	6.421081	-26.324725	6.421081	44787.125	-4.577532E-11	-2.184583E+10	19.156672	0.58953	0	0
0	0	0	-0.135285	6.420933	-26.324681	6.420933	44779.75	-7.164617E-11	-1.395748E+10	19.36117	0.586559	0	0
0	0	0	-0.134427	6.421024	-26.323876	6.421024	44795.25	-5.308855E-11	-1.883645E+10	19.21028	0.587232	0	0
0	0	0	-0.136755	6.420954	-26.326789	6.420954	44753	-6.625185E-11	-1.509392E+10	19.256753	0.585054	0	0
0	0	0	-0.137654	6.4213	-26.329436	6.4213	44736.75	-2.982257E-11	-3.353165E+10	19.3081	0.584381	0	0
0	0	0	-0.138184	6.421123	-26.329446	6.421123	44727.125	-4.143766E-11	-2.413263E+10	19.187012	0.583232	0	0
0	0	0	-0.136837	6.420911	-26.326728	6.420911	44751.5	-7.78928E-11	-1.283816E+10	19.367553	0.58141	0	0
0	0	0	-0.136224	6.421349	-26.327672	6.421349	44762.625	-2.766717E-11	-3.614393E+10	19.142842	0.581648	0	0
0	0	0	-0.137572	6.420925	-26.327797	6.420925	44738.25	-7.35604E-11	-1.359427E+10	19.34584	0.579192	0	0
0	0	0	-0.137694	6.420996	-26.328253	6.420996	44736	-5.761463E-11	-1.73567E+10	19.192311	0.579588	0	0
0	0	0	-0.13941	6.421144	-26.331217	6.421144	44704.875	-3.956642E-11	-2.527396E+10	19.24812	0.577647	0	0
0	0	0	-0.140961	6.420862	-26.332198	6.420862	44676.75	-9.781939E-11	-1.022292E+10	19.26596	0.577013	0	0
0	0	0	-0.140185	6.421272	-26.332802	6.421272	44690.75	-3.119157E-11	-3.205994E+10	19.162404	0.575785	0	0
0	0	0	-0.14137	6.421017	-26.333393	6.421017	44669.375	-5.401669E-11	-1.85128E+10	19.341328	0.573924	0	0
0	0	0	-0.140798	6.420975	-26.332434	6.420975	44679.75	-6.154373E-11	-1.624861E+10	19.109999	0.574082	0	0
0	0	0	-0.141696	6.420968	-26.333641	6.420968	44663.5	-6.298128E-11	-1.587773E+10	19.333788	0.571508	0	0
0	0	0	-0.142391	6.421208	-26.335575	6.421208	44650.875	-3.48474E-11	-2.869655E+10	19.133106	0.572181	0	0
0	0	0	-0.143697	6.421222	-26.337429	6.421222	44627.25	-3.393751E-11	-2.946592E+10	19.242808	0.569765	0	0
0	0	0	-0.144432	6.421159	-26.338181	6.421159	44613.875	-3.834368E-11	-2.607992E+10	19.231129	0.569408	0	0
0	0	0	-0.144841	6.421229	-26.33903	6.421229	44606.5	-3.34931E-11	-2.98569E+10	19.155848	0.567982	0	0
0	0	0	-0.145903	6.421257	-26.340606	6.421257	44587.375	-3.186802E-11	-3.137942E+10	19.307462	0.566636	0	0
0	0	0	-0.146066	6.421173	-26.340484	6.421173	44584.375	-3.724106E-11	-2.685208E+10	19.082255	0.566517	0	0
0	0	0	-0.145168	6.42113	-26.339076	6.42113	44600.625	-4.068613E-11	-2.45784E+10	19.308487	0.56418	0	0
0	0	0	-0.14529	6.421109	-26.339158	6.421109	44598.375	-4.264823E-11	-2.344763E+10	19.102692	0.564814	0	0
0	0	0	-0.145984	6.421356	-26.341121	6.421356	44585.875	-2.727423E-11	-3.666465E+10	19.251109	0.5622	0	0
0	0	0	-0.145576	6.421109	-26.339551	6.421109	44593.25	-4.264333E-11	-2.345033E+10	19.190476	0.561962	0	0
0	0	0	-0.146188	6.421215	-26.340826	6.421215	44582.125	-3.434269E-11	-2.911827E+10	19.156328	0.560378	0	0
0	0	0	-0.145943	6.42094	-26.339365	6.42094	44586.625	-6.946678E-11	-1.439537E+10	19.267946	0.559268	0	0
0	0	0	-0.145903	6.421222	-26.340462	6.421222	44587.375	-3.390718E-11	-2.949227E+10	19.056105	0.559268	0	0
0	0	0	-0.146556	6.421279	-26.341591	6.421279	44575.5	-3.074996E-11	-3.252036E+10	19.272443	0.556932	0	0
0	0	0	-0.14431	6.421123	-26.337868	6.421123	44616.125	-4.133483E-11	-2.419267E+10	19.046872	0.557446	0	0
0	0	0	-0.144351	6.421272	-26.33853	6.421272	44615.375	-3.113896E-11	-3.211411E+10	19.235812	0.554713	0	0
0	0	0	-0.14529	6.421116	-26.339187	6.421116	44598.375	-4.197278E-11	-2.382497E+10	19.123649	0.554912	0	0
0	0	0	-0.143248	6.421088	-26.336264	6.421088	44635.375	-4.484883E-11	-2.229713E+10	19.137596	0.553089	0	0
0	0	0	-0.143289	6.421053	-26.336176	6.421053	44634.625	-4.898994E-11	-2.041236E+10	19.199805	0.552456	0	0
0	0	0	-0.142309	6.421109	-26.335059	6.421109	44652.375	-4.269987E-11	-2.341928E+10	19.052369	0.551624	0	0
0	0	0	-0.142064	6.421392	-26.335875	6.421392	44656.75	-2.598032E-11	-3.849067E+10	19.248616	0.549842	0	0
0	0	0	-0.141206	6.420925	-26.332794	6.420925	44672.375	-7.345209E-11	-1.361432E+10	19.03795	0.550198	0	0
0	0	0	-0.140145	6.420904	-26.331248	6.420904	44691.5	-8.013563E-11	-1.247884E+10	19.248052	0.547465	0	0
0	0	0	-0.141737	6.421053	-26.334043	6.421053	44662.75	-4.902081E-11	-2.03995E+10	19.10369	0.547861	0	0
0	0	0	-0.140961	6.421293	-26.333955	6.421293	44676.75	-3.012047E-11	-3.320001E+10	19.160914	0.545762	0	0
0	0	0	-0.139165	6.421257	-26.331341	6.421257	44709.25	-3.195513E-11	-3.129388E+10	19.191582	0.545168	0	0
0	0	0	-0.137654	6.421109	-26.328658	6.421109	44736.75	-4.278056E-11	-2.337511E+10	19.045695	0.544455	0	0
0	0	0	-0.137899	6.421102	-26.328966	6.421102	44732.25	-4.34759E-11	-2.300125E+10	19.22461	0.542672	0	0
0	0	0	-0.138062	6.420975	-26.328672	6.420975	44729.25	-6.161192E-11	-1.623063E+10	19.005261	0.542752	0	0
0	0	0	-0.137735	6.421046	-26.328511	6.421046	44735.25	-5.002436E-11	-1.999026E+10	19.220928	0.540256	0	0
0	0	0	-0.136878	6.421166	-26.327822	6.421166	44750.75	-3.791297E-11	-2.63762E+10	19.044585	0.540771	0	0
0	0	0	-0.137776	6.421095	-26.328769	6.421095	44734.5	-4.420103E-11	-2.262391E+10	19.140922	0.538355	0	0
0	0	0	-0.137123	6.420968	-26.327352	6.420968	44746.375	-6.309814E-11	-1.584833E+10	19.118416	0.538395	0	0
0	0	0	-0.137939	6.421279	-26.329743	6.421279	44731.5	-3.085758E-11	-3.240695E+10	19.029493	0.537048	0	0
0	0	0	-0.137164	6.421159	-26.328186	6.421159	44745.625	-3.845691E-11	-2.600313E+10	19.200733	0.535662	0	0
0	0	0	-0.136959	6.421081	-26.327588	6.421081	44749.375	-4.573674E-11	-2.186426E+10	18.986213	0.535622	0	0
0	0	0	-0.137204	6.421017	-26.327666	6.421017	44744.875	-5.410799E-11	-1.848156E+10	19.21833	0.533127	0	0
0	0	0	-0.137817	6.421067	-26.32871	6.421067	44733.75	-4.734958E-11	-2.111951E+10	19.015098	0.5338	0	0
0	0	0	-0.13749	6.421031	-26.328116	6.421031	44739.625	-5.198581E-11	-1.923602E+10	19.146086	0.531384	0	0
0	0	0	-0.140267	6.420862	-26.331243	6.420862	44689.375	-9.784704E-11	-1.022003E+10	19.068461	0.531463	0	0
0	0	0	-0.140757	6.420918	-26.332147	6.420918	44680.375	-7.555588E-11	-1.323524E+10	19.025787	0.529997	0	0
0	0	0	-0.139083	6.421293	-26.331372	6.421293	44710.75	-3.014339E-11	-3.317477E+10	19.168288	0.52873	0	0
0	0	0	-0.139287	6.421038	-26.330616	6.421038	44707.125	-5.095173E-11	-1.962642E+10	18.974654	0.528255	0	0
0	0	0	-0.142309	6.421314	-26.335895	6.421314	44652.375	-2.911312E-11	-3.434877E+10	19.187852	0.526314	0	0
0	0	0	-0.14137	6.421328	-26.334661	6.421328	44669.375	-2.849882E-11	-3.508917E+10	18.956698	0.526789	0	0
0	0	0	-0.143167	6.421173	-26.336498	6.421173	44636.75	-3.728481E-11	-2.682057E+10	19.134286	0.524373	0	0
0	0	0	-0.144024	6.421144	-26.337562	6.421144	44621.375	-3.949252E-11	-2.532125E+10	19.009021	0.524928	0	0
0	0	0	-0.144922	6.421272	-26.339316	6.421272	44605.125	-3.113181E-11	-3.212149E+10	19.028132	0.522828	0	0
0	0	0	-0.146311	6.421095	-26.340504	6.421095	44580	-4.404837E-11	-2.270231E+10	19.1036	0.522194	0	0
0	0	0	-0.146474	6.421144	-26.340931	6.421144	44577	-3.945325E-11	-2.534646E+10	18.964674	0.521244	0	0
0	0	0	-0.144106	6.421081	-26.337415	6.421081	44619.875	-4.560438E-11	-2.192772E+10	19.166282	0.519541	0	0
0	0	0	-0.144473	6.421194	-26.338381	6.421194	44613.125	-3.575718E-11	-2.796641E+10	18.924227	0.519976	0	0
0	0	0	-0.145535	6.421152	-26.339668	6.421152	44594	-3.888907E-11	-2.571417E+10	0	0	0	0
0	0	0	-0.146229	6.421236	-26.340968	6.421236	44581.375	-3.305654E-11	-3.02512E+10	0	0	0	0
0	0	0	-0.146597	6.421081	-26.34084	6.421081	44574.75	-4.555826E-11	-2.194992E+10	0	0	0	0
0	0	0	-0.147904	6.421201	-26.343126	6.421201	44551.125	-3.523228E-11	-2.838306E+10	0	0	0	0
0	0	0	-0.146883	6.421229	-26.341838	6.421229	44569.625	-3.346541E-11	-2.98816E+10	0	0	0	0
0	0	0	-0.146597	6.421109	-26.340955	6.421109	44574.75	-4.262564E-11	-2.346006E+10	0	0	0	0
0	0	0	-0.146842	6.421208	-26.341695	6.421208	44570.375	-3.478457E-11	-2.874838E+10	0	0	0	0
0	0	0	-0.147291	6.420975	-26.341362	6.420975	44562.25	-6.138188E-11	-1.629145E+10	0	0	0	0
0	0	0	-0.146638	6.421293	-26.34176	6.421293	44574	-3.00512E-11	-3.327654E+10	0	0	0	0
0	0	0	-0.145331	6.421166	-26.339445	6.421166	44597.625	-3.778324E-11	-2.646676E+10	0	0	0	0
0	0	0	-0.143861	6.421392	-26.338346	6.421392	44624.25	-2.596141E-11	-3.851871E+10	0	0	0	0
0	0	0	-0.145208	6.42125	-26.339622	6.42125	44599.875	-3.226504E-11	-3.09933E+10	0	0	0	0
0	0	0	-0.144228	6.421208	-26.338102	6.421208	44617.625	-3.482145E-11	-2.871793E+10	0	0	0	0
0	0	0	-0.143371	6.421371	-26.337585	6.421371	44633.125	-2.675233E-11	-3.737992E+10	0	0	0	0
0	0	0	-0.141615	6.421046	-26.333845	6.421046	44664.875	-4.994567E-11	-2.002176E+10	0	0	0	0
0	0	0	-0.142472	6.421293	-26.336033	6.421293	44649.375	-3.010202E-11	-3.322037E+10	0	0	0	0
0	0	0	-0.14235	6.421152	-26.335288	6.421152	44651.625	-3.893932E-11	-2.568098E+10	0	0	0	0
0	0	0	-0.141696	6.421173	-26.334476	6.421173	44663.5	-3.730715E-11	-2.680451E+10	0	0	0	0
0	0	0	-0.13896	6.421152	-26.330628	6.421152	44713	-3.899284E-11	-2.564573E+10	0	0	0	0
0	0	0	-0.139246	6.420933	-26.330128	6.420933	44707.875	-7.153118E-11	-1.397992E+10	0	0	0	0
0	0	0	-0.13798	6.420954	-26.328473	6.420954	44730.75	-6.621891E-11	-1.510143E+10	0	0	0	0
0	0	0	-0.138429	6.421038	-26.329437	6.421038	44722.625	-5.09694E-11	-1.961962E+10	0	0	0	0
0	0	0	-0.139369	6.421229	-26.331506	6.421229	44705.625	-3.356753E-11	-2.97907E+10	0	0	0	0
0	0	0	-0.138675	6.421187	-26.330379	6.421187	44718.25	-3.633148E-11	-2.752434E+10	0	0	0	0
0	0	0	-0.138389	6.421003	-26.329236	6.421003	44723.375	-5.637652E-11	-1.773788E+10	0	0	0	0
0	0	0	-0.138062	6.421229	-26.329709	6.421229	44729.25	-3.358527E-11	-2.977496E+10	0	0	0	0
0	0	0	-0.138511	6.421067	-26.329664	6.421067	44721.125	-4.733622E-11	-2.112547E+10	0	0	0	0
0	0	0	-0.136469	6.421102	-26.327001	6.421102	44758.125	-4.350104E-11	-2.298795E+10	0	0	0	0
0	0	0	-0.138184	6.42106	-26.329186	6.42106	44727.125	-4.820116E-11	-2.074639E+10	0	0	0	0
0	0	0	-0.137164	6.421342	-26.328935	6.421342	44745.625	-2.794735E-11	-3.578157E+10	0	0	0	0
0	0	0	-0.137817	6.421243	-26.32943	6.421243	44733.75	-3.276073E-11	-3.052435E+10	0	0	0	0
0	0	0	-0.137123	6.421088	-26.327842	6.421088	44746.375	-4.496036E-11	-2.224182E+10	0	0	0	0
0	0	0	-0.139124	6.421081	-26.330564	6.421081	44710	-4.569649E-11	-2.188352E+10	0	0	0	0
0	0	0	-0.138634	6.420975	-26.329458	6.420975	44718.875	-6.159762E-11	-1.623439E+10	0	0	0	0
0	0	0	-0.140839	6.4213	-26.333816	6.4213	44679	-2.978407E-11	-3.357499E+10	0	0	0	0
0	0	0	-0.14088	6.421123	-26.333152	6.421123	44678.25	-4.139238E-11	-2.415903E+10	0	0	0	0
0	0	0	-0.140716	6.420975	-26.332322	6.420975	44681.25	-6.15458E-11	-1.624806E+10	0	0	0	0
0	0	0	-0.14235	6.420996	-26.334654	6.420996	44651.625	-5.750597E-11	-1.73895E+10	0	0	0	0
0	0	0	-0.143126	6.421201	-26.336557	6.421201	44637.625	-3.530068E-11	-2.832806E+10	0	0	0	0
0	0	0	-0.144024	6.421321	-26.338282	6.421321	44621.375	-2.877716E-11	-3.474978E+10	0	0	0	0
0	0	0	-0.143983	6.421448	-26.338745	6.421448	44622	-2.40745E-11	-4.153773E+10	0	0	0	0
0	0	0	-0.145004	6.421116	-26.338794	6.421116	44603.625	-4.197772E-11	-2.382216E+10	0	0	0	0
0	0	0	-0.145168	6.421074	-26.338846	6.421074	44600.625	-4.638248E-11	-2.155987E+10	0	0	0	0
0	0	0	-0.145331	6.421046	-26.338955	6.421046	44597.625	-4.987046E-11	-2.005195E+10	0	0	0	0
0	0	0	-0.146678	6.421222	-26.341528	6.421222	44573.375	-3.389654E-11	-2.950154E+10	0	0	0	0
0	0	0	-0.146393	6.420918	-26.339896	6.420918	44578.5	-7.538361E-11	-1.326548E+10	0	0	0	0
0	0	0	-0.147618	6.421321	-26.343223	6.421321	44556.375	-2.873524E-11	-3.480047E+10	0	0	0	0
0	0	0	-0.14578	6.421257	-26.340437	6.421257	44589.5	-3.186954E-11	-3.137792E+10	0	0	0	0
0	0	0	-0.146556	6.421257	-26.341504	6.421257	44575.5	-3.185954E-11	-3.138778E+10	0	0	0	0
0	0	0	-0.145943	6.421046	-26.339797	6.421046	44586.625	-4.985816E-11	-2.00569E+10	0	0	0	0
0	0	0	-0.146719	6.421279	-26.341815	6.421279	44572.5	-3.074789E-11	-3.252255E+10	0	0	0	0
0	0	0	-0.148149	6.42142	-26.344357	6.42142	44546.75	-2.493964E-11	-4.009681E+10	0	0	0	0
0	0	0	-0.14774	6.421081	-26.342412	6.421081	44554.125	-4.553718E-11	-2.196008E+10	0	0	0	0
0	0	0	-0.146923	6.42142	-26.342672	6.42142	44568.875	-2.495203E-11	-4.007691E+10	0	0	0	0
0	0	0	-0.145821	6.421215	-26.34032	6.421215	44588.875	-3.434789E-11	-2.911387E+10	0	0	0	0
0	0	0	-0.145862	6.420947	-26.339281	6.420947	44588.125	-6.769423E-11	-1.477231E+10	0	0	0	0
0	0	0	-0.144514	6.421279	-26.338783	6.421279	44612.5	-3.077549E-11	-3.249339E+10	0	0	0	0
0	0	0	-0.144473	6.4213	-26.338813	6.4213	44613.125	-2.974016E-11	-3.362457E+10	0	0	0	0
0	0	0	-0.144841	6.420996	-26.338079	6.420996	44606.5	-5.744785E-11	-1.740709E+10	0	0	0	0
0	0	0	-0.143534	6.421236	-26.337262	6.421236	44630.25	-3.309278E-11	-3.021807E+10	0	0	0	0
0	0	0	-0.143575	6.421272	-26.337463	6.421272	44629.375	-3.114873E-11	-3.210403E+10	0	0	0	0
0	0	0	-0.142227	6.42094	-26.334255	6.42094	44653.875	-6.957155E-11	-1.437369E+10	0	0	0	0
0	0	0	-0.141125	6.42125	-26.334007	6.42125	44673.875	-3.231857E-11	-3.094196E+10	0	0	0	0
0	0	0	-0.140063	6.421187	-26.332288	6.421187	44693	-3.631096E-11	-2.753989E+10	0	0	0	0
0	0	0	-0.140594	6.421144	-26.332845	6.421144	44683.375	-3.954739E-11	-2.528612E+10	0	0	0	0
0	0	0	-0.141206	6.421512	-26.335186	6.421512	44672.375	-2.2281E-11	-4.488129E+10	0	0	0	0
0	0	0	-0.139981	6.421201	-26.332233	6.421201	44694.5	-3.534566E-11	-2.829201E+10	0	0	0	0
0	0	0	-0.140921	6.421081	-26.333035	6.421081	44677.5	-4.566328E-11	-2.189944E+10	0	0	0	0
0	0	0	-0.138675	6.421053	-26.329831	6.421053	44718.25	-4.908172E-11	-2.037418E+10	0	0	0	0
0	0	0	-0.139655	0	-0.139655	0	44700.375	0	0	0	0	0	0
0	0	0	-0.13847	0	-0.13847	0	44721.875	0	0	0	0	0	0
