Vload_(V)	ILoad_(A)	RsLoad (ohm)	SunsVoc_Voltage_(V)	SunsVoc_Current_(A)	Model_Voltage_(V)	Model_Current_(A)	Carrier_Density_(cm-3)	Lifetime_(s)	Inverse_Lifetime_(s-1)	Efficiency_(%)	Intensity_(suns)	Dark_IV_Voltage_(V)	Dark_IV_Current_(A)
3.542654	6.414748	0	65.863802	-0.880641	66.087392	-0.880641	4.090775E+15	0.000235	4220.5483	19.940759	1.113202	0	0
3.554692	6.416838	-0.520634	65.842567	-0.655381	66.009737	-0.655381	4.068426E+15	0.000242	4112.291943	19.91326	1.111298	0	0
7.449916	6.411453	4.509411	65.702293	-0.237964	65.764842	-0.237964	3.923368E+15	0.000248	4013.829124	19.9228	1.10872	0	0
12.366187	6.394802	5.795631	65.524899	0.215341	65.466179	0.215341	3.746182E+15	0.000254	3918.882657	19.86672	1.106922	0	0
16.937574	6.388639	5.236731	65.34824	0.639743	65.167528	0.639743	3.576464E+15	0.00026	3825.337161	19.831754	1.105864	0	0
21.721098	6.385816	4.543038	65.166844	1.026376	64.866596	1.026376	3.408951E+15	0.000266	3746.116094	19.896695	1.104727	0	0
26.663802	6.38262	3.823835	64.994064	1.379291	64.577367	1.379291	3.255551E+15	0.000271	3666.999022	19.895066	1.103524	0	0
31.903518	6.312964	3.573627	64.822101	1.698441	64.292794	1.698441	3.108644E+15	0.000277	3598.108563	19.85629	1.101091	0	0
36.78584	6.308645	2.82055	64.646994	1.998658	64.004725	1.998658	2.964773E+15	0.000282	3533.719401	19.893248	1.097548	0	0
41.586607	6.304259	2.078841	64.478339	2.285246	63.722609	2.285246	2.831487E+15	0.000288	3460.919254	19.870205	1.093727	0	0
46.08933	6.337911	1.19539	64.302211	2.553539	63.432824	2.553539	2.697651E+15	0.000293	3397.592358	19.826431	1.08951	0	0
50.833626	6.233559	0.838458	64.127593	2.801103	63.146805	2.801103	2.570192E+15	0.000299	3338.34122	19.861934	1.085557	0	0
51.961923	6.178962	0.780319	63.956856	3.032012	62.866518	3.032012	2.450437E+15	0.000304	3278.546087	19.842198	1.082582	0	0
53.080063	6.105968	0.727833	63.784158	3.246744	62.585517	3.246744	2.334051E+15	0.000309	3224.290573	19.812562	1.079568	0	0
54.177477	6.012659	0.676285	63.614441	3.449197	62.308606	3.449197	2.224174E+15	0.000315	3168.01683	19.873302	1.075575	0	0
55.310919	5.883412	0.6275	63.443336	3.637208	62.031821	3.637208	2.117771E+15	0.00032	3116.881943	19.867346	1.071213	0	0
56.393313	5.70762	0.591687	63.276314	3.809023	61.762855	3.809023	2.01801E+15	0.000325	3069.198105	19.82311	1.066242	0	0
57.501674	5.471239	0.556898	63.112028	3.965218	61.500395	3.965218	1.923714E+15	0.00033	3027.171623	19.853384	1.061086	0	0
58.548687	5.176262	0.527778	62.953827	4.109246	61.247616	4.109246	1.836392E+15	0.000334	2985.119268	19.838608	1.056379	0	0
59.617269	4.781769	0.502268	62.794891	4.244104	60.995292	4.244104	1.752001E+15	0.000339	2946.313798	19.800344	1.051871	0	0
60.656443	4.289562	0.478748	62.637997	4.369998	60.747007	4.369998	1.671877E+15	0.000343	2908.83297	19.85563	1.046834	0	0
61.631233	3.714078	0.45917	62.47804	4.489253	60.495638	4.489253	1.593349E+15	0.000347	2874.552424	19.848003	1.042299	0	0
62.602618	3.018467	0.442637	62.319839	4.600435	60.247995	4.600435	1.518727E+15	0.000351	2841.993096	19.816055	1.036984	0	0
63.480965	2.276635	0.436984	62.161965	4.70537	60.001681	4.70537	1.447186E+15	0.000355	2810.296249	19.86076	1.030876	0	0
64.299402	1.480296	0.449928	62.003519	4.803089	59.756183	4.803089	1.378237E+15	0.000359	2782.482894	19.841145	1.02535	0	0
64.954792	0.778801	0.465688	61.848258	4.894278	59.51613	4.894278	1.313362E+15	0.000363	2754.974139	19.795966	1.019427	0	0
54.018916	6.027101	0.684656	61.691364	4.98043	59.274866	4.98043	1.250425E+15	0.000366	2729.92336	19.841717	1.013465	0	0
65.633573	0	0	61.540922	5.061144	59.043052	5.061144	1.192476E+15	0.00037	2701.704715	19.84065	1.007872	0	0
0	0	0	61.382109	5.136262	58.801946	5.136262	1.133773E+15	0.000372	2684.108215	19.80866	1.00228	0	0
0	0	0	61.229911	5.205787	58.5709	5.205787	1.079825E+15	0.000375	2665.130891	19.866327	0.996278	0	0
0	0	0	61.078407	5.271088	58.341771	5.271088	1.028299E+15	0.000377	2647.676675	19.84888	0.990606	0	0
0	0	0	60.932253	5.332891	58.120322	5.332891	9.80587E+14	0.00038	2626.608138	19.804452	0.984591	0	0
0	0	0	60.777441	5.390967	57.888622	5.390967	9.321188E+14	0.000382	2614.998755	19.848765	0.978456	0	0
0	0	0	60.630062	5.44509	57.667753	5.44509	8.878952E+14	0.000384	2600.241146	19.843077	0.972811	0	0
0	0	0	60.484316	5.49633	57.449723	5.49633	8.459437E+14	0.000387	2585.083365	19.808149	0.967073	0	0
0	0	0	60.34343	5.54502	57.238647	5.54502	8.070237E+14	0.00039	2566.192759	19.86163	0.961137	0	0
0	0	0	60.197439	5.590872	57.021735	5.590872	7.683342E+14	0.000391	2553.408567	19.853244	0.955558	0	0
0	0	0	60.057002	5.632866	56.813591	5.632866	7.326434E+14	0.000393	2541.392995	19.813369	0.949741	0	0
0	0	0	59.914728	5.672945	56.603495	5.672945	6.97964E+14	0.000395	2530.997977	19.8621	0.943514	0	0
0	0	0	59.77621	5.710277	56.399339	5.710277	6.655851E+14	0.000397	2520.624472	19.847377	0.93804	0	0
0	0	0	59.632833	5.746284	56.188995	5.746284	6.334628E+14	0.000398	2513.141624	19.813628	0.932435	0	0
0	0	0	59.494642	5.779691	55.986506	5.779691	6.037998E+14	0.000399	2504.899968	19.867707	0.926697	0	0
0	0	0	59.354654	5.811425	55.782157	5.811425	5.750067E+14	0.0004	2498.944156	19.852416	0.921369	0	0
0	0	0	59.219852	5.841113	55.585456	5.841113	5.484356E+14	0.000401	2491.139823	19.815674	0.915962	0	0
0	0	0	59.082641	5.869478	55.38595	5.869478	5.22515E+14	0.000402	2485.470152	19.868869	0.910224	0	0
0	0	0	58.947146	5.895835	55.189569	5.895835	4.979956E+14	0.000403	2481.833195	19.850613	0.905042	0	0
0	0	0	58.814304	5.921112	54.997013	5.921112	4.749608E+14	0.000404	2475.477843	19.821159	0.8997	0	0
0	0	0	58.680319	5.944492	54.803802	5.944492	4.527008E+14	0.000404	2474.220252	19.873399	0.894187	0	0
0	0	0	58.55001	5.967175	54.615594	5.967175	4.31957E+14	0.000405	2467.993026	19.844593	0.889097	0	0
0	0	0	58.41627	5.988005	54.423726	5.988005	4.11564E+14	0.000405	2469.762469	19.822984	0.883849	0	0
0	0	0	58.288778	6.008004	54.240437	6.008004	3.929403E+14	0.000406	2465.615108	19.875353	0.878759	0	0
0	0	0	58.156508	6.026692	54.051384	6.026692	3.744316E+14	0.000405	2468.635004	19.836569	0.873854	0	0
0	0	0	58.033264	6.044497	53.874714	6.044497	3.579053E+14	0.000406	2464.144907	19.823711	0.868751	0	0
0	0	0	57.902056	6.061708	53.687574	6.061708	3.410469E+14	0.000406	2465.762852	19.896485	0.86337	0	0
0	0	0	57.774809	6.077458	53.506506	6.077458	3.253968E+14	0.000405	2469.07519	19.844322	0.858822	0	0
0	0	0	57.64989	6.092568	53.328784	6.092568	3.106785E+14	0.000405	2470.211426	19.825239	0.853759	0	0
0	0	0	57.523582	6.106986	53.149489	6.106986	2.964238E+14	0.000404	2473.156914	19.873526	0.848669	0	0
0	0	0	57.397479	6.120641	52.970818	6.120641	2.827984E+14	0.000404	2477.311869	19.828743	0.844094	0	0
0	0	0	57.272886	6.133936	52.794244	6.133936	2.699093E+14	0.000403	2478.290228	19.828325	0.839123	0	0
0	0	0	57.147845	6.146127	52.617697	6.146127	2.575254E+14	0.000402	2484.711539	19.874239	0.834152	0	0
0	0	0	57.023089	6.157967	52.441626	6.157967	2.457001E+14	0.000402	2489.525242	19.820528	0.82971	0	0
0	0	0	56.897884	6.169639	52.264915	6.169639	2.343446E+14	0.000401	2491.522553	19.831471	0.824501	0	0
0	0	0	56.77958	6.180081	52.098239	6.180081	2.240691E+14	0.000401	2494.776386	19.867513	0.819781	0	0
0	0	0	56.655233	6.190432	51.923378	6.190432	2.137263E+14	0.0004	2500.143466	19.806402	0.815326	0	0
0	0	0	56.535868	6.199693	51.75591	6.199693	2.042226E+14	0.000399	2508.470376	19.819774	0.810448	0	0
0	0	0	56.414542	6.209164	51.58552	6.209164	1.94973E+14	0.000398	2511.763719	19.854281	0.805807	0	0
0	0	0	56.293829	6.218295	51.416094	6.218295	1.861647E+14	0.000398	2513.785119	19.805308	0.801365	0	0
0	0	0	56.172626	6.226455	51.246654	6.226455	1.777013E+14	0.000396	2524.116233	19.825256	0.796473	0	0
0	0	0	56.053342	6.234367	51.079886	6.234367	1.697301E+14	0.000395	2531.628671	19.846163	0.791952	0	0
0	0	0	55.935202	6.242042	50.914742	6.242042	1.621717E+14	0.000394	2536.881378	19.778178	0.788012	0	0
0	0	0	55.81747	6.249312	50.750377	6.249312	1.549598E+14	0.000393	2543.200181	19.809971	0.783226	0	0
0	0	0	55.700433	6.256081	50.58726	6.256081	1.480949E+14	0.000392	2552.206932	19.830335	0.779022	0	0
0	0	0	55.580414	6.262732	50.420137	6.262732	1.413583E+14	0.00039	2561.754666	19.77893	0.774897	0	0
0	0	0	55.462886	6.269357	50.256305	6.269357	1.35047E+14	0.00039	2564.628121	19.819616	0.770151	0	0
0	0	0	55.345767	6.275088	50.093683	6.275088	1.290275E+14	0.000388	2578.456678	19.811772	0.766079	0	0
0	0	0	55.226891	6.28098	49.928485	6.28098	1.231823E+14	0.000387	2586.87843	19.763137	0.761875	0	0
0	0	0	55.112672	6.286314	49.769962	6.286314	1.17807E+14	0.000385	2597.058828	19.805266	0.757446	0	0
0	0	0	54.994735	6.291649	49.606357	6.291649	1.124948E+14	0.000384	2606.726236	19.805732	0.753413	0	0
0	0	0	54.878065	6.296995	49.444381	6.296995	1.074679E+14	0.000383	2610.149394	19.757405	0.749275	0	0
0	0	0	54.760619	6.301828	49.281735	6.301828	1.026275E+14	0.000382	2621.071753	19.804616	0.744926	0	0
0	0	0	54.64399	6.306468	49.120297	6.306468	9.803022E+13	0.00038	2631.237181	19.777688	0.741065	0	0
0	0	0	54.529525	6.310729	48.962056	6.310729	9.371298E+13	0.000378	2644.156181	19.74537	0.73665	0	0
0	0	0	54.414162	6.314729	48.802779	6.314729	8.954906E+13	0.000376	2660.705452	19.787873	0.732419	0	0
0	0	0	54.298104	6.318834	48.642419	6.318834	8.554195E+13	0.000374	2671.013026	19.756554	0.728638	0	0
0	0	0	54.183966	6.322838	48.484691	6.322838	8.177173E+13	0.000373	2677.534179	19.738154	0.724539	0	0
0	0	0	54.070113	6.326643	48.327477	6.326643	7.817258E+13	0.000372	2684.840089	19.789238	0.720375	0	0
0	0	0	53.95426	6.329909	48.168006	6.329909	7.466907E+13	0.000369	2706.643133	19.738179	0.716673	0	0
0	0	0	53.842449	6.333286	48.013853	6.333286	7.143354E+13	0.000368	2716.626744	19.735148	0.712376	0	0
0	0	0	53.723697	6.336377	47.850542	6.336377	6.814732E+13	0.000365	2739.570352	19.777746	0.708318	0	0
0	0	0	53.617358	6.339595	47.703848	6.339595	6.533057E+13	0.000365	2740.331343	19.712945	0.704841	0	0
0	0	0	53.499422	6.342199	47.542019	6.342199	6.233997E+13	0.000361	2772.307662	19.725735	0.700517	0	0
0	0	0	53.386509	6.345108	47.386656	6.345108	5.960274E+13	0.000359	2783.340724	19.764411	0.696617	0	0
0	0	0	53.273841	6.348006	47.231599	6.348006	5.698915E+13	0.000358	2789.873854	19.702697	0.693074	0	0
0	0	0	53.155496	6.350759	47.068969	6.350759	5.436512E+13	0.000357	2803.869447	19.720141	0.688923	0	0
0	0	0	53.045523	6.353044	46.918076	6.353044	5.203338E+13	0.000354	2824.928993	19.73343	0.685261	0	0
0	0	0	52.926934	6.355296	46.755533	6.355296	4.962917E+13	0.00035	2853.668077	19.673213	0.681638	0	0
0	0	0	52.815246	6.357679	46.602168	6.357679	4.746503E+13	0.000349	2864.221685	19.708557	0.677553	0	0
0	0	0	52.699474	6.359708	46.443597	6.359708	4.531991E+13	0.000346	2893.139516	19.716384	0.673838	0	0
0	0	0	52.583743	6.362004	46.284791	6.362004	4.327113E+13	0.000344	2903.694297	19.672823	0.670308	0	0
0	0	0	52.466828	6.363947	46.124705	6.363947	4.12942E+13	0.000341	2930.617161	19.715723	0.666408	0	0
0	0	0	52.352363	6.365933	45.967867	6.365933	3.944514E+13	0.000339	2948.081367	19.701799	0.662931	0	0
0	0	0	52.237572	6.367764	45.810716	6.367764	3.767296E+13	0.000337	2970.937693	19.649716	0.659216	0	0
0	0	0	52.120003	6.369518	45.649864	6.369518	3.593948E+13	0.000334	2998.025601	19.68454	0.655369	0	0
0	0	0	52.002884	6.371072	45.489801	6.371072	3.429108E+13	0.00033	3034.187773	19.654134	0.651971	0	0
0	0	0	51.876086	6.373051	45.316184	6.373051	3.259071E+13	0.000328	3047.844269	19.635252	0.648203	0	0
0	0	0	51.754761	6.374613	45.150375	6.374613	3.104193E+13	0.000325	3080.006051	19.686904	0.644382	0	0
0	0	0	51.640091	6.376314	44.993411	6.376314	2.964521E+13	0.000324	3088.465229	19.626634	0.641077	0	0
0	0	0	51.523217	6.377776	44.833691	6.377776	2.828569E+13	0.000321	3113.771688	19.624019	0.637151	0	0
0	0	0	51.400462	6.37912	44.666116	6.37912	2.692428E+13	0.000317	3152.24642	19.65383	0.633726	0	0
0	0	0	51.280934	6.380501	44.502851	6.380501	2.566112E+13	0.000315	3179.216053	19.598414	0.630434	0	0
0	0	0	51.159322	6.381926	44.336701	6.381926	2.443628E+13	0.000313	3199.705386	19.621097	0.626574	0	0
0	0	0	51.042244	6.382802	44.177259	6.382802	2.331195E+13	0.000306	3264.465479	19.639539	0.623308	0	0
0	0	0	50.92247	6.383874	44.013946	6.383874	2.221487E+13	0.000302	3310.795702	19.573835	0.620096	0	0
0	0	0	50.797551	6.385376	43.843181	6.385376	2.112525E+13	0.000302	3312.127342	19.620827	0.616341	0	0
0	0	0	50.679411	6.386343	43.682162	6.386343	2.014366E+13	0.000298	3359.164553	19.606284	0.613248	0	0
0	0	0	50.552123	6.387552	43.508478	6.387552	1.913674E+13	0.000295	3385.432537	19.543443	0.610075	0	0
0	0	0	50.425897	6.388479	43.336527	6.388479	1.818764E+13	0.000291	3440.747438	19.596298	0.606426	0	0
0	0	0	50.300406	6.389336	43.165636	6.389336	1.729048E+13	0.000286	3501.145555	19.570262	0.603411	0	0
0	0	0	50.165482	6.390492	42.981623	6.390492	1.637492E+13	0.000283	3528.798843	19.531044	0.600119	0	0
0	0	0	50.036806	6.391319	42.806425	6.391319	1.554673E+13	0.000279	3589.98126	19.593996	0.596616	0	0
0	0	0	49.899759	6.392256	42.619754	6.392256	1.471046E+13	0.000275	3642.396302	19.54419	0.593654	0	0
0	0	0	49.764549	6.393048	42.435722	6.393048	1.39293E+13	0.000269	3711.104725	19.52588	0.590191	0	0
0	0	0	49.620967	6.393802	42.240385	6.393802	1.314494E+13	0.000263	3796.061872	19.564964	0.586885	0	0
0	0	0	49.479264	6.394594	42.047535	6.394594	1.241399E+13	0.000259	3867.50219	19.491752	0.583977	0	0
0	0	0	49.329149	6.395461	41.84319	6.395461	1.168376E+13	0.000254	3932.385154	19.499398	0.580434	0	0
0	0	0	49.179809	6.396107	41.640142	6.396107	1.099978E+13	0.000248	4037.029151	19.534508	0.577274	0	0
0	0	0	49.022711	6.396602	41.426753	6.396602	1.032329E+13	0.000239	4187.337707	19.475084	0.574286	0	0
0	0	0	48.865654	6.397569	41.212846	6.397569	9.688437E+12	0.000237	4224.027231	19.500855	0.570849	0	0
0	0	0	48.701981	6.397977	40.990634	6.397977	9.068226E+12	0.000227	4405.846847	19.492573	0.567834	0	0
0	0	0	48.537287	6.398802	40.766525	6.398802	8.484106E+12	0.000223	4477.55414	19.432523	0.564714	0	0
0	0	0	48.368264	6.399437	40.536768	6.399437	7.923632E+12	0.000217	4603.323736	19.479467	0.561356	0	0
0	0	0	48.189726	6.39996	40.294247	6.39996	7.371672E+12	0.000209	4778.735633	19.444939	0.558554	0	0
0	0	0	48.01417	6.400547	40.055675	6.400547	6.866351E+12	0.000203	4926.873029	19.405848	0.555381	0	0
0	0	0	47.826526	6.401164	39.800678	6.401164	6.364395E+12	0.000197	5084.68033	19.466058	0.55193	0	0
0	0	0	47.636023	6.401706	39.541889	6.401706	5.892244E+12	0.00019	5272.920161	19.402852	0.549299	0	0
0	0	0	47.438537	6.402327	39.273527	6.402327	5.439663E+12	0.000184	5439.787093	19.395574	0.54606	0	0
0	0	0	47.231782	6.402803	38.992777	6.402803	5.002981E+12	0.000176	5687.853639	19.420704	0.543019	0	0
0	0	0	47.013551	6.403156	38.696627	6.403156	4.579976E+12	0.000166	6029.424589	19.34636	0.540216	0	0
0	0	0	46.786785	6.40372	38.388627	6.40372	4.178225E+12	0.000159	6287.563127	19.372655	0.537202	0	0
0	0	0	46.550137	6.404398	38.067072	6.404398	3.796448E+12	0.000154	6494.407804	19.383909	0.534333	0	0
0	0	0	46.306384	6.404479	37.736669	6.404479	3.439604E+12	0.000141	7112.055699	19.325002	0.531359	0	0
0	0	0	46.055157	6.405202	37.39527	6.405202	3.106849E+12	0.000137	7319.635589	19.385286	0.528159	0	0
0	0	0	45.788984	6.405797	37.033772	6.405797	2.789318E+12	0.000131	7644.974123	19.352746	0.525555	0	0
0	0	0	45.516114	6.405916	36.663837	6.405916	2.497429E+12	0.000119	8424.46923	19.297193	0.522567	0	0
0	0	0	45.224623	6.406399	36.268156	6.406399	2.219256E+12	0.000112	8961.875807	19.342975	0.519579	0	0
0	0	0	44.920063	6.406629	35.855109	6.406629	1.961633E+12	0.000101	9860.209878	19.278801	0.517067	0	0
0	0	0	44.593085	6.407356	35.41096	6.407356	1.718219E+12	9.756705E-5	10249.361528	19.291258	0.513973	0	0
0	0	0	44.250792	6.407318	34.94714	6.407318	1.495685E+12	8.450457E-5	11833.680196	19.335325	0.511184	0	0
0	0	0	43.893268	6.407626	34.462172	6.407626	1.293947E+12	7.626208E-5	13112.67724	19.268292	0.50854	0	0
0	0	0	43.51749	6.407941	33.952442	6.407941	1.111159E+12	6.851767E-5	14594.774342	19.29097	0.505459	0	0
0	0	0	43.12652	6.40822	33.422164	6.40822	9.483274E+11	6.098192E-5	16398.302763	19.293622	0.502828	0	0
0	0	0	42.714602	6.40857	32.863376	6.40857	8.025077E+11	5.452495E-5	18340.227892	19.212347	0.500224	0	0
0	0	0	42.278263	6.408982	32.271378	6.408982	6.72416E+11	4.894782E-5	20429.919849	19.270675	0.496985	0	0
0	0	0	41.832368	6.409171	31.666761	6.409171	5.61231E+11	4.224457E-5	23671.683184	19.223529	0.494526	0	0
0	0	0	41.377693	6.4095	31.050011	6.4095	4.667635E+11	3.733365E-5	26785.488983	19.197525	0.49171	0	0
0	0	0	40.900028	6.409884	30.401994	6.409884	3.845937E+11	3.318697E-5	30132.305858	19.246312	0.488709	0	0
0	0	0	40.403496	6.410138	29.728602	6.410138	3.144733E+11	2.863193E-5	34926.045656	19.168067	0.486368	0	0
0	0	0	39.895203	6.41022	29.039546	6.41022	2.559134E+11	2.372469E-5	42150.186604	19.172914	0.48346	0	0
0	0	0	39.365103	6.410556	28.320492	6.410556	2.064244E+11	2.06705E-5	48378.121494	19.201005	0.480736	0	0
0	0	0	38.809644	6.410531	27.567681	6.410531	1.648022E+11	1.64033E-5	60963.335078	19.108733	0.478304	0	0
0	0	0	38.220494	6.410943	26.768427	6.410943	1.297871E+11	1.431591E-5	69852.368373	19.155967	0.47525	0	0
0	0	0	37.606598	6.411	25.936249	6.411	1.011911E+11	1.133213E-5	88244.657443	19.141158	0.47283	0	0
0	0	0	36.977673	6.411346	25.083163	6.411346	7.841618E+10	9.674124E-6	103368.527638	19.097652	0.470186	0	0
0	0	0	36.326167	6.411493	24.19982	6.411493	6.021328E+10	7.763634E-6	128805.657018	19.158842	0.467225	0	0
0	0	0	35.647626	6.411815	23.279485	6.411815	4.57318E+10	6.544887E-6	152791.031721	19.07856	0.465123	0	0
0	0	0	34.963164	6.411918	22.351532	6.411918	3.464984E+10	5.138349E-6	194615.02392	19.062518	0.462254	0	0
0	0	0	34.27862	6.411906	21.423689	6.411906	2.625242E+10	3.877397E-6	257905.003639	19.094239	0.459663	0	0
0	0	0	33.584602	6.412283	20.482212	6.412283	1.981386E+10	3.373542E-6	296424.331546	19.017636	0.457296	0	0
0	0	0	32.874576	6.412405	19.519539	6.412405	1.485764E+10	2.661144E-6	375778.242878	19.04579	0.454573	0	0
0	0	0	32.163081	6.412349	18.555239	6.412349	1.113453E+10	1.948318E-6	513263.312927	19.038277	0.452325	0	0
0	0	0	31.452687	6.412442	17.592118	6.412442	8.348099E+9	1.519516E-6	658104.318272	18.979448	0.449893	0	0
0	0	0	30.737924	6.412436	16.623285	6.412436	6.247898E+9	1.134102E-6	881755.035125	19.032906	0.447196	0	0
0	0	0	30.016015	6.41298	15.64353	6.41298	4.662532E+9	1.10709E-6	903268.562423	18.972598	0.445107	0	0
0	0	0	29.280426	6.412818	14.646801	6.412818	3.460198E+9	7.525833E-7	1328756.496482	18.956496	0.442436	0	0
0	0	0	28.528134	6.412896	13.626887	6.412896	2.550581E+9	5.781268E-7	1729724.319348	19.005993	0.439884	0	0
0	0	0	27.765837	6.413073	12.593171	6.413073	1.872473E+9	4.692537E-7	2131043.362687	18.909269	0.437954	0	0
0	0	0	26.9908	6.413215	11.542255	6.413215	1.367567E+9	3.743516E-7	2671285.834352	18.947045	0.435178	0	0
0	0	0	26.204981	6.413328	10.476782	6.413328	9.944512E+8	2.93915E-7	3402344.359734	18.948512	0.433036	0	0
0	0	0	25.428841	6.413378	9.424577	6.413378	7.259762E+8	2.223252E-7	4497916.155853	18.882975	0.430762	0	0
0	0	0	24.6634	6.413321	8.38714	6.413321	5.322861E+8	1.565596E-7	6387342.443487	18.930889	0.428409	0	0
0	0	0	23.896489	6.413462	7.347205	6.413462	3.900399E+8	1.273369E-7	7853184.560967	18.870927	0.426294	0	0
0	0	0	23.122554	6.413576	6.297811	6.413576	2.849943E+8	1.020171E-7	9802276.691757	18.83776	0.423887	0	0
0	0	0	22.373652	6.413498	5.282848	6.413498	2.103638E+8	7.062222E-8	1.415985E+7	18.860739	0.421561	0	0
0	0	0	21.632386	6.41354	4.277919	6.41354	1.557581E+8	5.412663E-8	1.847519E+7	18.790741	0.419644	0	0
0	0	0	20.910109	6.413731	3.298319	6.413731	1.16218E+8	4.79632E-8	2.084932E+7	18.847457	0.416907	0	0
0	0	0	20.197919	6.413943	2.332317	6.413943	8.707082E+7	4.539726E-8	2.202776E+7	18.819452	0.415003	0	0
0	0	0	19.491365	6.413696	1.375236	6.413696	6.538287E+7	2.607802E-8	3.834648E+7	18.768011	0.412795	0	0
0	0	0	18.802696	6.413809	0.441388	6.413809	4.945437E+7	2.209935E-8	4.525021E+7	18.834683	0.410376	0	0
0	0	0	18.12926	6.414007	-0.472066	6.414007	3.763808E+7	2.130761E-8	4.693159E+7	18.74622	0.408591	0	0
0	0	0	17.476446	6.413978	-1.356916	6.413978	2.88856E+7	1.57522E-8	6.348321E+7	18.739996	0.406158	0	0
0	0	0	16.838211	6.413908	-2.221876	6.413908	2.229987E+7	1.113823E-8	8.978086E+7	18.756614	0.404149	0	0
0	0	0	16.220681	6.414311	-3.060188	6.414311	1.736076E+7	1.665349E-8	6.004749E+7	18.668503	0.4021	0	0
0	0	0	15.625283	6.414176	-3.866891	6.414176	1.363742E+7	1.001027E-8	9.98974E+7	18.72365	0.399667	0	0
0	0	0	15.045322	6.414247	-4.65329	6.414247	1.077988E+7	9.028487E-9	1.107605E+8	18.699774	0.397737	0	0
0	0	0	14.481083	6.414233	-5.418118	6.414233	8575589	6.98534E-9	1.431569E+8	18.658069	0.395516	0	0
0	0	0	13.925542	6.414318	-6.171464	6.414318	6846135	6.675072E-9	1.498111E+8	18.713758	0.393282	0	0
0	0	0	13.391848	6.414346	-6.89502	6.414346	5514089.75	5.754129E-9	1.737882E+8	18.622833	0.391563	0	0
0	0	0	12.881391	6.414268	-7.58674	6.414268	4483256.25	3.920731E-9	2.550545E+8	18.645241	0.389038	0	0
0	0	0	12.378897	6.414572	-8.268891	6.414572	3656919.75	8.716407E-9	1.147262E+8	18.628054	0.387068	0	0
0	0	0	11.892982	6.414509	-8.927389	6.414509	3003008.75	5.258619E-9	1.90164E+8	18.547519	0.385111	0	0
0	0	0	11.41985	6.414466	-9.568627	6.414466	2478839.25	3.688325E-9	2.711258E+8	18.620478	0.382692	0	0
0	0	0	10.960887	6.414459	-10.19077	6.414459	2057952	2.987247E-9	3.347564E+8	18.537715	0.381132	0	0
0	0	0	10.522465	6.414395	-10.784879	6.414395	1722815.75	2.049915E-9	4.87825E+8	18.543117	0.378845	0	0
0	0	0	10.10973	6.414509	-11.344757	6.414509	1457354.75	2.552002E-9	3.918492E+8	18.586693	0.376848	0	0
0	0	0	9.729092	6.414615	-11.861105	6.414615	1248945	3.920971E-9	2.550389E+8	18.514371	0.374931	0	0
0	0	0	9.371772	6.414551	-12.345273	6.414551	1080506	2.298706E-9	4.350273E+8	18.563006	0.372631	0	0
0	0	0	9.032951	6.41448	-12.804338	6.41448	941820.75	1.475271E-9	6.778416E+8	18.519933	0.370925	0	0
0	0	0	8.710832	6.414622	-13.241484	6.414622	826514	2.739579E-9	3.650195E+8	18.468577	0.368903	0	0
0	0	0	8.401454	6.414685	-13.661096	6.414685	729080.5	4.854919E-9	2.059766E+8	18.50191	0.366893	0	0
0	0	0	8.098977	6.414565	-14.070719	6.414565	644935.25	1.477927E-9	6.766234E+8	18.389593	0.365307	0	0
0	0	0	7.806996	6.414791	-14.467314	6.414791	572934	-5.597238E-9	-1.786595E+8	18.433981	0.363046	0	0
0	0	0	7.528163	6.414713	-14.845031	6.414713	511691.75	6.177527E-9	1.618771E+8	18.422528	0.361354	0	0
0	0	0	7.259949	6.4146	-15.208229	6.4146	458967.25	1.303143E-9	7.673757E+8	18.372126	0.35937	0	0
0	0	0	7.000841	6.414756	-15.560022	6.414756	413198.25	-2.272529E-8	-4.400384E+7	18.429707	0.357414	0	0
0	0	0	6.751411	6.414756	-15.898152	6.414756	373456	-2.053951E-8	-4.868666E+7	18.343796	0.355854	0	0
0	0	0	6.512312	6.414636	-16.22185	6.414636	338953	1.264644E-9	7.907362E+8	18.339794	0.353699	0	0
0	0	0	6.280973	6.414834	-16.536158	6.414834	308607	-1.517438E-9	-6.590053E+8	18.34268	0.352006	0	0
0	0	0	6.055229	6.414657	-16.841549	6.414657	281615.75	1.294692E-9	7.723846E+8	18.255367	0.350394	0	0
0	0	0	5.837202	6.414834	-17.13774	6.414834	257790.75	-1.267572E-9	-7.889099E+8	18.318959	0.348159	0	0
0	0	0	5.627955	6.414827	-17.421372	6.414827	236823	-1.269569E-9	-7.876689E+8	18.237206	0.346784	0	0
0	0	0	5.422139	6.414607	-17.699589	6.414607	217863.25	6.496309E-10	1.539336E+9	18.245871	0.344881	0	0
0	0	0	5.222121	6.414713	-17.971117	6.414713	200893.25	2.425337E-9	4.123138E+8	18.272454	0.343056	0	0
0	0	0	5.016468	6.414657	-18.249696	6.414657	184822.25	8.496963E-10	1.176891E+9	18.190478	0.341615	0	0
0	0	0	4.831356	6.414487	-18.500018	6.414487	171459	2.758485E-10	3.625178E+9	18.259016	0.339447	0	0
0	0	0	4.648776	6.414777	-18.74858	6.414777	159225.25	-2.318057E-9	-4.313958E+8	18.195976	0.338072	0	0
0	0	0	4.47718	6.414523	-18.980266	6.414523	148524.25	2.7638E-10	3.618207E+9	18.178676	0.336168	0	0
0	0	0	4.297581	6.414749	-19.224559	6.414749	138093.75	-1.025331E-7	-9752946.713298	18.177155	0.334595	0	0
0	0	0	4.132846	6.414721	-19.447771	6.414721	129171.75	1.957282E-9	5.109126E+8	18.082102	0.332995	0	0
0	0	0	3.972072	6.414643	-19.665431	6.414643	121020.5	4.817949E-10	2.075572E+9	18.137405	0.330959	0	0
0	0	0	3.812156	6.414544	-19.881848	6.414544	113423	2.329565E-10	4.292646E+9	18.066903	0.329624	0	0
0	0	0	3.656446	6.414883	-20.094184	6.414883	106484	-3.314958E-10	-3.016629E+9	18.063415	0.327839	0	0
0	0	0	3.505065	6.415046	-20.300002	6.415046	100145	-1.413597E-10	-7.074152E+9	18.098329	0.326147	0	0
0	0	0	3.360055	6.414615	-20.494978	6.414615	94427	2.96447E-10	3.373284E+9	18.005474	0.324666	0	0
0	0	0	3.21386	6.414728	-20.693582	6.414728	88992.75	1.810272E-9	5.524033E+8	18.07076	0.322683	0	0
0	0	0	3.069788	6.414883	-20.889467	6.414883	83943.5	-2.613249E-10	-3.826654E+9	18.009018	0.321295	0	0
0	0	0	2.931189	6.414791	-21.077011	6.414791	79356.5	-7.752666E-10	-1.289879E+9	17.991025	0.319616	0	0
0	0	0	2.795325	6.414685	-21.260791	6.414685	75103.5	5.001121E-10	1.999552E+9	18.009393	0.31799	0	0
0	0	0	2.661259	6.414713	-21.442638	6.414713	71130.25	8.587391E-10	1.164498E+9	17.901393	0.316654	0	0
0	0	0	2.530296	6.414735	-21.620252	6.414735	67452	2.086727E-9	4.792195E+8	17.950998	0.314764	0	0
0	0	0	2.399374	6.41477	-21.797865	6.41477	63964.75	-1.233565E-9	-8.106583E+8	17.871754	0.313534	0	0
0	0	0	2.265961	6.414784	-21.978774	6.414784	60597	-7.085321E-10	-1.411369E+9	17.867961	0.31171	0	0
0	0	0	2.139408	6.414918	-22.150839	6.414918	57566.25	-1.419984E-10	-7.042331E+9	17.899027	0.310163	0	0
0	0	0	2.00918	6.414975	-22.327592	6.414975	54605.5	-1.011053E-10	-9.890674E+9	17.81067	0.308722	0	0
0	0	0	1.884547	6.414834	-22.496011	6.414834	51915	-2.55269E-10	-3.917437E+9	17.872854	0.306884	0	0
0	0	0	1.755912	6.415109	-22.67144	6.415109	49276.75	-5.730114E-11	-1.745166E+10	17.791159	0.305681	0	0
0	0	0	1.630135	6.414876	-22.841057	6.414876	46827	-1.538403E-10	-6.500249E+9	17.80608	0.303857	0	0
0	0	0	1.507625	6.414791	-23.006809	6.414791	44557.75	-4.353031E-10	-2.29725E+9	17.779296	0.302469	0	0
0	0	0	1.379194	6.414862	-23.181182	6.414862	42297	-1.562412E-10	-6.40036E+9	17.689002	0.301014	0	0
0	0	0	1.257583	6.41489	-23.346148	6.41489	40262.25	-1.190985E-10	-8.396409E+9	17.756606	0.299243	0	0
0	0	0	1.132623	6.414954	-23.515791	6.414954	38273.25	-7.817592E-11	-1.279166E+10	17.649243	0.298132	0	0
0	0	0	1.01142	6.414784	-23.679443	6.414784	36438	-4.260523E-10	-2.34713E+9	17.684883	0.296242	0	0
0	0	0	0.893402	6.414869	-23.839756	6.414869	34735.5	-1.207975E-10	-8.27832E+9	17.662511	0.295052	0	0
0	0	0	0.782898	6.414968	-23.989939	6.414968	33213.5	-6.347544E-11	-1.575413E+10	17.601724	0.293531	0	0
0	0	0	0.685462	6.414982	-24.12208	6.414982	31927	-5.732772E-11	-1.744357E+10	17.657174	0.291905	0	0
0	0	0	0.606648	6.414784	-24.228156	6.414784	30923	-3.61568E-10	-2.765731E+9	17.561638	0.290755	0	0
0	0	0	0.542248	6.414713	-24.315183	6.414713	30126	3.637043E-10	2.749486E+9	17.596983	0.288864	0	0
0	0	0	0.498226	6.414812	-24.375243	6.414812	29593.25	-1.935882E-10	-5.165604E+9	17.546739	0.287622	0	0
0	0	0	0.461473	6.41494	-24.425559	6.41494	29155.5	-6.395049E-11	-1.56371E+10	17.484222	0.286247	0	0
0	0	0	0.445057	6.414791	-24.447237	6.414791	28962	-2.829418E-10	-3.534296E+9	17.505615	0.284647	0	0
0	0	0	0.415124	6.415032	-24.488748	6.415032	28612.75	-4.240372E-11	-2.358284E+10	17.377799	0.283418	0	0
0	0	0	0.391847	6.414841	-24.519562	6.414841	28344	-1.287139E-10	-7.769168E+9	17.449649	0.281752	0	0
0	0	0	0.384129	6.414848	-24.530052	6.414848	28255.5	-1.191989E-10	-8.389336E+9	17.385692	0.280681	0	0
0	0	0	0.375798	6.414975	-24.541839	6.414975	28160.25	-5.214038E-11	-1.917899E+10	17.42685	0.278909	0	0
0	0	0	0.363629	6.41477	-24.55754	6.41477	28021.5	-5.403968E-10	-1.850492E+9	17.432912	0.27764	0	0
0	0	0	0.347458	6.414883	-24.579901	6.414883	27838.5	-8.666416E-11	-1.15388E+10	17.365847	0.276411	0	0
0	0	0	0.331981	6.414664	-24.600031	6.414664	27664.25	1.378525E-10	7.254129E+9	17.418399	0.274824	0	0
0	0	0	0.323854	6.414643	-24.610965	6.414643	27573.25	1.097719E-10	9.109799E+9	17.302341	0.273793	0	0
0	0	0	0.316708	6.414834	-24.621394	6.414834	27493.5	-1.351871E-10	-7.397157E+9	17.333554	0.272101	0	0
0	0	0	0.313196	6.41477	-24.625908	6.41477	27454.25	-5.294573E-10	-1.888726E+9	17.264151	0.270937	0	0
0	0	0	0.311195	6.414897	-24.629115	6.414897	27432	-7.729634E-11	-1.293722E+10	17.225411	0.26947	0	0
0	0	0	0.308418	6.414883	-24.632824	6.414883	27401.25	-8.530296E-11	-1.172292E+10	17.252557	0.268002	0	0
0	0	0	0.304783	6.414798	-24.637421	6.414798	27361	-2.295466E-10	-4.356415E+9	17.156552	0.266865	0	0
0	0	0	0.300986	6.415017	-24.643422	6.415017	27318.75	-4.26124E-11	-2.346735E+10	17.20217	0.265305	0	0
0	0	0	0.29584	6.415039	-24.650479	6.415039	27261.75	-3.941807E-11	-2.536907E+10	17.09241	0.264327	0	0
0	0	0	0.290368	6.414855	-24.657183	6.414855	27201.5	-1.071429E-10	-9.333326E+9	17.128672	0.262687	0	0
0	0	0	0.28069	6.414883	-24.670413	6.414883	27095	-8.434957E-11	-1.185543E+10	17.096348	0.261617	0	0
0	0	0	0.272114	6.41482	-24.681791	6.41482	27001	-1.591078E-10	-6.285048E+9	17.070101	0.260255	0	0
0	0	0	0.265458	6.414834	-24.690869	6.414834	26928	-1.324065E-10	-7.5525E+9	17.118134	0.258867	0	0
0	0	0	0.261374	6.414841	-24.696432	6.414841	26883.5	-1.220816E-10	-8.191244E+9	17.014854	0.257809	0	0
0	0	0	0.25872	6.414947	-24.700443	6.414947	26854.5	-5.680572E-11	-1.760386E+10	17.073973	0.256328	0	0
0	0	0	0.254636	6.414784	-24.705347	6.414784	26810.25	-3.134796E-10	-3.190001E+9	16.993879	0.255257	0	0
0	0	0	0.25239	6.414897	-24.708831	6.414897	26785.75	-7.547537E-11	-1.324935E+10	16.979136	0.253869	0	0
0	0	0	0.250144	6.414812	-24.711546	6.414812	26761.5	-1.750639E-10	-5.712199E+9	16.931564	0.252785	0	0
0	0	0	0.247939	6.414926	-24.714975	6.414926	26737.5	-6.332356E-11	-1.579191E+10	16.885224	0.251397	0	0
0	0	0	0.247816	6.414791	-24.714619	6.414791	26736.25	-2.611975E-10	-3.828521E+9	16.917397	0.250115	0	0
0	0	0	0.246755	6.414848	-24.716278	6.414848	26724.75	-1.127413E-10	-8.869863E+9	16.779491	0.249044	0	0
0	0	0	0.246387	6.414911	-24.717024	6.414911	26720.75	-6.876777E-11	-1.45417E+10	16.868966	0.24751	0	0
0	0	0	0.245734	6.414926	-24.717965	6.414926	26713.75	-6.326731E-11	-1.580595E+10	16.786818	0.246651	0	0
0	0	0	0.245693	6.414862	-24.717773	6.414862	26713.25	-9.867628E-11	-1.013415E+10	16.822628	0.24513	0	0
0	0	0	0.244468	6.41465	-24.718608	6.41465	26700	1.139316E-10	8.777198E+9	16.772242	0.244178	0	0
0	0	0	0.243039	6.415088	-24.722251	6.415088	26684.5	-3.296603E-11	-3.033425E+10	16.727552	0.242936	0	0
0	0	0	0.242467	6.414954	-24.722504	6.414954	26678.25	-5.449228E-11	-1.835122E+10	16.758274	0.241786	0	0
0	0	0	0.242467	6.414911	-24.722339	6.414911	26678.25	-6.865839E-11	-1.456486E+10	16.677704	0.240649	0	0
0	0	0	0.242875	6.414876	-24.721647	6.414876	26682.75	-8.766056E-11	-1.140764E+10	16.739986	0.239155	0	0
0	0	0	0.241936	6.41489	-24.722976	6.41489	26672.5	-7.889911E-11	-1.267441E+10	16.620082	0.238388	0	0
0	0	0	0.242304	6.414968	-24.72278	6.414968	26676.5	-5.098236E-11	-1.961463E+10	16.664603	0.236801	0	0
0	0	0	0.241201	6.414855	-24.723835	6.414855	26664.5	-1.050278E-10	-9.521291E+9	16.579172	0.236087	0	0
0	0	0	0.240466	6.414706	-24.724253	6.414706	26656.5	2.674567E-10	3.738923E+9	16.572648	0.234646	0	0
0	0	0	0.239404	6.414933	-24.726573	6.414933	26645.25	-6.068541E-11	-1.647843E+10	16.566047	0.233655	0	0
0	0	0	0.241528	6.415074	-24.724244	6.415074	26668	-3.437558E-11	-2.909042E+10	16.469705	0.232637	0	0
0	0	0	0.241895	6.414876	-24.722976	6.414876	26672	-8.762524E-11	-1.141224E+10	16.537108	0.231235	0	0
0	0	0	0.241283	6.414933	-24.724026	6.414933	26665.5	-6.073153E-11	-1.646591E+10	16.397883	0.230482	0	0
0	0	0	0.240303	6.415032	-24.72574	6.415032	26654.75	-3.950199E-11	-2.531518E+10	16.490291	0.228882	0	0
0	0	0	0.239649	6.414876	-24.726021	6.414876	26647.75	-8.754557E-11	-1.142262E+10	16.371302	0.228168	0	0
0	0	0	0.238955	6.414911	-24.727099	6.414911	26640.25	-6.856059E-11	-1.458564E+10	16.417658	0.226687	0	0
0	0	0	0.238873	6.414862	-24.727018	6.414862	26639.5	-9.840385E-11	-1.01622E+10	16.355292	0.225881	0	0
0	0	0	0.237485	6.414827	-24.728762	6.414827	26624.5	-1.427295E-10	-7.00626E+9	16.356676	0.224519	0	0
0	0	0	0.236219	6.414791	-24.730341	6.414791	26610.75	-2.599714E-10	-3.846577E+9	16.357342	0.223647	0	0
0	0	0	0.234953	6.414926	-24.73258	6.414926	26597	-6.299081E-11	-1.587533E+10	16.285319	0.222523	0	0
0	0	0	0.234259	6.414848	-24.733218	6.414848	26589.75	-1.121718E-10	-8.914897E+9	16.345675	0.22132	0	0
0	0	0	0.233483	6.414883	-24.734407	6.414883	26581.25	-8.275021E-11	-1.208456E+10	16.218729	0.220461	0	0
0	0	0	0.232666	6.414933	-24.735707	6.414933	26572.5	-6.051972E-11	-1.652354E+10	16.276019	0.219099	0	0
0	0	0	0.231972	6.41489	-24.736483	6.41489	26565	-7.858111E-11	-1.27257E+10	16.135925	0.218477	0	0
0	0	0	0.231155	6.414862	-24.73748	6.414862	26556.25	-9.809633E-11	-1.019406E+10	16.203589	0.21697	0	0
0	0	0	0.229848	6.415152	-24.74038	6.415152	26542.25	-2.762014E-11	-3.620547E+10	16.108034	0.21623	0	0
0	0	0	0.226132	6.414954	-24.744647	6.414954	26502	-5.413228E-11	-1.847327E+10	16.119537	0.214908	0	0
0	0	0	0.225356	6.414827	-24.745204	6.414827	26493.75	-1.420286E-10	-7.040836E+9	16.086796	0.214154	0	0
0	0	0	0.22458	6.414848	-24.746338	6.414848	26485.5	-1.11732E-10	-8.949987E+9	16.05323	0.212859	0	0
0	0	0	0.223274	6.415032	-24.748825	6.415032	26471.5	-3.923042E-11	-2.549043E+10	16.060014	0.211867	0	0
0	0	0	0.223069	6.415024	-24.749074	6.415024	26469.25	-4.023085E-11	-2.485655E+10	15.973299	0.211021	0	0
0	0	0	0.221722	6.414947	-24.750598	6.414947	26454.75	-5.596012E-11	-1.786987E+10	16.008596	0.209831	0	0
0	0	0	0.219558	6.414791	-24.752927	6.414791	26431.5	-2.582203E-10	-3.872663E+9	15.915112	0.208892	0	0
0	0	0	0.215106	6.41494	-24.759539	6.41494	26384	-5.787141E-11	-1.727969E+10	15.992471	0.207517	0	0
0	0	0	0.21384	6.414678	-24.760237	6.414678	26370.5	1.578988E-10	6.333171E+9	15.856087	0.207134	0	0
0	0	0	0.211268	6.414671	-24.763697	6.414671	26343	1.432896E-10	6.978874E+9	15.931959	0.205627	0	0
0	0	0	0.210043	6.414721	-24.76555	6.414721	26330	3.989669E-10	2.506474E+9	15.830868	0.204913	0	0
0	0	0	0.211554	6.414876	-24.764108	6.414876	26346	-8.655424E-11	-1.155345E+10	15.866595	0.203657	0	0
0	0	0	0.211023	6.414692	-24.764112	6.414692	26340.25	1.975453E-10	5.062129E+9	15.791425	0.202983	0	0
0	0	0	0.211758	6.414657	-24.762978	6.414657	26348.25	1.211327E-10	8.25541E+9	15.79148	0.201634	0	0
0	0	0	0.21331	6.414629	-24.760764	6.414629	26364.75	9.255404E-11	1.08045E+10	15.778613	0.201026	0	0
0	0	0	0.212534	6.414805	-24.762504	6.414805	26356.5	-1.93753E-10	-5.16121E+9	15.713302	0.199902	0	0
0	0	0	0.215311	6.414855	-24.758932	6.414855	26386.25	-1.039318E-10	-9.621695E+9	15.729154	0.198937	0	0
0	0	0	0.214126	6.414834	-24.760455	6.414834	26373.5	-1.2968E-10	-7.711291E+9	15.626969	0.197919	0	0
0	0	0	0.215882	6.414841	-24.758102	6.414841	26392.25	-1.198507E-10	-8.343711E+9	15.673432	0.196928	0	0
0	0	0	0.216413	6.414827	-24.757327	6.414827	26398	-1.415153E-10	-7.066375E+9	15.565263	0.19624	0	0
0	0	0	0.21772	6.415095	-24.756601	6.415095	26412	-3.196457E-11	-3.128464E+10	15.656047	0.194878	0	0
0	0	0	0.216658	6.414947	-24.757463	6.414947	26400.5	-5.584536E-11	-1.790659E+10	15.510489	0.194323	0	0
0	0	0	0.21723	6.414841	-24.756275	6.414841	26406.75	-1.199166E-10	-8.339129E+9	15.587136	0.192975	0	0
0	0	0	0.22017	6.414869	-24.752399	6.414869	26438.25	-9.194263E-11	-1.087635E+10	15.470935	0.19238	0	0
0	0	0	0.218414	6.415046	-24.755468	6.415046	26419.25	-3.72921E-11	-2.681533E+10	15.51291	0.191243	0	0
0	0	0	0.219762	6.414699	-24.752293	6.414699	26433.75	2.268949E-10	4.407327E+9	15.409621	0.190569	0	0
0	0	0	0.220333	6.414897	-24.752288	6.414897	26440	-7.450114E-11	-1.342261E+10	15.448341	0.189365	0	0
0	0	0	0.220252	6.414862	-24.752261	6.414862	26439	-9.766322E-11	-1.023927E+10	15.352759	0.188691	0	0
0	0	0	0.220252	6.414657	-24.751463	6.414657	26439	1.215499E-10	8.227074E+9	15.342243	0.187634	0	0
0	0	0	0.221028	6.414841	-24.751127	6.414841	26447.25	-1.201005E-10	-8.326359E+9	15.308778	0.186893	0	0
0	0	0	0.22262	6.414918	-24.74927	6.414918	26464.5	-6.527987E-11	-1.531866E+10	15.276681	0.185849	0	0
0	0	0	0.223805	6.414848	-24.74739	6.414848	26477.25	-1.116972E-10	-8.952776E+9	15.271272	0.185082	0	0
0	0	0	0.223437	6.414975	-24.748383	6.414975	26473.25	-4.90168E-11	-2.040117E+10	15.193249	0.184104	0	0
0	0	0	0.224254	6.415102	-24.747771	6.415102	26482	-3.140932E-11	-3.183768E+10	15.192302	0.183376	0	0
0	0	0	0.223927	6.414904	-24.747444	6.414904	26478.5	-7.123056E-11	-1.403892E+10	15.149179	0.182372	0	0
0	0	0	0.222865	6.414904	-24.748883	6.414904	26467	-7.119963E-11	-1.404502E+10	15.179053	0.181592	0	0
0	0	0	0.220619	6.41501	-24.752341	6.41501	26443	-4.235874E-11	-2.360788E+10	15.085536	0.180706	0	0
0	0	0	0.21919	6.41513	-24.754746	6.41513	26427.75	-2.902656E-11	-3.445121E+10	15.125875	0.179847	0	0
0	0	0	0.217434	6.414862	-24.756081	6.414862	26408.75	-9.755148E-11	-1.0251E+10	15.027191	0.178948	0	0
0	0	0	0.215025	6.415152	-24.760475	6.415152	26383	-2.745442E-11	-3.642401E+10	15.06176	0.178075	0	0
0	0	0	0.21331	6.414721	-24.761122	6.414721	26364.75	3.994935E-10	2.50317E+9	14.941906	0.177374	0	0
0	0	0	0.211758	6.415017	-24.764381	6.415017	26348.25	-4.109859E-11	-2.433174E+10	14.994627	0.176303	0	0
0	0	0	0.208042	6.414883	-24.768896	6.414883	26308.5	-8.190111E-11	-1.220985E+10	14.863353	0.175656	0	0
0	0	0	0.207715	6.414805	-24.769036	6.414805	26305	-1.933744E-10	-5.171315E+9	14.926161	0.174598	0	0
0	0	0	0.20355	6.415067	-24.775701	6.415067	26260.75	-3.460153E-11	-2.890046E+10	14.797201	0.174096	0	0
0	0	0	0.201998	6.414933	-24.777282	6.414933	26244	-5.977155E-11	-1.673037E+10	14.887138	0.172959	0	0
0	0	0	0.201181	6.414954	-24.778471	6.414954	26235.5	-5.358793E-11	-1.866092E+10	14.754186	0.172549	0	0
0	0	0	0.200446	6.414537	-24.777844	6.414537	26227.5	5.206758E-11	1.920581E+10	14.826449	0.171399	0	0
0	0	0	0.199466	6.414791	-24.780163	6.414791	26217.25	-2.561272E-10	-3.904311E+9	14.692397	0.17087	0	0
0	0	0	0.196893	6.414678	-24.783211	6.414678	26189.75	1.568165E-10	6.37688E+9	14.755803	0.169838	0	0
0	0	0	0.196975	6.415024	-24.784449	6.415024	26190.75	-3.980755E-11	-2.512086E+10	14.608204	0.169296	0	0
0	0	0	0.195668	6.414728	-24.785064	6.414728	26176.75	5.32482E-10	1.877998E+9	14.69464	0.168239	0	0
0	0	0	0.193463	6.414586	-24.787503	6.414586	26153.5	6.777777E-11	1.47541E+10	14.558711	0.16767	0	0
0	0	0	0.191707	6.414777	-24.790627	6.414777	26134.75	-3.804786E-10	-2.628269E+9	14.599813	0.166732	0	0
0	0	0	0.188032	6.414904	-24.796104	6.414904	26096	-7.020159E-11	-1.424469E+10	14.474529	0.166071	0	0
0	0	0	0.186888	6.415017	-24.798095	6.415017	26083.75	-4.068602E-11	-2.457847E+10	14.549161	0.165026	0	0
0	0	0	0.186562	6.414777	-24.797602	6.414777	26080.5	-3.796888E-10	-2.633736E+9	14.445958	0.164511	0	0
0	0	0	0.185541	6.414926	-24.799564	6.414926	26069.5	-6.174151E-11	-1.619656E+10	14.492366	0.163691	0	0
0	0	0	0.187787	6.414784	-24.795968	6.414784	26093.25	-3.05096E-10	-3.277657E+9	14.3259	0.163162	0	0
0	0	0	0.18844	6.414756	-24.794973	6.414756	26100.25	-1.435466E-9	-6.966378E+8	14.380252	0.162184	0	0
0	0	0	0.189624	6.414883	-24.793863	6.414883	26112.75	-8.129172E-11	-1.230138E+10	14.236172	0.161615	0	0
0	0	0	0.189747	6.414911	-24.793807	6.414911	26114	-6.720625E-11	-1.487957E+10	14.29915	0.160505	0	0
0	0	0	0.191789	6.414834	-24.790736	6.414834	26135.75	-1.285109E-10	-7.781439E+9	14.191346	0.160068	0	0
0	0	0	0.196036	6.414848	-24.785034	6.414848	26180.75	-1.104464E-10	-9.054167E+9	14.252072	0.159116	0	0
0	0	0	0.195096	6.414777	-24.786032	6.414777	26170.75	-3.810027E-10	-2.624653E+9	14.129807	0.158495	0	0
0	0	0	0.196567	6.415017	-24.784975	6.415017	26186.25	-4.08459E-11	-2.448226E+10	14.167128	0.157728	0	0
0	0	0	0.197751	6.414841	-24.782681	6.414841	26199	-1.189732E-10	-8.405256E+9	14.061361	0.157173	0	0
0	0	0	0.199793	6.415053	-24.780739	6.415053	26220.5	-3.615242E-11	-2.766067E+10	14.087516	0.15634	0	0
0	0	0	0.200609	6.41482	-24.778724	6.41482	26229.25	-1.545601E-10	-6.469975E+9	14.037979	0.155481	0	0
0	0	0	0.201508	6.415173	-24.778882	6.415173	26239	-2.594116E-11	-3.854877E+10	14.030102	0.154965	0	0
0	0	0	0.20355	6.414926	-24.77515	6.414926	26260.75	-6.219446E-11	-1.60786E+10	13.977385	0.154159	0	0
0	0	0	0.202774	6.41489	-24.776065	6.41489	26252.5	-7.765672E-11	-1.287719E+10	13.948768	0.15359	0	0
0	0	0	0.202488	6.414784	-24.776039	6.414784	26249.25	-3.069201E-10	-3.258177E+9	13.91432	0.152744	0	0
0	0	0	0.203754	6.41477	-24.774268	6.41477	26262.75	-5.064791E-10	-1.974415E+9	13.898039	0.152043	0	0
0	0	0	0.206326	6.414848	-24.771083	6.414848	26290.25	-1.109083E-10	-9.016456E+9	13.879123	0.151343	0	0
0	0	0	0.204816	6.414805	-24.772967	6.414805	26274	-1.931465E-10	-5.177416E+9	13.800811	0.150906	0	0
0	0	0	0.20894	6.414989	-24.768091	6.414989	26318	-4.586964E-11	-2.180091E+10	13.851561	0.149796	0	0
0	0	0	0.210492	6.414954	-24.76585	6.414954	26334.75	-5.379066E-11	-1.859059E+10	13.770978	0.149412	0	0
0	0	0	0.212493	6.415003	-24.76333	6.415003	26356	-4.338954E-11	-2.304703E+10	13.809401	0.148447	0	0
0	0	0	0.212819	6.414968	-24.762749	6.414968	26359.5	-5.037653E-11	-1.985051E+10	13.687875	0.14817	0	0
0	0	0	0.211513	6.414777	-24.763778	6.414777	26345.5	-3.835468E-10	-2.607244E+9	13.751505	0.147072	0	0
0	0	0	0.208409	6.414777	-24.767985	6.414777	26312.5	-3.830664E-10	-2.610514E+9	13.624451	0.14661	0	0
0	0	0	0.207837	6.414876	-24.769145	6.414876	26306.25	-8.642365E-11	-1.157091E+10	13.674047	0.145777	0	0
0	0	0	0.209103	6.414869	-24.767402	6.414869	26319.75	-9.153053E-11	-1.092532E+10	13.529667	0.145314	0	0
0	0	0	0.207102	6.414911	-24.770279	6.414911	26298.5	-6.768107E-11	-1.477518E+10	13.564689	0.144508	0	0
0	0	0	0.203386	6.414954	-24.775482	6.414954	26259	-5.363593E-11	-1.864422E+10	13.47215	0.14378	0	0
0	0	0	0.200038	6.414947	-24.779994	6.414947	26223.25	-5.547042E-11	-1.802762E+10	13.459715	0.143291	0	0
0	0	0	0.199303	6.415032	-24.781321	6.415032	26215.5	-3.885103E-11	-2.573935E+10	13.42041	0.142498	0	0
0	0	0	0.197914	6.414827	-24.782405	6.414827	26200.75	-1.404579E-10	-7.119573E+9	13.427295	0.141996	0	0
0	0	0	0.195913	6.414848	-24.7852	6.414848	26179.5	-1.104411E-10	-9.054599E+9	13.402884	0.141123	0	0
0	0	0	0.194075	6.414763	-24.787361	6.414763	26160	-7.470445E-10	-1.338608E+9	13.312237	0.14074	0	0
0	0	0	0.19281	6.415039	-24.79015	6.415039	26146.5	-3.780552E-11	-2.645116E+10	13.335794	0.139708	0	0
0	0	0	0.190441	6.414911	-24.792866	6.414911	26121.5	-6.722555E-11	-1.48753E+10	13.199614	0.139444	0	0
0	0	0	0.191013	6.414805	-24.791678	6.414805	26127.5	-1.920696E-10	-5.206447E+9	13.277544	0.138426	0	0
0	0	0	0.18942	6.414713	-24.793479	6.414713	26110.5	3.152261E-10	3.172326E+9	13.155047	0.138082	0	0
0	0	0	0.187501	6.415067	-24.797457	6.415067	26090.25	-3.437688E-11	-2.908932E+10	13.176183	0.137302	0	0
0	0	0	0.187501	6.414713	-24.796081	6.414713	26090.25	3.149816E-10	3.174788E+9	13.043253	0.136826	0	0
0	0	0	0.186766	6.414897	-24.797793	6.414897	26082.5	-7.34938E-11	-1.360659E+10	13.124781	0.136046	0	0
0	0	0	0.185255	6.414982	-24.800171	6.414982	26066.5	-4.680468E-11	-2.136538E+10	13.042942	0.135385	0	0
0	0	0	0.182723	6.41489	-24.803246	6.41489	26039.75	-7.702739E-11	-1.29824E+10	13.011313	0.135028	0	0
0	0	0	0.18064	6.41489	-24.806069	6.41489	26017.75	-7.696231E-11	-1.299337E+10	13.027492	0.134103	0	0
0	0	0	0.179129	6.414699	-24.807374	6.414699	26002	2.23189E-10	4.480508E+9	12.938274	0.133772	0	0
0	0	0	0.178108	6.414805	-24.809171	6.414805	25991	-1.910661E-10	-5.23379E+9	12.981183	0.132992	0	0
0	0	0	0.180109	6.41501	-24.807257	6.41501	26012.25	-4.166873E-11	-2.399881E+10	12.850907	0.132702	0	0
0	0	0	0.180069	6.414968	-24.807147	6.414968	26011.75	-4.971193E-11	-2.01159E+10	12.929017	0.131763	0	0
0	0	0	0.182682	6.414911	-24.803384	6.414911	26039.25	-6.701388E-11	-1.492228E+10	12.84769	0.131128	0	0
0	0	0	0.181702	6.414904	-24.804685	6.414904	26029	-7.002135E-11	-1.428136E+10	12.822877	0.130573	0	0
0	0	0	0.182723	6.414834	-24.803026	6.414834	26039.75	-1.280389E-10	-7.810126E+9	12.767827	0.129938	0	0
0	0	0	0.182519	6.414904	-24.803578	6.414904	26037.75	-7.004489E-11	-1.427656E+10	12.728583	0.12933	0	0
0	0	0	0.186357	6.414805	-24.797989	6.414805	26078.25	-1.917075E-10	-5.216279E+9	12.681046	0.128524	0	0
0	0	0	0.187052	6.414855	-24.79724	6.414855	26085.5	-1.027472E-10	-9.732628E+9	12.517122	0.128444	0	0
0	0	0	0.189869	6.414805	-24.793228	6.414805	26115.5	-1.919814E-10	-5.208839E+9	12.557375	0.127519	0	0
0	0	0	0.189502	6.41482	-24.793781	6.41482	26111.5	-1.538662E-10	-6.499151E+9	12.430168	0.12703	0	0
0	0	0	0.192728	6.414975	-24.790013	6.414975	26145.75	-4.841042E-11	-2.065671E+10	12.457309	0.126475	0	0
0	0	0	0.193095	6.414954	-24.789432	6.414954	26149.5	-5.341227E-11	-1.872229E+10	12.431313	0.125721	0	0
0	0	0	0.193912	6.414629	-24.787059	6.414629	26158.25	9.182912E-11	1.088979E+10	12.419936	0.125232	0	0
0	0	0	0.196403	6.41494	-24.784893	6.41494	26184.5	-5.743382E-11	-1.741134E+10	12.423458	0.124439	0	0
0	0	0	0.197587	6.414841	-24.782903	6.414841	26197.25	-1.189652E-10	-8.405818E+9	12.31454	0.124174	0	0
0	0	0	0.198935	6.414876	-24.781213	6.414876	26211.5	-8.611237E-11	-1.161273E+10	12.381715	0.123407	0	0
0	0	0	0.196158	6.414862	-24.784923	6.414862	26182	-9.671389E-11	-1.033978E+10	12.267201	0.122865	0	0
0	0	0	0.200283	6.414961	-24.779717	6.414961	26225.75	-5.178717E-11	-1.93098E+10	12.254376	0.122429	0	0
0	0	0	0.199793	6.415053	-24.780739	6.415053	26220.5	-3.615242E-11	-2.766067E+10	12.227971	0.121728	0	0
0	0	0	0.203305	6.414742	-24.774767	6.414742	26258	1.695297E-9	5.89867E+8	12.132546	0.121424	0	0
0	0	0	0.203468	6.414784	-24.774711	6.414784	26259.75	-3.070428E-10	-3.256875E+9	12.17349	0.120565	0	0
0	0	0	0.206817	6.41494	-24.770777	6.41494	26295.5	-5.767729E-11	-1.733785E+10	12.007776	0.12034	0	0
0	0	0	0.20747	6.414862	-24.769588	6.414862	26302.25	-9.715808E-11	-1.02925E+10	12.045937	0.119758	0	0
0	0	0	0.206245	6.414883	-24.771332	6.414883	26289.25	-8.184118E-11	-1.221879E+10	11.958053	0.119256	0	0
0	0	0	0.205061	6.414961	-24.77324	6.414961	26276.75	-5.188788E-11	-1.927232E+10	11.936644	0.11874	0	0
0	0	0	0.20502	6.41494	-24.773213	6.41494	26276.25	-5.763507E-11	-1.735055E+10	11.959249	0.117987	0	0
0	0	0	0.202406	6.414954	-24.776811	6.414954	26248.5	-5.361449E-11	-1.865167E+10	11.846168	0.117802	0	0
0	0	0	0.200895	6.414975	-24.778941	6.414975	26232.5	-4.857104E-11	-2.05884E+10	11.903385	0.116929	0	0
0	0	0	0.200078	6.414961	-24.779994	6.414961	26223.75	-5.178322E-11	-1.931128E+10	11.812717	0.116638	0	0
0	0	0	0.196771	6.414777	-24.783762	6.414777	26188.5	-3.812611E-10	-2.622874E+9	11.749205	0.11607	0	0
0	0	0	0.195872	6.415032	-24.785971	6.415032	26179	-3.879693E-11	-2.577523E+10	11.728125	0.115515	0	0
0	0	0	0.193014	6.414721	-24.788635	6.414721	26148.75	3.962205E-10	2.523847E+9	11.596504	0.115078	0	0
0	0	0	0.193014	6.414862	-24.789185	6.414862	26148.75	-9.659107E-11	-1.035292E+10	11.60171	0.114589	0	0
0	0	0	0.18991	6.414805	-24.793172	6.414805	26115.75	-1.919832E-10	-5.208789E+9	11.552197	0.11406	0	0
0	0	0	0.189053	6.41501	-24.795133	6.41501	26106.75	-4.182011E-11	-2.391194E+10	11.46914	0.113677	0	0
0	0	0	0.187542	6.414897	-24.796741	6.414897	26090.75	-7.351704E-11	-1.360229E+10	11.520305	0.112897	0	0
0	0	0	0.187705	6.414742	-24.795914	6.414742	26092.5	1.684612E-9	5.936084E+8	11.429345	0.112606	0	0
0	0	0	0.18599	6.414721	-24.798157	6.414721	26074.25	3.950916E-10	2.531058E+9	11.431311	0.112223	0	0
0	0	0	0.184969	6.41482	-24.799926	6.41482	26063.5	-1.535834E-10	-6.51112E+9	11.427523	0.111363	0	0
0	0	0	0.184561	6.414742	-24.800177	6.414742	26059.25	1.682465E-9	5.943658E+8	11.30191	0.111125	0	0
0	0	0	0.183785	6.415081	-24.80255	6.415081	26051	-3.2867E-11	-3.042566E+10	11.33345	0.110359	0	0
0	0	0	0.18113	6.414827	-24.805157	6.414827	26023	-1.39505E-10	-7.168203E+9	11.233475	0.110041	0	0
0	0	0	0.180232	6.414784	-24.80621	6.414784	26013.5	-3.041635E-10	-3.287705E+9	11.218748	0.109592	0	0
0	0	0	0.178272	6.414721	-24.808619	6.414721	25992.75	3.938567E-10	2.538995E+9	11.237858	0.108865	0	0
0	0	0	0.17868	6.414664	-24.807845	6.414664	25997.25	1.295458E-10	7.71928E+9	11.16258	0.1086	0	0
0	0	0	0.17819	6.414897	-24.809418	6.414897	25992	-7.323879E-11	-1.365397E+10	11.160454	0.107992	0	0
0	0	0	0.177986	6.41494	-24.80986	6.41494	25989.75	-5.700665E-11	-1.754181E+10	11.086818	0.107648	0	0
0	0	0	0.177823	6.414763	-24.809393	6.414763	25988.25	-7.421399E-10	-1.347455E+9	10.978475	0.107331	0	0
0	0	0	0.177087	6.414904	-24.81094	6.414904	25980.25	-6.989021E-11	-1.430816E+10	10.976692	0.106591	0	0
0	0	0	0.178843	6.414749	-24.807954	6.414749	25998.75	-1.930343E-8	-5.180426E+7	10.895864	0.106128	0	0
0	0	0	0.180354	6.414855	-24.806319	6.414855	26014.75	-1.024685E-10	-9.759096E+9	10.828579	0.105864	0	0
0	0	0	0.180722	6.414713	-24.80527	6.414713	26018.75	3.141184E-10	3.183513E+9	10.84498	0.105136	0	0
0	0	0	0.184479	6.414876	-24.80081	6.414876	26058.25	-8.56089E-11	-1.168103E+10	10.763519	0.104832	0	0
0	0	0	0.184275	6.414692	-24.800371	6.414692	26056.25	1.954154E-10	5.117304E+9	10.73264	0.104436	0	0
0	0	0	0.185663	6.414664	-24.798379	6.414664	26070.75	1.29912E-10	7.697517E+9	10.7106	0.103828	0	0
0	0	0	0.18648	6.414876	-24.798098	6.414876	26079.5	-8.567871E-11	-1.167151E+10	10.576897	0.103537	0	0
0	0	0	0.188277	6.415088	-24.796488	6.415088	26098.5	-3.224209E-11	-3.101536E+10	10.580231	0.103047	0	0
0	0	0	0.189502	6.414869	-24.793974	6.414869	26111.5	-9.080631E-11	-1.101245E+10	0	0	0	0
0	0	0	0.190604	6.41494	-24.792754	6.41494	26123.25	-5.729947E-11	-1.745217E+10	0	0	0	0
0	0	0	0.19089	6.415067	-24.792862	6.415067	26126.25	-3.442431E-11	-2.904924E+10	0	0	0	0
0	0	0	0.193381	6.415053	-24.78943	6.415053	26152.5	-3.605866E-11	-2.773259E+10	0	0	0	0
0	0	0	0.192605	6.415095	-24.790647	6.415095	26144.5	-3.164083E-11	-3.160473E+10	0	0	0	0
0	0	0	0.195178	6.414706	-24.785646	6.414706	26171.75	2.62593E-10	3.808175E+9	0	0	0	0
0	0	0	0.196322	6.414933	-24.784977	6.414933	26183.75	-5.963433E-11	-1.676886E+10	0	0	0	0
0	0	0	0.196648	6.415003	-24.784809	6.415003	26187.25	-4.311173E-11	-2.319554E+10	0	0	0	0
0	0	0	0.198322	6.414827	-24.781851	6.414827	26205	-1.404806E-10	-7.118419E+9	0	0	0	0
0	0	0	0.201426	6.414954	-24.778139	6.414954	26238	-5.359304E-11	-1.865914E+10	0	0	0	0
0	0	0	0.203672	6.414855	-24.774709	6.414855	26262	-1.034424E-10	-9.667217E+9	0	0	0	0
0	0	0	0.203958	6.414933	-24.774624	6.414933	26265	-5.981938E-11	-1.671699E+10	0	0	0	0
0	0	0	0.205387	6.415024	-24.773045	6.415024	26280.25	-3.994358E-11	-2.503531E+10	0	0	0	0
0	0	0	0.202733	6.415173	-24.777221	6.415173	26252	-2.595401E-11	-3.852968E+10	0	0	0	0
0	0	0	0.20212	6.414975	-24.777281	6.414975	26245.5	-4.859511E-11	-2.05782E+10	0	0	0	0
0	0	0	0.200119	6.414911	-24.779746	6.414911	26224	-6.748934E-11	-1.481715E+10	0	0	0	0
0	0	0	0.199425	6.414933	-24.780769	6.414933	26216.75	-5.970949E-11	-1.674776E+10	0	0	0	0
0	0	0	0.198159	6.414904	-24.782375	6.414904	26203.25	-7.049011E-11	-1.418639E+10	0	0	0	0
0	0	0	0.194035	6.414911	-24.787994	6.414911	26159.5	-6.732335E-11	-1.485369E+10	0	0	0	0
0	0	0	0.192687	6.415046	-24.790344	6.415046	26145.25	-3.690533E-11	-2.709635E+10	0	0	0	0
0	0	0	0.191054	6.415032	-24.792503	6.415032	26128	-3.872135E-11	-2.582554E+10	0	0	0	0
0	0	0	0.190196	0	0.190196	0	26118.75	0	0	0	0	0	0
0	0	0	0.188318	0	0.188318	0	26099	0	0	0	0	0	0
