Vload_(V)	ILoad_(A)	RsLoad (ohm)	SunsVoc_Voltage_(V)	SunsVoc_Current_(A)	Model_Voltage_(V)	Model_Current_(A)	Carrier_Density_(cm-3)	Lifetime_(s)	Inverse_Lifetime_(s-1)	Efficiency_(%)	Intensity_(suns)	Dark_IV_Voltage_(V)	Dark_IV_Current_(A)
3.004739	6.370274	0	65.01638	-0.730285	65.243997	-0.730285	3.839174E+15	0.000227	4381.383752	19.440954	1.09913	0	0
3.01355	6.371939	-0.510739	64.967866	-0.489742	65.121734	-0.489742	3.795254E+15	0.000232	4281.943553	19.716499	1.092363	0	0
6.937593	6.366862	4.533718	64.829063	-0.099435	64.861014	-0.099435	3.672023E+15	0.000238	4174.766303	19.43839	1.097626	0	0
12.076411	6.350413	5.813257	64.666288	0.321425	64.560307	0.321425	3.531991E+15	0.000245	4058.991485	19.705715	1.090147	0	0
16.668395	6.34303	5.273308	64.487628	0.732657	64.239309	0.732657	3.383689E+15	0.000252	3949.986274	19.411318	1.095885	0	0
21.476599	6.337636	4.610734	64.312194	1.117631	63.923292	1.117631	3.243376E+15	0.000259	3840.479492	19.632173	1.088881	0	0
26.402559	6.336662	3.848364	64.133656	1.478528	63.60557	1.478528	3.105799E+15	0.000267	3736.011876	19.415685	1.092838	0	0
31.505041	6.252851	3.658685	63.956548	1.806845	63.294707	1.806845	2.974347E+15	0.000274	3640.207875	19.570806	1.087456	0	0
36.410561	6.243189	2.912774	63.78385	2.107325	62.99319	2.107325	2.850824E+15	0.000281	3548.680544	19.446564	1.08983	0	0
40.947848	6.297803	1.923119	63.610989	2.3864	62.694364	2.3864	2.731633E+15	0.000288	3461.841445	19.489924	1.087258	0	0
45.746638	6.273651	1.292115	63.442048	2.644328	62.403331	2.644328	2.619305E+15	0.000295	3377.252887	19.481905	1.087852	0	0
47.174771	6.263345	1.11002	63.273148	2.887251	62.113878	2.887251	2.51098E+15	0.000303	3293.900184	19.416059	1.088247	0	0
48.597022	6.239744	0.973269	63.10241	3.110717	61.826047	3.110717	2.405387E+15	0.00031	3218.508181	19.548268	1.085952	0	0
50.008481	6.196046	0.877256	62.937798	3.315963	61.549091	3.315963	2.307186E+15	0.000317	3144.756747	19.389542	1.088406	0	0
51.426774	6.130378	0.794393	62.772491	3.506131	61.274277	3.506131	2.212018E+15	0.000324	3076.351183	19.615146	1.083974	0	0
52.870042	6.030003	0.722017	62.612657	3.68447	61.007888	3.68447	2.123183E+15	0.000332	3005.951706	19.37099	1.088722	0	0
54.272876	5.881439	0.663213	62.448208	3.853307	60.737249	3.853307	2.034949E+15	0.000339	2939.575279	19.637753	1.082707	0	0
55.647878	5.664656	0.614947	62.286658	4.009154	60.473124	4.009154	1.951302E+15	0.000347	2876.175353	19.366424	1.088524	0	0
57.012323	5.353376	0.572816	62.125599	4.1534	60.212343	4.1534	1.870806E+15	0.000354	2817.037609	19.656086	1.081085	0	0
58.364842	4.914358	0.538993	61.966091	4.284888	59.957046	4.284888	1.793852E+15	0.000361	2763.990416	19.397799	1.086585	0	0
59.672313	4.33745	0.506883	61.811525	4.406564	59.710331	4.406564	1.72183E+15	0.000368	2711.907416	19.62477	1.080056	0	0
60.924329	3.601497	0.483415	61.657693	4.520491	59.466341	4.520491	1.652567E+15	0.000375	2661.937021	19.42566	1.084172	0	0
62.107162	2.725114	0.460868	61.502269	4.627291	59.222083	4.627291	1.584966E+15	0.000382	2615.508995	19.567815	1.078948	0	0
63.187548	1.756435	0.464534	61.348683	4.727752	58.981575	4.727752	1.520445E+15	0.000389	2569.611283	19.476699	1.080689	0	0
64.093217	0.818161	0.481679	61.196525	4.822194	58.744322	4.822194	1.458696E+15	0.000396	2524.623246	19.500413	1.077682	0	0
53.638501	5.957715	0.687062	61.040856	4.909963	58.504633	4.909963	1.397694E+15	0.000402	2485.661304	19.542883	1.076218	0	0
64.799884	0	0	60.888699	4.992711	58.270585	4.992711	1.340132E+15	0.000408	2445.737665	19.439818	1.075901	0	0
0	0	0	60.73642	5.070804	58.037563	5.070804	1.284507E+15	0.000415	2407.193879	19.580952	1.072102	0	0
0	0	0	60.59002	5.143518	57.81366	5.143518	1.232849E+15	0.000422	2367.88668	19.383886	1.074239	0	0
0	0	0	60.436761	5.211529	57.58253	5.211529	1.180627E+15	0.000428	2335.716688	19.607502	1.068145	0	0
0	0	0	60.290647	5.274447	57.362245	5.274447	1.132561E+15	0.000434	2302.789067	19.34375	1.072023	0	0
0	0	0	60.14629	5.33324	57.145571	5.33324	1.086675E+15	0.00044	2271.399573	19.624331	1.064307	0	0
0	0	0	60.004996	5.388534	56.933931	5.388534	1.043266E+15	0.000446	2239.887785	19.339356	1.069213	0	0
0	0	0	59.862639	5.440278	56.722176	5.440278	1.000993E+15	0.000452	2211.559054	19.601578	1.061893	0	0
0	0	0	59.724611	5.489232	56.516845	5.489232	9.613713E+14	0.000458	2181.599423	19.34646	1.066958	0	0
0	0	0	59.584338	5.536041	56.3092	5.536041	9.224461E+14	0.000464	2152.962468	19.55335	1.060626	0	0
0	0	0	59.446964	5.579275	56.106752	5.579275	8.85602E+14	0.00047	2126.406694	19.398106	1.063673	0	0
0	0	0	59.30718	5.62047	55.901821	5.62047	8.493746E+14	0.000476	2101.725858	19.504839	1.0594	0	0
0	0	0	59.167519	5.658855	55.698176	5.658855	8.144179E+14	0.000481	2079.80828	19.465511	1.060152	0	0
0	0	0	59.03239	5.694919	55.501282	5.694919	7.817437E+14	0.000486	2056.972084	19.460146	1.058331	0	0
0	0	0	58.898977	5.728645	55.307573	5.728645	7.505633E+14	0.000491	2035.505346	19.53732	1.056273	0	0
0	0	0	58.764053	5.760879	55.112386	5.760879	7.200923E+14	0.000496	2015.117295	19.40662	1.056946	0	0
0	0	0	58.631539	5.790754	54.921391	5.790754	6.911787E+14	0.000501	1996.550249	19.588991	1.05196	0	0
0	0	0	58.501433	5.819111	54.734103	5.819111	6.63743E+14	0.000506	1977.400572	19.377246	1.054493	0	0
0	0	0	58.369368	5.845689	54.545048	5.845689	6.368342E+14	0.00051	1961.6235	19.625897	1.047528	0	0
0	0	0	58.243591	5.871308	54.364456	5.871308	6.120651E+14	0.000515	1941.373129	19.350779	1.051485	0	0
0	0	0	58.113281	5.895053	54.178873	5.895053	5.872641E+14	0.000519	1927.118755	19.623815	1.043769	0	0
0	0	0	57.983789	5.917755	53.99474	5.917755	5.634642E+14	0.000523	1912.606225	19.334976	1.048517	0	0
0	0	0	57.859482	5.938955	53.8181	5.938955	5.413904E+14	0.000527	1897.368602	19.602794	1.040009	0	0
0	0	0	57.733134	5.959388	53.639046	5.959388	5.197098E+14	0.000531	1882.919762	19.357976	1.044125	0	0
0	0	0	57.60752	5.97859	53.461541	5.97859	4.988916E+14	0.000535	1869.855595	19.555471	1.037239	0	0
0	0	0	57.480028	5.996779	53.282038	5.996779	4.784931E+14	0.000538	1859.066387	19.401195	1.039812	0	0
0	0	0	57.359642	6.013494	53.112645	6.013494	4.5989E+14	0.000541	1847.730281	19.502738	1.034984	0	0
0	0	0	57.232967	6.0301	52.934879	6.0301	4.409877E+14	0.000544	1837.270877	19.458235	1.035261	0	0
0	0	0	57.108497	6.045395	52.760731	6.045395	4.230687E+14	0.000547	1829.003199	19.432574	1.033243	0	0
0	0	0	56.988846	6.059923	52.593268	6.059923	4.064385E+14	0.00055	1818.730002	19.521373	1.030512	0	0
0	0	0	56.863437	6.074045	52.418361	6.074045	3.896174E+14	0.000552	1810.938332	19.383874	1.031185	0	0
0	0	0	56.742724	6.08728	52.250097	6.08728	3.739996E+14	0.000555	1802.290638	19.577404	1.026199	0	0
0	0	0	56.621643	6.099878	52.081659	6.099878	3.588839E+14	0.000557	1794.606207	19.346965	1.029206	0	0
0	0	0	56.501788	6.111834	51.915156	6.111834	3.444486E+14	0.000559	1787.152323	19.603543	1.022519	0	0
0	0	0	56.382668	6.123	51.750071	6.123	3.306076E+14	0.000561	1781.543138	19.326461	1.026872	0	0
0	0	0	56.263833	6.133754	51.585538	6.133754	3.172884E+14	0.000563	1775.607009	19.611994	1.019036	0	0
0	0	0	56.145611	6.144278	51.421858	6.144278	3.045088E+14	0.000566	1767.816907	19.345519	1.023389	0	0
0	0	0	56.028329	6.153966	51.259934	6.153966	2.922818E+14	0.000567	1762.83328	19.608976	1.015831	0	0
0	0	0	55.911128	6.16335	51.098238	6.16335	2.804995E+14	0.000569	1757.203455	19.390901	1.019274	0	0
0	0	0	55.792701	6.172249	50.935195	6.172249	2.690244E+14	0.00057	1753.366632	19.57098	1.01314	0	0
0	0	0	55.67595	6.180663	50.774637	6.180663	2.581228E+14	0.000571	1749.785485	19.426265	1.015079	0	0
0	0	0	55.560954	6.188766	50.616541	6.188766	2.477727E+14	0.000573	1744.985721	19.507207	1.010568	0	0
0	0	0	55.447714	6.196159	50.461238	6.196159	2.379456E+14	0.000574	1743.054341	19.48749	1.009895	0	0
0	0	0	55.331166	6.203665	50.301391	6.203665	2.281987E+14	0.000575	1739.153722	19.457351	1.007679	0	0
0	0	0	55.217314	6.210678	50.145415	6.210678	2.190261E+14	0.000576	1735.721516	19.545538	1.004791	0	0
0	0	0	55.09999	6.217538	49.984899	6.217538	2.099239E+14	0.000577	1733.14877	19.385208	1.005186	0	0
0	0	0	54.987935	6.223759	49.831787	6.223759	2.01552E+14	0.000577	1731.624303	19.577389	0.999607	0	0
0	0	0	54.872939	6.229687	49.674963	6.229687	1.93277E+14	0.000577	1732.701797	19.330241	1.002535	0	0
0	0	0	54.756636	6.235672	49.516295	6.235672	1.852242E+14	0.000578	1731.063424	19.603817	0.995096	0	0
0	0	0	54.645234	6.241329	49.364309	6.241329	1.777996E+14	0.000579	1727.567845	19.332228	0.999053	0	0
0	0	0	54.526032	6.246681	49.202208	6.246681	1.701581E+14	0.000578	1730.23331	19.621235	0.991059	0	0
0	0	0	54.415447	6.251884	49.05156	6.251884	1.6334E+14	0.000579	1726.570945	19.328918	0.996006	0	0
0	0	0	54.298041	6.256773	48.892107	6.256773	1.563779E+14	0.000578	1728.980847	19.58911	0.987893	0	0
0	0	0	54.184434	6.261343	48.737895	6.261343	1.499029E+14	0.000578	1731.034073	19.366512	0.991613	0	0
0	0	0	54.072378	6.265732	48.585841	6.265732	1.437606E+14	0.000577	1732.270923	19.565541	0.984846	0	0
0	0	0	53.955708	6.269962	48.42777	6.269962	1.376143E+14	0.000576	1736.420028	19.430365	0.986865	0	0
0	0	0	53.845327	6.274116	48.278039	6.274116	1.320254E+14	0.000576	1734.984491	19.513571	0.982551	0	0
0	0	0	53.729596	6.278331	48.121126	6.278331	1.263936E+14	0.000577	1732.850925	19.482303	0.982314	0	0
0	0	0	53.616805	6.281959	47.968582	6.281959	1.211219E+14	0.000576	1736.929413	19.442417	0.980375	0	0
0	0	0	53.503402	6.285405	47.815349	6.285405	1.160299E+14	0.000574	1742.401336	19.543043	0.977209	0	0
0	0	0	53.389591	6.288659	47.661711	6.288659	1.111223E+14	0.000572	1749.597581	19.404009	0.977328	0	0
0	0	0	53.276514	6.292018	47.508911	6.292018	1.064406E+14	0.000571	1751.383707	19.609784	0.971827	0	0
0	0	0	53.168052	6.295132	47.36241	6.295132	1.021254E+14	0.000571	1752.738348	19.349514	0.974835	0	0
0	0	0	53.050116	6.298198	47.203369	6.298198	9.762118E+13	0.000569	1758.791057	19.62316	0.967435	0	0
0	0	0	52.941409	6.300937	47.056823	6.300937	9.363678E+13	0.000567	1763.95869	19.324229	0.971471	0	0
0	0	0	52.824943	6.303775	46.899874	6.303775	8.953953E+13	0.000565	1769.181166	19.620227	0.963122	0	0
0	0	0	52.710764	6.306327	46.74619	6.306327	8.568871E+13	0.000563	1777.728012	19.333568	0.967474	0	0
0	0	0	52.598708	6.308965	46.595209	6.308965	8.206333E+13	0.000562	1779.684167	19.610204	0.959283	0	0
0	0	0	52.480078	6.311256	46.435818	6.311256	7.838503E+13	0.000558	1793.599019	19.369891	0.962924	0	0
0	0	0	52.369003	6.313501	46.286454	6.313501	7.508435E+13	0.000555	1801.214603	19.557249	0.956513	0	0
0	0	0	52.25221	6.315874	46.129363	6.315874	7.175757E+13	0.000554	1805.945916	19.416853	0.958215	0	0
0	0	0	52.135703	6.318048	45.972816	6.318048	6.858014E+13	0.000551	1814.07946	19.484528	0.954178	0	0
0	0	0	52.018747	6.319741	45.816121	6.319741	6.552674E+13	0.000544	1837.08316	19.484587	0.952991	0	0
0	0	0	51.900607	6.321947	45.657328	6.321947	6.257551E+13	0.000544	1839.734264	19.447512	0.951013	0	0
0	0	0	51.785448	6.323936	45.502676	6.323936	5.982237E+13	0.000542	1845.21826	19.54121	0.948163	0	0
0	0	0	51.664081	6.325705	45.339991	6.325705	5.704754E+13	0.000537	1861.108485	19.3891	0.948678	0	0
0	0	0	51.537325	6.327267	45.170343	6.327267	5.428248E+13	0.00053	1887.351888	19.579023	0.943652	0	0
0	0	0	51.41506	6.329034	45.006424	6.329034	5.173867E+13	0.000527	1898.783071	19.338936	0.946422	0	0
0	0	0	51.291243	6.330595	44.840635	6.330595	4.928055E+13	0.000521	1918.045176	19.620718	0.939141	0	0
0	0	0	51.175104	6.332379	44.684779	6.332379	4.707817E+13	0.000522	1917.475123	19.337858	0.943138	0	0
0	0	0	51.049123	6.333716	44.51631	6.333716	4.47974E+13	0.000514	1944.035529	19.634967	0.934986	0	0
0	0	0	50.920202	6.335243	44.343726	6.335243	4.257488E+13	0.00051	1960.086561	19.334718	0.939893	0	0
0	0	0	50.797611	6.336753	44.179536	6.336753	4.056138E+13	0.000508	1968.709068	19.618531	0.931622	0	0
0	0	0	50.672365	6.337894	44.012192	6.337894	3.860034E+13	0.0005	1998.280826	19.366461	0.93554	0	0
0	0	0	50.54716	6.339291	43.844619	6.339291	3.673264E+13	0.000498	2009.309087	19.580821	0.928457	0	0
0	0	0	50.416401	6.340392	43.669973	6.340392	3.487647E+13	0.00049	2041.002944	19.424417	0.930673	0	0
0	0	0	50.291645	6.341756	43.502995	6.341756	3.319129E+13	0.000489	2046.726776	19.519905	0.925845	0	0
0	0	0	50.158355	6.342801	43.32502	6.342801	3.147898E+13	0.000481	2079.013685	19.479496	0.925568	0	0
0	0	0	50.026167	6.343977	43.148351	6.343977	2.986653E+13	0.000477	2097.441945	19.450423	0.923431	0	0
0	0	0	49.889854	6.344929	42.966437	6.344929	2.828873E+13	0.000469	2134.255028	19.535945	0.920859	0	0
0	0	0	49.749335	6.345894	42.778914	6.345894	2.674804E+13	0.000461	2171.293982	19.400617	0.920819	0	0
0	0	0	49.61094	6.346913	42.594135	6.346913	2.531141E+13	0.000455	2198.610017	19.597132	0.915635	0	0
0	0	0	49.468666	6.347686	42.404467	6.347686	2.391372E+13	0.000444	2250.106712	19.362584	0.917851	0	0
0	0	0	49.324267	6.348672	42.21173	6.348672	2.257298E+13	0.000439	2279.649249	19.628861	0.911085	0	0
0	0	0	49.174193	6.349536	42.011584	6.349536	2.12581E+13	0.00043	2323.867018	19.328393	0.915121	0	0
0	0	0	49.022036	6.350211	41.808874	6.350211	2.000218E+13	0.000419	2389.350002	19.624903	0.907246	0	0
0	0	0	48.864529	6.351341	41.598533	6.351341	1.877931E+13	0.000416	2401.662621	19.331637	0.911401	0	0
0	0	0	48.70253	6.351716	41.383081	6.351716	1.759865E+13	0.000398	2511.981523	19.610815	0.903685	0	0
0	0	0	48.53947	6.352619	41.165601	6.352619	1.648444E+13	0.000392	2551.370835	19.353836	0.907681	0	0
0	0	0	48.368773	6.353431	40.938074	6.353431	1.539284E+13	0.000384	2606.559552	19.57843	0.900717	0	0
0	0	0	48.196279	6.35414	40.708271	6.35414	1.436249E+13	0.000374	2676.010508	19.401599	0.903289	0	0
0	0	0	48.011698	6.354524	40.462794	6.354524	1.333558E+13	0.000355	2813.38055	19.510502	0.898659	0	0
0	0	0	47.824544	6.355419	40.213283	6.355419	1.236872E+13	0.00035	2861.00102	19.465831	0.898501	0	0
0	0	0	47.627793	6.355653	39.951813	6.355653	1.142723E+13	0.000328	3047.947472	19.467296	0.895889	0	0
0	0	0	47.417403	6.356414	39.67159	6.356414	1.04991E+13	0.000318	3144.739847	19.535616	0.893554	0	0
0	0	0	47.197906	6.357236	39.379184	6.357236	9.610562E+12	0.000309	3231.628696	19.411167	0.893357	0	0
0	0	0	46.965954	6.357346	39.07111	6.357346	8.752742E+12	0.000284	3518.525615	19.574708	0.889122	0	0
0	0	0	46.721017	6.358366	38.744649	6.358366	7.929459E+12	0.00028	3577.272935	19.353138	0.89118	0	0
0	0	0	46.464195	6.358948	38.402941	6.358948	7.148894E+12	0.000265	3773.897326	19.616865	0.884572	0	0
0	0	0	46.197696	6.359381	38.04856	6.359381	6.419717E+12	0.000247	4042.204441	19.332473	0.888093	0	0
0	0	0	45.919721	6.359803	37.678943	6.359803	5.737985E+12	0.00023	4347.005157	19.636439	0.880179	0	0
0	0	0	45.632272	6.36027	37.296676	6.36027	5.108815E+12	0.000214	4664.482949	19.329503	0.88469	0	0
0	0	0	45.333063	6.360716	36.898809	6.360716	4.526861E+12	0.000199	5029.780369	19.630498	0.876776	0	0
0	0	0	45.018213	6.36126	36.480027	6.36126	3.98574E+12	0.000186	5387.082478	19.336186	0.881406	0	0
0	0	0	44.687885	6.36156	36.041011	6.36156	3.487256E+12	0.000168	5952.79641	19.598547	0.873887	0	0
0	0	0	44.339549	6.361929	35.577974	6.361929	3.028842E+12	0.000152	6563.183045	19.383714	0.876934	0	0
0	0	0	43.974756	6.362435	35.092881	6.362435	2.613124E+12	0.00014	7145.724489	19.559777	0.871117	0	0
0	0	0	43.592444	6.362846	34.584641	6.362846	2.238449E+12	0.000127	7905.06463	19.44514	0.872463	0	0
0	0	0	43.189264	6.363157	34.048816	6.363157	1.901296E+12	0.000112	8916.244179	19.484313	0.86898	0	0
0	0	0	42.767504	6.363553	33.488183	6.363553	1.602765E+12	0.0001	9989.632824	19.487613	0.86811	0	0
0	0	0	42.317975	6.363794	32.890885	6.363794	1.335955E+12	8.655088E-5	11553.897251	19.420283	0.866804	0	0
0	0	0	41.831897	6.364225	32.244756	6.364225	1.097161E+12	7.614254E-5	13133.263279	19.566958	0.863005	0	0
0	0	0	41.32634	6.364546	31.572906	6.364546	8.939423E+11	6.551529E-5	15263.61251	19.38148	0.864311	0	0
0	0	0	40.796649	6.365003	30.868777	6.365003	7.212578E+11	5.744279E-5	17408.624765	19.617182	0.858533	0	0
0	0	0	40.237636	6.365113	30.126235	6.365113	5.750445E+11	4.677834E-5	21377.414413	19.343324	0.862016	0	0
0	0	0	39.653632	6.365367	29.350264	6.365367	4.538422E+11	3.883002E-5	25753.267294	19.634246	0.854853	0	0
0	0	0	39.040185	6.365884	28.534744	6.365884	3.539306E+11	3.384597E-5	29545.619172	19.330878	0.85885	0	0
0	0	0	38.394845	6.366026	27.677465	6.366026	2.724649E+11	2.692489E-5	37140.356994	19.638025	0.851054	0	0
0	0	0	37.719122	6.366311	26.779581	6.366311	2.071804E+11	2.19468E-5	45564.723894	19.34154	0.855407	0	0
0	0	0	37.023184	6.366467	25.855058	6.366467	1.562513E+11	1.722881E-5	58042.303145	19.615512	0.847968	0	0
0	0	0	36.298825	6.36669	24.892656	6.36669	1.164907E+11	1.364412E-5	73291.663914	19.36317	0.851687	0	0
0	0	0	35.534732	6.367079	23.877163	6.367079	8.545938E+10	1.122776E-5	89064.974826	19.54858	0.845752	0	0
0	0	0	34.74242	6.367192	22.824678	6.367192	6.198088E+10	8.44343E-6	118435.280614	19.397826	0.847255	0	0
0	0	0	33.92822	6.367276	21.74317	6.367276	4.455536E+10	6.239111E-6	160279.239717	19.498505	0.842784	0	0
0	0	0	33.087476	6.367715	20.625707	6.367715	3.168598E+10	5.19881E-6	192351.702656	19.480832	0.842269	0	0
0	0	0	32.219699	6.367803	19.473003	6.367803	2.228811E+10	3.78691E-6	264067.534571	19.448763	0.840647	0	0
0	0	0	31.3538	6.367799	18.322975	6.367799	1.568951E+10	2.661113E-6	375782.548124	19.537963	0.837877	0	0
0	0	0	30.480755	6.368291	17.162418	6.368291	1.101252E+10	2.331381E-6	428930.244162	19.378056	0.838668	0	0
0	0	0	29.605341	6.36825	15.999809	6.36825	7.722297E+9	1.601993E-6	624222.26794	19.574616	0.833564	0	0
0	0	0	28.723352	6.368384	14.82809	6.368384	5.40068E+9	1.199838E-6	833445.635562	19.343025	0.835859	0	0
0	0	0	27.835687	6.368728	13.648352	6.368728	3.768345E+9	1.023403E-6	977131.833778	19.611754	0.829409	0	0
0	0	0	26.950962	6.36882	12.473062	6.36882	2.632513E+9	7.599234E-7	1315922.150791	19.312734	0.833366	0	0
0	0	0	26.068606	6.368841	11.301072	6.368841	1.840803E+9	5.392945E-7	1854274.414217	19.627144	0.825768	0	0
0	0	0	25.1916	6.36903	10.135789	6.36903	1.289989E+9	4.354506E-7	2296471.896619	19.300858	0.830556	0	0
0	0	0	24.325537	6.369135	8.985227	6.369135	9.080121E+8	3.348338E-7	2986556.416081	19.614312	0.822483	0	0
0	0	0	23.457719	6.368982	7.832959	6.368982	6.38687E+8	2.074645E-7	4820100.690438	19.331753	0.826757	0	0
0	0	0	22.589206	6.369444	6.678244	6.369444	4.491198E+8	2.271246E-7	4402869.327923	19.600267	0.819357	0	0
0	0	0	21.749647	6.369332	5.563403	6.369332	3.195467E+8	1.423889E-7	7023018.636455	19.383113	0.822919	0	0
0	0	0	20.925973	6.369381	4.469255	6.369381	2.288251E+8	1.075644E-7	9296755.667755	19.539902	0.817458	0	0
0	0	0	20.124718	6.369388	3.404992	6.369388	1.653562E+8	7.834591E-8	1.276391E+7	19.439048	0.818566	0	0
0	0	0	19.342983	6.369619	2.366057	6.369619	1.204409E+8	7.720155E-8	1.295311E+7	19.47766	0.815321	0	0
0	0	0	18.581749	6.369759	1.354579	6.369759	8.845808E+7	7.212586E-8	1.386465E+7	19.491672	0.814332	0	0
0	0	0	17.846037	6.369689	0.377567	6.369689	6.564398E+7	4.711645E-8	2.122401E+7	19.423829	0.813105	0	0
0	0	0	17.132662	6.369689	-0.569964	6.369689	4.9157E+7	3.528315E-8	2.834214E+7	19.560126	0.809702	0	0
0	0	0	16.438154	6.37006	-1.493482	6.37006	3.709351E+7	7.285754E-8	1.372541E+7	19.357958	0.811285	0	0
0	0	0	15.771497	6.369787	-2.378197	6.369787	2.830833E+7	2.441074E-8	4.096557E+7	19.580779	0.806061	0	0
0	0	0	15.125503	6.369948	-3.236699	6.369948	2.178557E+7	2.807404E-8	3.56201E+7	19.309159	0.809148	0	0
0	0	0	14.500172	6.370165	-4.067928	6.370165	1.690683E+7	6.530341E-8	1.531314E+7	19.623732	0.801787	0	0
0	0	0	13.893381	6.370081	-4.873659	6.370081	1.321964E+7	2.8797E-8	3.472584E+7	19.318278	0.80618	0	0
0	0	0	13.302272	6.37013	-5.658952	6.37013	1.040251E+7	3.039043E-8	3.290509E+7	19.639096	0.798186	0	0
0	0	0	12.743096	6.370172	-6.401809	6.370172	8292392	3.423644E-8	2.920865E+7	19.320416	0.803093	0	0
0	0	0	12.204217	6.370207	-7.11769	6.370207	6664921.25	4.196932E-8	2.382693E+7	19.588892	0.796089	0	0
0	0	0	11.688124	6.370214	-7.80322	6.370214	5406578	3.804154E-8	2.628706E+7	19.327869	0.799769	0	0
0	0	0	11.195104	6.370144	-8.457866	6.370144	4427030.5	1.43302E-8	6.97827E+7	19.547512	0.793319	0	0
0	0	0	10.725279	6.370137	-9.081895	6.370137	3659204.75	1.123798E-8	8.898394E+7	19.383407	0.795654	0	0
0	0	0	10.271339	6.370249	-9.685197	6.370249	3044093.5	5.184284E-8	1.928907E+7	19.492602	0.791222	0	0
0	0	0	9.834715	6.370389	-10.265593	6.370389	2550222	-9.276974E-9	-1.077938E+8	19.43623	0.791499	0	0
0	0	0	9.41569	6.370445	-10.822351	6.370445	2151776.125	-5.269512E-9	-1.897709E+8	19.412329	0.789718	0	0
0	0	0	9.017656	6.370487	-11.351185	6.370487	1831099.875	-3.601484E-9	-2.776633E+8	19.497188	0.787265	0	0
0	0	0	8.635834	6.370669	-11.858938	6.370669	1568489.5	-1.664834E-9	-6.006604E+8	19.357749	0.787739	0	0
0	0	0	8.271858	6.370347	-12.341362	6.370347	1353297.875	-7.741358E-9	-1.291763E+8	19.564729	0.78303	0	0
0	0	0	7.922378	6.370501	-12.806067	6.370501	1174512.75	-2.167833E-9	-4.612901E+8	19.312538	0.7858	0	0
0	0	0	7.587314	6.370606	-13.25147	6.370606	1025322.125	-1.294594E-9	-7.724429E+8	19.594284	0.779192	0	0
0	0	0	7.268707	6.37055	-13.674487	6.37055	901074.375	-1.368256E-9	-7.308572E+8	19.2723	0.783584	0	0
0	0	0	6.963535	6.370571	-14.079912	6.370571	796208.25	-1.123637E-9	-8.89967E+8	19.603025	0.775828	0	0
0	0	0	6.672942	6.370613	-14.466041	6.370613	707717	-8.751468E-10	-1.142665E+9	19.270494	0.780656	0	0
0	0	0	6.395498	6.37062	-14.83459	6.37062	632423.375	-7.662352E-10	-1.305082E+9	19.606583	0.772663	0	0
0	0	0	6.130101	6.370627	-15.187136	6.370627	567907.125	-6.744377E-10	-1.482717E+9	19.297422	0.777213	0	0
0	0	0	5.874301	6.37055	-15.526654	6.37055	511960.625	-7.773978E-10	-1.286343E+9	19.581223	0.769893	0	0
0	0	0	5.627198	6.370788	-15.855679	6.370788	463156	-3.778696E-10	-2.646415E+9	19.325941	0.773731	0	0
0	0	0	5.391857	6.370718	-16.168045	6.370718	421006.625	-3.975904E-10	-2.515151E+9	19.521689	0.767914	0	0
0	0	0	5.164316	6.370879	-16.470833	6.370879	383905.125	-2.661289E-10	-3.757577E+9	19.373947	0.769972	0	0
0	0	0	4.946003	6.370669	-16.760102	6.370669	351385.5	-3.729692E-10	-2.681186E+9	19.460872	0.766094	0	0
0	0	0	4.729038	6.370557	-17.047911	6.370557	321796.375	-4.765676E-10	-2.098338E+9	19.434324	0.765935	0	0
0	0	0	4.521834	6.370529	-17.323042	6.370529	295867.25	-4.862123E-10	-2.056715E+9	19.383593	0.764471	0	0
0	0	0	4.332883	6.370732	-17.57472	6.370732	274048.125	-2.509008E-10	-3.985639E+9	19.493161	0.76178	0	0
0	0	0	4.147607	6.371033	-17.821859	6.371033	254216.625	-1.404876E-10	-7.118064E+9	19.330131	0.762691	0	0
0	0	0	3.966701	6.370613	-18.060705	6.370613	236238.375	-2.92127E-10	-3.423169E+9	19.535604	0.757981	0	0
0	0	0	3.793146	6.370823	-18.291965	6.370823	220186.75	-1.681961E-10	-5.94544E+9	19.288236	0.760474	0	0
0	0	0	3.627431	6.370753	-18.51184	6.370753	205879.125	-1.802322E-10	-5.548398E+9	19.59412	0.753906	0	0
0	0	0	3.469638	6.370928	-18.722045	6.370928	193120.5	-1.238493E-10	-8.07433E+9	19.26049	0.758456	0	0
0	0	0	3.316909	6.370753	-18.924304	6.370753	181525	-1.589119E-10	-6.292794E+9	19.593669	0.751056	0	0
0	0	0	3.169612	6.370914	-19.120522	6.370914	171001.75	-1.12062E-10	-8.923635E+9	19.253546	0.755765	0	0
0	0	0	3.024193	6.370886	-19.313584	6.370886	161211.25	-1.104766E-10	-9.051689E+9	19.570335	0.747891	0	0
0	0	0	2.886573	6.370893	-19.496409	6.370893	152462.75	-1.033005E-10	-9.680495E+9	19.280236	0.752362	0	0
0	0	0	2.745524	6.370683	-19.683025	6.370683	143988.5	-1.476061E-10	-6.774789E+9	19.540447	0.745754	0	0
0	0	0	2.614887	6.371019	-19.857734	6.371019	136560.75	-7.688501E-11	-1.300644E+10	19.320268	0.748761	0	0
0	0	0	2.48372	6.370809	-20.031222	6.370809	129488.25	-1.015001E-10	-9.852211E+9	19.472454	0.743775	0	0
0	0	0	2.363947	6.370858	-20.19049	6.370858	123350.375	-8.858126E-11	-1.128907E+10	19.345364	0.745358	0	0
0	0	0	2.240783	6.370963	-20.35446	6.370963	117342.25	-7.143157E-11	-1.399941E+10	19.404791	0.742074	0	0
0	0	0	2.1215	6.371033	-20.513154	6.371033	111802.375	-6.17853E-11	-1.618508E+10	19.421875	0.741045	0	0
0	0	0	2.008505	6.370669	-20.66195	6.370669	106796	-1.133559E-10	-8.821773E+9	19.35082	0.740214	0	0
0	0	0	1.890487	6.370935	-20.819661	6.370935	101806.375	-6.459797E-11	-1.548036E+10	19.479832	0.737048	0	0
0	0	0	1.783209	6.370816	-20.961733	6.370816	97473.375	-7.54189E-11	-1.325928E+10	19.282214	0.738591	0	0
0	0	0	1.668173	6.370802	-21.114486	6.370802	93031.5	-7.388937E-11	-1.353375E+10	19.523765	0.733447	0	0
0	0	0	1.561467	6.370935	-21.256699	6.370935	89092.625	-5.653087E-11	-1.768945E+10	19.246807	0.736494	0	0
0	0	0	1.453127	6.370592	-21.399376	6.370592	85264	-1.123904E-10	-8.89756E+9	19.556518	0.729767	0	0
0	0	0	1.347034	6.371068	-21.542009	6.371068	81674.125	-4.314684E-11	-2.317667E+10	19.229655	0.73408	0	0
0	0	0	1.241267	6.370907	-21.681921	6.370907	78245.875	-5.18433E-11	-1.928889E+10	19.565414	0.726482	0	0
0	0	0	1.139788	6.370928	-21.816791	6.370928	75092	-4.815693E-11	-2.076544E+10	19.221756	0.731508	0	0
0	0	0	1.031939	6.370949	-21.960124	6.370949	71879.25	-4.466322E-11	-2.238979E+10	19.537284	0.724227	0	0
0	0	0	0.930133	6.370858	-22.095024	6.370858	68972.75	-4.953121E-11	-2.018929E+10	19.243736	0.728382	0	0
0	0	0	0.826531	6.37097	-22.233044	6.37097	66135.625	-3.985506E-11	-2.509092E+10	19.522946	0.721378	0	0
0	0	0	0.716803	6.371194	-22.379609	6.371194	63258	-2.884294E-11	-3.467053E+10	19.283214	0.725018	0	0
0	0	0	0.617039	6.371075	-22.511694	6.371075	60750.375	-3.181289E-11	-3.14338E+10	19.469936	0.719676	0	0
0	0	0	0.508128	6.370893	-22.6557	6.370893	58126.125	-3.938311E-11	-2.539159E+10	19.335696	0.721457	0	0
0	0	0	0.402729	6.370809	-22.795396	6.370809	55694.625	-4.365653E-11	-2.290608E+10	19.400944	0.718331	0	0
0	0	0	0.29639	6.370837	-22.936748	6.370837	53344.5	-3.973612E-11	-2.516602E+10	19.385048	0.717974	0	0
0	0	0	0.193074	6.370837	-23.073983	6.370837	51156.125	-3.810601E-11	-2.624258E+10	19.335105	0.716392	0	0
0	0	0	0.10017	6.370865	-23.197488	6.370865	49265.125	-3.495984E-11	-2.860425E+10	19.456294	0.713582	0	0
0	0	0	0.019845	6.370942	-23.304467	6.370942	47686.5	-2.994104E-11	-3.339898E+10	19.272345	0.714848	0	0
0	0	0	-0.04431	6.370809	-23.389196	6.370809	46462.25	-3.641968E-11	-2.745768E+10	19.489348	0.71006	0	0
0	0	0	-0.084942	6.370767	-23.443014	6.370767	45703.125	-3.887441E-11	-2.572386E+10	19.222235	0.713147	0	0
0	0	0	-0.124962	6.370998	-23.497019	6.370998	44967.5	-2.60511E-11	-3.838609E+10	19.50817	0.707013	0	0
0	0	0	-0.141541	6.371005	-23.519068	6.371005	44666.25	-2.562891E-11	-3.901844E+10	19.198936	0.71101	0	0
0	0	0	-0.15465	6.370977	-23.536377	6.370977	44429.5	-2.650792E-11	-3.772458E+10	19.537352	0.70361	0	0
0	0	0	-0.172169	6.370914	-23.559416	6.370914	44115	-2.890972E-11	-3.459044E+10	19.200752	0.708358	0	0
0	0	0	-0.188381	6.370984	-23.581208	6.370984	43826	-2.589019E-11	-3.862467E+10	19.524608	0.701117	0	0
0	0	0	-0.199366	6.370795	-23.595105	6.370795	43631.25	-3.511897E-11	-2.847464E+10	19.201796	0.705865	0	0
0	0	0	-0.20541	6.370907	-23.603545	6.370907	43524.5	-2.883799E-11	-3.467648E+10	19.477618	0.699217	0	0
0	0	0	-0.209616	6.371096	-23.609826	6.371096	43450.375	-2.217244E-11	-4.510105E+10	19.246751	0.702344	0	0
0	0	0	-0.212025	6.37097	-23.612564	6.37097	43407.875	-2.615872E-11	-3.822816E+10	19.441437	0.696843	0	0
0	0	0	-0.214312	6.370886	-23.615293	6.370886	43367.625	-2.971944E-11	-3.364801E+10	19.306277	0.698703	0	0
0	0	0	-0.215578	6.371054	-23.617592	6.371054	43345.5	-2.330939E-11	-4.290117E+10	19.37511	0.695577	0	0
0	0	0	-0.216885	6.370942	-23.618916	6.370942	43322.5	-2.7201E-11	-3.676335E+10	19.356348	0.695458	0	0
0	0	0	-0.217007	6.371005	-23.61931	6.371005	43320.375	-2.485666E-11	-4.023066E+10	19.30357	0.694231	0	0
0	0	0	-0.220397	6.371145	-23.624327	6.371145	43260.75	-2.083427E-11	-4.799784E+10	19.422927	0.691382	0	0
0	0	0	-0.221132	6.371075	-23.625046	6.371075	43247.875	-2.264743E-11	-4.415512E+10	19.254222	0.692451	0	0
0	0	0	-0.222398	6.370788	-23.625673	6.370788	43225.75	-3.526608E-11	-2.835586E+10	19.478732	0.68786	0	0
0	0	0	-0.223541	6.371328	-23.629172	6.371328	43205.75	-1.72126E-11	-5.809696E+10	19.211612	0.691026	0	0
0	0	0	-0.22493	6.371005	-23.629833	6.371005	43181.375	-2.477691E-11	-4.036016E+10	19.49021	0.684892	0	0
0	0	0	-0.224644	6.371251	-23.630354	6.371251	43186.375	-1.856174E-11	-5.387427E+10	19.150356	0.689166	0	0
0	0	0	-0.226196	6.371096	-23.631849	6.371096	43159.25	-2.202388E-11	-4.540527E+10	19.495655	0.681766	0	0
0	0	0	-0.228401	6.371251	-23.635344	6.371251	43120.625	-1.853348E-11	-5.395642E+10	19.156361	0.686792	0	0
0	0	0	-0.22787	6.37097	-23.63361	6.37097	43130	-2.599127E-11	-3.847446E+10	19.510078	0.679036	0	0
0	0	0	-0.226808	6.370963	-23.632174	6.370963	43148.5	-2.626646E-11	-3.807137E+10	19.174066	0.68422	0	0
0	0	0	-0.227788	6.371075	-23.633888	6.371075	43131.375	-2.258642E-11	-4.427438E+10	19.482114	0.677215	0	0
0	0	0	-0.228483	6.370963	-23.634398	6.370963	43119.25	-2.624865E-11	-3.80972E+10	19.202851	0.681331	0	0
0	0	0	-0.228401	6.370942	-23.634212	6.370942	43120.625	-2.707425E-11	-3.693546E+10	19.424264	0.675395	0	0
0	0	0	-0.228442	6.370746	-23.633546	6.370746	43120	-3.830782E-11	-2.610433E+10	19.248556	0.677849	0	0
0	0	0	-0.227543	6.371061	-23.633511	6.371061	43135.625	-2.29903E-11	-4.349661E+10	19.381672	0.673496	0	0
0	0	0	-0.228156	6.371082	-23.634401	6.371082	43125	-2.238753E-11	-4.466773E+10	19.320441	0.674327	0	0
0	0	0	-0.228768	6.370879	-23.634469	6.370879	43114.25	-2.988746E-11	-3.345885E+10	19.295094	0.672586	0	0
0	0	0	-0.228115	6.370816	-23.63337	6.370816	43125.625	-3.336796E-11	-2.996887E+10	19.35881	0.670844	0	0
0	0	0	-0.228278	6.370802	-23.633535	6.370802	43122.75	-3.424983E-11	-2.919723E+10	19.214679	0.67124	0	0
0	0	0	-0.227543	6.371047	-23.633459	6.371047	43135.625	-2.340649E-11	-4.27232E+10	19.42111	0.667085	0	0
0	0	0	-0.227298	6.371061	-23.633185	6.371061	43140	-2.299263E-11	-4.34922E+10	19.174982	0.669618	0	0
0	0	0	-0.22885	6.3709	-23.634655	6.3709	43112.75	-2.888441E-11	-3.462075E+10	19.475246	0.663642	0	0
0	0	0	-0.226931	6.370858	-23.631951	6.370858	43146.375	-3.098458E-11	-3.227411E+10	19.138729	0.668035	0	0
0	0	0	-0.227421	6.370984	-23.633065	6.370984	43137.75	-2.54836E-11	-3.924092E+10	19.469428	0.661149	0	0
0	0	0	-0.229503	6.371124	-23.636346	6.371124	43101.375	-2.127013E-11	-4.701429E+10	19.120187	0.66574	0	0
0	0	0	-0.227217	6.37118	-23.633514	6.37118	43141.375	-1.997446E-11	-5.006393E+10	19.476171	0.6583	0	0
0	0	0	-0.22885	6.370984	-23.634963	6.370984	43112.75	-2.546883E-11	-3.926367E+10	19.144074	0.662811	0	0
0	0	0	-0.228973	6.371054	-23.635383	6.371054	43110.625	-2.318308E-11	-4.31349E+10	19.456499	0.656045	0	0
0	0	0	-0.229463	6.370921	-23.635546	6.370921	43102.125	-2.794053E-11	-3.57903E+10	19.154595	0.660239	0	0
0	0	0	-0.228687	6.370942	-23.634592	6.370942	43115.625	-2.707111E-11	-3.693975E+10	19.396024	0.654303	0	0
0	0	0	-0.229218	6.370879	-23.635066	6.370879	43106.375	-2.9882E-11	-3.346497E+10	19.188535	0.657153	0	0
0	0	0	-0.229054	6.371152	-23.635852	6.371152	43109.25	-2.059585E-11	-4.855347E+10	19.340059	0.652641	0	0
0	0	0	-0.231423	6.37097	-23.638329	6.37097	43067.875	-2.595383E-11	-3.852996E+10	19.272376	0.653354	0	0
0	0	0	-0.229585	6.371005	-23.636017	6.371005	43100	-2.473022E-11	-4.043636E+10	19.290863	0.651138	0	0
0	0	0	-0.231055	6.370942	-23.637738	6.370942	43074.25	-2.704513E-11	-3.697523E+10	19.301064	0.650465	0	0
0	0	0	-0.232403	6.371173	-23.640377	6.371173	43050.75	-2.008764E-11	-4.978185E+10	19.198207	0.650109	0	0
0	0	0	-0.233056	6.371159	-23.641194	6.371159	43039.375	-2.039989E-11	-4.901986E+10	19.360082	0.646785	0	0
0	0	0	-0.234036	6.370956	-23.641749	6.370956	43022.25	-2.645827E-11	-3.779537E+10	19.15139	0.648605	0	0
0	0	0	-0.23326	6.370963	-23.640745	6.370963	43035.75	-2.619782E-11	-3.817112E+10	19.424244	0.643342	0	0
0	0	0	-0.234241	6.371075	-23.642458	6.371075	43018.625	-2.252738E-11	-4.439042E+10	19.109964	0.646864	0	0
0	0	0	-0.234649	6.370914	-23.642409	6.370914	43011.5	-2.818657E-11	-3.547789E+10	19.432886	0.640335	0	0
0	0	0	-0.235792	6.371124	-23.644699	6.371124	42991.625	-2.121597E-11	-4.713431E+10	19.056753	0.64536	0	0
0	0	0	-0.23567	6.371103	-23.64446	6.371103	42993.75	-2.175425E-11	-4.596803E+10	19.432268	0.637802	0	0
0	0	0	-0.235139	6.371103	-23.643754	6.371103	43003	-2.175893E-11	-4.595814E+10	19.075078	0.642828	0	0
0	0	0	-0.234526	6.370823	-23.641912	6.370823	43013.75	-3.285732E-11	-3.043462E+10	19.451274	0.634953	0	0
0	0	0	-0.235343	6.371173	-23.644283	6.371173	42999.5	-2.006373E-11	-4.984118E+10	19.094047	0.640137	0	0
0	0	0	-0.236854	6.371117	-23.646084	6.371117	42973.125	-2.138286E-11	-4.676643E+10	19.403062	0.63333	0	0
0	0	0	-0.235139	6.371026	-23.643471	6.371026	43003	-2.398584E-11	-4.169127E+10	19.124418	0.637288	0	0
0	0	0	-0.237834	6.37118	-23.647617	6.37118	42956	-1.988863E-11	-5.027998E+10	19.337824	0.631787	0	0
0	0	0	-0.236323	6.37104	-23.645096	6.37104	42982.375	-2.353637E-11	-4.248744E+10	19.172774	0.634241	0	0
0	0	0	-0.236078	6.371159	-23.645208	6.371159	42986.625	-2.037489E-11	-4.908002E+10	19.292862	0.630363	0	0
0	0	0	-0.236323	6.371166	-23.645559	6.371166	42982.375	-2.021306E-11	-4.947295E+10	19.24482	0.630679	0	0
0	0	0	-0.236364	6.371166	-23.645613	6.371166	42981.625	-2.021271E-11	-4.947382E+10	19.219624	0.629057	0	0
0	0	0	-0.237017	6.371096	-23.646224	6.371096	42970.25	-2.192743E-11	-4.560498E+10	19.293448	0.627355	0	0
0	0	0	-0.236119	6.371082	-23.644979	6.371082	42986	-2.231537E-11	-4.481217E+10	19.138783	0.628146	0	0
0	0	0	-0.236405	6.370984	-23.644999	6.370984	42981	-2.5391E-11	-3.938403E+10	19.356411	0.623873	0	0
0	0	0	-0.236201	6.371173	-23.645422	6.371173	42984.5	-2.005673E-11	-4.985857E+10	19.110816	0.626287	0	0
0	0	0	-0.234812	6.370949	-23.642754	6.370949	43008.75	-2.672411E-11	-3.741939E+10	19.400925	0.620786	0	0
0	0	0	-0.233505	6.370872	-23.640736	6.370872	43031.5	-3.017906E-11	-3.313555E+10	19.059648	0.624902	0	0
0	0	0	-0.234241	6.370956	-23.642021	6.370956	43018.625	-2.645604E-11	-3.779855E+10	19.406518	0.618174	0	0
0	0	0	-0.233995	6.370998	-23.64185	6.370998	43023	-2.492459E-11	-4.012102E+10	19.031703	0.622963	0	0
0	0	0	-0.231872	6.371005	-23.639055	6.371005	43060	-2.470726E-11	-4.047393E+10	19.40017	0.615642	0	0
0	0	0	-0.23228	6.371124	-23.640034	6.371124	43052.875	-2.12462E-11	-4.706725E+10	19.041208	0.620272	0	0
0	0	0	-0.233301	6.371082	-23.641236	6.371082	43035	-2.234081E-11	-4.476114E+10	19.384644	0.613307	0	0
0	0	0	-0.233342	6.370858	-23.640467	6.370858	43034.375	-3.090415E-11	-3.235811E+10	19.047988	0.618016	0	0
0	0	0	-0.232158	6.370949	-23.639229	6.370949	43055	-2.675285E-11	-3.737919E+10	19.330957	0.611724	0	0
0	0	0	-0.230402	6.371061	-23.637308	6.371061	43085.75	-2.296372E-11	-4.354696E+10	19.090796	0.615088	0	0
0	0	0	-0.229994	6.370977	-23.636457	6.370977	43092.875	-2.571045E-11	-3.889469E+10	19.28369	0.610181	0	0
0	0	0	-0.230769	6.370963	-23.637436	6.370963	43079.25	-2.62243E-11	-3.813257E+10	19.161574	0.611566	0	0
0	0	0	-0.230116	6.371215	-23.637494	6.371215	43090.75	-1.920924E-11	-5.205828E+10	19.215109	0.608915	0	0
0	0	0	-0.231014	6.371089	-23.638224	6.371089	43075	-2.216959E-11	-4.510683E+10	19.201018	0.608638	0	0
0	0	0	-0.231749	6.371258	-23.639818	6.371258	43062.125	-1.837658E-11	-5.441708E+10	19.134841	0.607727	0	0
0	0	0	-0.230729	6.371103	-23.637896	6.371103	43080	-2.179789E-11	-4.5876E+10	19.243018	0.605472	0	0
0	0	0	-0.230606	6.371138	-23.637862	6.371138	43082.125	-2.091627E-11	-4.780967E+10	19.06451	0.60654	0	0
0	0	0	-0.230933	6.371173	-23.638425	6.371173	43076.375	-2.00996E-11	-4.975223E+10	19.289239	0.602069	0	0
0	0	0	-0.230239	6.371096	-23.637219	6.371096	43088.5	-2.198777E-11	-4.547982E+10	19.029842	0.604601	0	0
0	0	0	-0.231545	6.370823	-23.637952	6.370823	43065.75	-3.289704E-11	-3.039787E+10	19.336432	0.599061	0	0
0	0	0	-0.231464	6.37097	-23.638384	6.37097	43067.125	-2.595338E-11	-3.853063E+10	18.993069	0.603256	0	0
0	0	0	-0.233465	6.371124	-23.641608	6.371124	43032.25	-2.123602E-11	-4.708981E+10	19.349096	0.596489	0	0
0	0	0	-0.234322	6.371166	-23.642901	6.371166	43017.25	-2.022946E-11	-4.943285E+10	18.97284	0.601554	0	0
0	0	0	-0.234322	6.370956	-23.642129	6.370956	43017.25	-2.645519E-11	-3.779976E+10	19.35913	0.594036	0	0
0	0	0	-0.234281	6.371201	-23.642975	6.371201	43018	-1.946631E-11	-5.13708E+10	18.98508	0.598943	0	0
0	0	0	-0.234322	6.37104	-23.642438	6.37104	43017.25	-2.355546E-11	-4.2453E+10	19.335838	0.592017	0	0
0	0	0	-0.234445	6.37097	-23.642343	6.37097	43015.125	-2.592204E-11	-3.857721E+10	19.005661	0.596568	0	0
0	0	0	-0.235016	6.371159	-23.643797	6.371159	43005.125	-2.038366E-11	-4.90589E+10	19.284382	0.590395	0	0
0	0	0	-0.236323	6.371096	-23.645302	6.371096	42982.375	-2.193362E-11	-4.559211E+10	19.035447	0.593561	0	0
0	0	0	-0.235996	6.370963	-23.644379	6.370963	42988	-2.616875E-11	-3.821352E+10	19.234354	0.588693	0	0
0	0	0	-0.238242	6.371012	-23.647542	6.371012	42948.875	-2.440987E-11	-4.096703E+10	19.098798	0.590237	0	0
0	0	0	-0.238528	6.371286	-23.648926	6.371286	42944	-1.78188E-11	-5.612049E+10	19.168	0.587388	0	0
0	0	0	-0.236936	6.371187	-23.64645	6.371187	42971.75	-1.974344E-11	-5.064973E+10	19.142424	0.587467	0	0
0	0	0	-0.238283	6.371054	-23.647751	6.371054	42948.25	-2.309576E-11	-4.329799E+10	19.086644	0.586477	0	0
0	0	0	-0.23861	6.371194	-23.6487	6.371194	42942.5	-1.957994E-11	-5.107267E+10	19.214494	0.584182	0	0
0	0	0	-0.237344	6.371237	-23.647172	6.371237	42964.625	-1.873507E-11	-5.337584E+10	19.036398	0.584974	0	0
0	0	0	-0.239223	6.371173	-23.649436	6.371173	42931.875	-2.003218E-11	-4.991969E+10	19.265733	0.5807	0	0
0	0	0	-0.239304	6.371089	-23.649236	6.371089	42930.5	-2.209522E-11	-4.525865E+10	18.989995	0.583549	0	0
0	0	0	-0.238569	6.371061	-23.648156	6.371061	42943.25	-2.288777E-11	-4.369146E+10	19.298684	0.578009	0	0
0	0	0	-0.238937	6.371005	-23.648439	6.371005	42936.875	-2.463662E-11	-4.058999E+10	18.941439	0.582243	0	0
0	0	0	-0.236364	6.371096	-23.645356	6.371096	42981.625	-2.193324E-11	-4.559291E+10	19.29807	0.575476	0	0
0	0	0	-0.236936	6.371054	-23.645961	6.371054	42971.75	-2.31084E-11	-4.327431E+10	18.90634	0.580265	0	0
0	0	0	-0.237467	6.370858	-23.645946	6.370858	42962.5	-3.085254E-11	-3.241224E+10	19.289374	0.573063	0	0
0	0	0	-0.23812	6.370928	-23.647071	6.370928	42951.125	-2.75448E-11	-3.630449E+10	18.92693	0.577969	0	0
0	0	0	-0.238038	6.371258	-23.648172	6.371258	42952.5	-1.83298E-11	-5.455597E+10	19.264352	0.571361	0	0
0	0	0	-0.237712	6.371251	-23.647712	6.371251	42958.25	-1.846369E-11	-5.416036E+10	18.923797	0.575872	0	0
0	0	0	-0.235466	6.371131	-23.644291	6.371131	42997.375	-2.104556E-11	-4.751595E+10	19.213221	0.569699	0	0
0	0	0	-0.237303	6.370858	-23.645729	6.370858	42965.375	-3.08546E-11	-3.241007E+10	18.95859	0.572983	0	0
0	0	0	-0.235792	6.371026	-23.644339	6.371026	42991.625	-2.397949E-11	-4.17023E+10	19.188619	0.56772	0	0
0	0	0	-0.235343	6.371145	-23.64418	6.371145	42999.5	-2.070845E-11	-4.828946E+10	19.035061	0.569739	0	0
0	0	0	-0.234649	6.371173	-23.643361	6.371173	43011.5	-2.006933E-11	-4.982728E+10	19.107747	0.566889	0	0
0	0	0	-0.234036	6.371272	-23.642907	6.371272	43022.25	-1.810185E-11	-5.524297E+10	19.069447	0.566652	0	0
0	0	0	-0.233301	6.371103	-23.641313	6.371103	43035	-2.177512E-11	-4.592397E+10	19.008845	0.565781	0	0
0	0	0	-0.23322	6.371033	-23.640948	6.371033	43036.5	-2.378324E-11	-4.204641E+10	19.103199	0.563763	0	0
0	0	0	-0.232852	6.371054	-23.640537	6.371054	43042.875	-2.314665E-11	-4.32028E+10	18.957895	0.564317	0	0
0	0	0	-0.231749	6.37104	-23.639021	6.37104	43062.125	-2.358004E-11	-4.240876E+10	19.160296	0.560558	0	0
0	0	0	-0.230688	6.370998	-23.637456	6.370998	43080.75	-2.495805E-11	-4.006723E+10	18.910887	0.56313	0	0
0	0	0	-0.232362	6.370991	-23.639654	6.370991	43051.5	-2.518448E-11	-3.9707E+10	19.186091	0.558104	0	0
0	0	0	-0.232035	6.370935	-23.639014	6.370935	43057.125	-2.732052E-11	-3.660253E+10	18.856294	0.561864	0	0
0	0	0	-0.231954	6.371103	-23.639523	6.371103	43058.625	-2.178707E-11	-4.589877E+10	19.235054	0.555057	0	0
0	0	0	-0.231627	6.370956	-23.638549	6.370956	43064.25	-2.64841E-11	-3.775851E+10	18.850904	0.559766	0	0
0	0	0	-0.231586	6.371075	-23.638932	6.371075	43065	-2.255167E-11	-4.434262E+10	19.25046	0.552723	0	0
0	0	0	-0.233015	6.371166	-23.641165	6.371166	43040	-2.024016E-11	-4.940672E+10	18.828976	0.558263	0	0
0	0	0	-0.232117	6.371096	-23.639715	6.371096	43055.75	-2.197106E-11	-4.551442E+10	19.222231	0.550863	0	0
0	0	0	-0.232525	6.371131	-23.640386	6.371131	43048.625	-2.107065E-11	-4.745938E+10	18.819918	0.555968	0	0
0	0	0	-0.233628	6.371124	-23.641825	6.371124	43029.375	-2.12346E-11	-4.709296E+10	19.184614	0.548963	0	0
0	0	0	-0.233832	6.370921	-23.64135	6.370921	43025.875	-2.78911E-11	-3.585373E+10	18.891339	0.553158	0	0
0	0	0	-0.234036	6.371117	-23.642341	6.371117	43022.25	-2.14073E-11	-4.671303E+10	19.159712	0.547301	0	0
0	0	0	-0.234486	6.370886	-23.642089	6.370886	43014.375	-2.947736E-11	-3.392434E+10	18.923498	0.550428	0	0
0	0	0	-0.233995	6.370893	-23.641464	6.370893	43023	-2.915005E-11	-3.430525E+10	19.077582	0.546352	0	0
0	0	0	-0.236936	6.370907	-23.645421	6.370907	42971.75	-2.847176E-11	-3.512253E+10	18.967343	0.547618	0	0
0	0	0	-0.235098	6.371096	-23.643674	6.371096	43003.75	-2.194453E-11	-4.556945E+10	18.999559	0.545244	0	0
0	0	0	-0.238978	6.371173	-23.649111	6.371173	42936.125	-2.003416E-11	-4.991475E+10	19.04563	0.544254	0	0
0	0	0	-0.238365	6.371124	-23.648117	6.371124	42946.875	-2.119389E-11	-4.718342E+10	18.957044	0.543779	0	0
0	0	0	-0.237589	6.370977	-23.646546	6.370977	42960.375	-2.563139E-11	-3.901465E+10	19.092365	0.541484	0	0
0	0	0	-0.239917	6.371229	-23.650564	6.371229	42919.75	-1.885263E-11	-5.304299E+10	18.878615	0.542869	0	0
0	0	0	-0.239794	6.371356	-23.650864	6.371356	42921.875	-1.665675E-11	-6.003573E+10	19.112297	0.538675	0	0
0	0	0	-0.239182	6.371265	-23.649716	6.371265	42932.625	-1.819182E-11	-5.496976E+10	18.818433	0.541563	0	0
0	0	0	-0.239753	6.370998	-23.649498	6.370998	42922.625	-2.486644E-11	-4.021484E+10	19.161651	0.535628	0	0
0	0	0	-0.239958	6.371328	-23.650978	6.371328	42919.125	-1.709842E-11	-5.848495E+10	18.790771	0.54006	0	0
0	0	0	-0.238161	6.371173	-23.648026	6.371173	42950.375	-2.004081E-11	-4.989819E+10	19.173126	0.533214	0	0
0	0	0	-0.239263	6.371258	-23.649799	6.371258	42931.25	-1.832073E-11	-5.458297E+10	18.758753	0.538437	0	0
0	0	0	-0.239141	6.371138	-23.649199	6.371138	42933.25	-2.084399E-11	-4.797545E+10	19.155366	0.531235	0	0
0	0	0	-0.238733	6.371237	-23.649017	6.371237	42940.375	-1.872449E-11	-5.340598E+10	18.757249	0.536459	0	0
0	0	0	-0.239223	6.371068	-23.64905	6.371068	42931.875	-2.268007E-11	-4.409158E+10	19.131261	0.529415	0	0
0	0	0	-0.240243	6.370921	-23.649866	6.370921	42914.125	-2.781866E-11	-3.594709E+10	18.798035	0.533649	0	0
0	0	0	-0.239182	6.371096	-23.649099	6.371096	42932.625	-2.190823E-11	-4.564495E+10	19.100899	0.527792	0	0
0	0	0	-0.238978	6.370907	-23.648133	6.370907	42936.125	-2.844815E-11	-3.515167E+10	18.808174	0.531275	0	0
0	0	0	-0.240121	6.371019	-23.650063	6.371019	42916.25	-2.416226E-11	-4.138686E+10	19.028719	0.526407	0	0
0	0	0	-0.241142	6.371124	-23.651805	6.371124	42898.5	-2.117001E-11	-4.723663E+10	18.837855	0.528703	0	0
0	0	0	-0.237997	6.370942	-23.64696	6.370942	42953.25	-2.696916E-11	-3.707939E+10	18.966152	0.52522	0	0
0	0	0	-0.237834	6.371201	-23.647695	6.371201	42956	-1.943826E-11	-5.144494E+10	18.908261	0.525695	0	0
0	0	0	-0.236446	6.371047	-23.645284	6.371047	42980.25	-2.332218E-11	-4.287765E+10	18.894882	0.52435	0	0
0	0	0	-0.238447	6.371082	-23.648071	6.371082	42945.375	-2.229428E-11	-4.485456E+10	18.952641	0.522925	0	0
0	0	0	-0.23714	6.371173	-23.64667	6.371173	42968.125	-2.004909E-11	-4.987757E+10	18.824317	0.523202	0	0
0	0	0	-0.237385	6.371159	-23.646944	6.371159	42963.875	-2.036411E-11	-4.910601E+10	19.019427	0.519997	0	0
0	0	0	-0.235792	6.37118	-23.644905	6.37118	42991.625	-1.990513E-11	-5.023831E+10	18.782157	0.522055	0	0
0	0	0	-0.235547	6.370921	-23.643628	6.370921	42995.875	-2.787166E-11	-3.587874E+10	19.055291	0.517464	0	0
0	0	0	-0.233791	6.370998	-23.641578	6.370998	43026.5	-2.492662E-11	-4.011775E+10	18.733222	0.520828	0	0
0	0	0	-0.234486	6.37111	-23.642912	6.37111	43014.375	-2.158252E-11	-4.633379E+10	19.076312	0.514932	0	0
0	0	0	-0.2342	6.371068	-23.642378	6.371068	43019.375	-2.272629E-11	-4.40019E+10	18.695523	0.519522	0	0
0	0	0	-0.23322	6.371103	-23.641205	6.371103	43036.5	-2.177588E-11	-4.592237E+10	0	0	0	0
0	0	0	-0.23375	6.371215	-23.642322	6.371215	43027.25	-1.918093E-11	-5.213511E+10	0	0	0	0
0	0	0	-0.233995	6.370998	-23.64185	6.370998	43023	-2.492459E-11	-4.012102E+10	0	0	0	0
0	0	0	-0.23179	6.3709	-23.63856	6.3709	43061.5	-2.885008E-11	-3.466195E+10	0	0	0	0
0	0	0	-0.232362	6.370879	-23.639243	6.370879	43051.5	-2.984396E-11	-3.350762E+10	0	0	0	0
0	0	0	-0.232934	6.371138	-23.640954	6.371138	43041.5	-2.089655E-11	-4.785479E+10	0	0	0	0
0	0	0	-0.232648	6.371145	-23.6406	6.371145	43046.5	-2.073109E-11	-4.823674E+10	0	0	0	0
0	0	0	-0.232934	6.371012	-23.640491	6.371012	43041.5	-2.446251E-11	-4.087887E+10	0	0	0	0
0	0	0	-0.23228	6.370816	-23.638902	6.370816	43052.875	-3.331167E-11	-3.001951E+10	0	0	0	0
0	0	0	-0.233424	6.370893	-23.640704	6.370893	43033	-2.915683E-11	-3.429728E+10	0	0	0	0
0	0	0	-0.23469	6.371082	-23.64308	6.371082	43010.875	-2.232828E-11	-4.478625E+10	0	0	0	0
0	0	0	-0.233383	6.370893	-23.64065	6.370893	43033.625	-2.915725E-11	-3.429678E+10	0	0	0	0
0	0	0	-0.234486	6.371215	-23.643298	6.371215	43014.375	-1.917519E-11	-5.215072E+10	0	0	0	0
0	0	0	-0.234608	6.371068	-23.642921	6.371068	43012.25	-2.272253E-11	-4.400919E+10	0	0	0	0
0	0	0	-0.234404	6.371124	-23.642855	6.371124	43015.875	-2.122794E-11	-4.710773E+10	0	0	0	0
0	0	0	-0.235711	6.371054	-23.644334	6.371054	42993	-2.311983E-11	-4.325292E+10	0	0	0	0
0	0	0	-0.236527	6.371215	-23.64601	6.371215	42978.875	-1.915937E-11	-5.219379E+10	0	0	0	0
0	0	0	-0.237752	6.370753	-23.64594	6.370753	42957.5	-3.760617E-11	-2.659138E+10	0	0	0	0
0	0	0	-0.238038	6.371117	-23.647657	6.371117	42952.5	-2.13726E-11	-4.678889E+10	0	0	0	0
0	0	0	-0.238692	6.371194	-23.648808	6.371194	42941.125	-1.957932E-11	-5.107431E+10	0	0	0	0
0	0	0	-0.237997	6.371286	-23.64822	6.371286	42953.25	-1.782264E-11	-5.61084E+10	0	0	0	0
0	0	0	-0.239958	6.371244	-23.65067	6.371244	42919.125	-1.858008E-11	-5.382108E+10	0	0	0	0
0	0	0	-0.241101	6.371131	-23.651777	6.371131	42899.125	-2.099747E-11	-4.762478E+10	0	0	0	0
0	0	0	-0.240815	6.371019	-23.650985	6.371019	42904.125	-2.415543E-11	-4.139856E+10	0	0	0	0
0	0	0	-0.241019	6.37137	-23.652543	6.37137	42900.625	-1.643571E-11	-6.084311E+10	0	0	0	0
0	0	0	-0.241101	6.371328	-23.652497	6.371328	42899.125	-1.709045E-11	-5.851222E+10	0	0	0	0
0	0	0	-0.240774	6.371082	-23.651163	6.371082	42904.875	-2.227325E-11	-4.48969E+10	0	0	0	0
0	0	0	-0.241019	6.371103	-23.651565	6.371103	42900.625	-2.170713E-11	-4.606782E+10	0	0	0	0
0	0	0	-0.240938	6.371222	-23.651894	6.371222	42902	-1.898393E-11	-5.267613E+10	0	0	0	0
0	0	0	-0.240734	6.371061	-23.651031	6.371061	42905.625	-2.286771E-11	-4.372978E+10	0	0	0	0
0	0	0	-0.242122	6.371145	-23.653184	6.371145	42881.5	-2.065162E-11	-4.842234E+10	0	0	0	0
0	0	0	-0.240529	6.371215	-23.651326	6.371215	42909.125	-1.912827E-11	-5.227864E+10	0	0	0	0
0	0	0	-0.239794	6.371215	-23.65035	6.371215	42921.875	-1.913396E-11	-5.226311E+10	0	0	0	0
0	0	0	-0.241836	6.371068	-23.652522	6.371068	42886.5	-2.26561E-11	-4.413823E+10	0	0	0	0
0	0	0	-0.239386	6.371194	-23.64973	6.371194	42929	-1.957379E-11	-5.108873E+10	0	0	0	0
0	0	0	-0.23959	6.371096	-23.649641	6.371096	42925.5	-2.190459E-11	-4.565252E+10	0	0	0	0
0	0	0	-0.239876	6.371012	-23.649712	6.371012	42920.5	-2.439374E-11	-4.099412E+10	0	0	0	0
0	0	0	-0.237957	6.370949	-23.646931	6.370949	42953.875	-2.669002E-11	-3.746719E+10	0	0	0	0
0	0	0	-0.237916	6.371187	-23.647752	6.371187	42954.625	-1.973558E-11	-5.066992E+10	0	0	0	0
0	0	0	-0.238651	6.371005	-23.648059	6.371005	42941.875	-2.463949E-11	-4.058526E+10	0	0	0	0
0	0	0	-0.236609	6.371089	-23.645656	6.371089	42977.375	-2.211935E-11	-4.520929E+10	0	0	0	0
0	0	0	-0.237507	6.370956	-23.64636	6.370956	42961.75	-2.642106E-11	-3.784859E+10	0	0	0	0
0	0	0	-0.23567	6.37104	-23.644228	6.37104	42993.75	-2.35426E-11	-4.24762E+10	0	0	0	0
0	0	0	-0.235751	6.370872	-23.643719	6.370872	42992.375	-3.015163E-11	-3.316571E+10	0	0	0	0
0	0	0	-0.233955	6.371082	-23.642104	6.371082	43023.625	-2.23349E-11	-4.477298E+10	0	0	0	0
0	0	0	-0.235874	6.371131	-23.644834	6.371131	42990.25	-2.104208E-11	-4.752383E+10	0	0	0	0
0	0	0	-0.234159	6.3713	-23.643173	6.3713	43020.125	-1.760667E-11	-5.679667E+10	0	0	0	0
0	0	0	-0.233546	6.371131	-23.641742	6.371131	43030.75	-2.10619E-11	-4.74791E+10	0	0	0	0
0	0	0	-0.233791	6.371089	-23.641913	6.371089	43026.5	-2.214463E-11	-4.515767E+10	0	0	0	0
0	0	0	-0.233097	6.371026	-23.640759	6.371026	43038.625	-2.400571E-11	-4.165676E+10	0	0	0	0
0	0	0	-0.233383	6.370977	-23.640959	6.370977	43033.625	-2.56751E-11	-3.894825E+10	0	0	0	0
0	0	0	-0.232117	6.370991	-23.639329	6.370991	43055.75	-2.518697E-11	-3.970308E+10	0	0	0	0
0	0	0	-0.23469	6.371061	-23.643003	6.371061	43010.875	-2.292381E-11	-4.362277E+10	0	0	0	0
0	0	0	-0.231627	6.371026	-23.638806	6.371026	43064.25	-2.402E-11	-4.163197E+10	0	0	0	0
0	0	0	-0.233424	6.371026	-23.641193	6.371026	43033	-2.400257E-11	-4.16622E+10	0	0	0	0
0	0	0	-0.234322	6.37097	-23.642181	6.37097	43017.25	-2.592332E-11	-3.85753E+10	0	0	0	0
0	0	0	-0.233465	6.370998	-23.641144	6.370998	43032.25	-2.492995E-11	-4.011239E+10	0	0	0	0
0	0	0	-0.234894	6.370865	-23.642554	6.370865	43007.25	-3.051909E-11	-3.276638E+10	0	0	0	0
0	0	0	-0.234281	6.371229	-23.643078	6.371229	43018	-1.889579E-11	-5.292185E+10	0	0	0	0
0	0	0	-0.237017	6.37083	-23.645246	6.37083	42970.25	-3.24111E-11	-3.085362E+10	0	0	0	0
0	0	0	-0.235751	6.370977	-23.644105	6.370977	42992.375	-2.565049E-11	-3.898561E+10	0	0	0	0
0	0	0	-0.234812	6.371131	-23.643423	6.371131	43008.75	-2.105113E-11	-4.750338E+10	0	0	0	0
0	0	0	-0.236977	6.370956	-23.645655	6.370956	42971	-2.642675E-11	-3.784045E+10	0	0	0	0
0	0	0	-0.236364	6.371054	-23.645202	6.371054	42981.625	-2.311371E-11	-4.326436E+10	0	0	0	0
0	0	0	-0.238528	6.371005	-23.647896	6.371005	42944	-2.464071E-11	-4.058325E+10	0	0	0	0
0	0	0	-0.239304	6.370935	-23.64867	6.370935	42930.5	-2.724017E-11	-3.671049E+10	0	0	0	0
0	0	0	-0.24008	6.370865	-23.649443	6.370865	42917	-3.045505E-11	-3.283528E+10	0	0	0	0
0	0	0	-0.239998	6.371138	-23.650338	6.371138	42918.375	-2.083677E-11	-4.799208E+10	0	0	0	0
0	0	0	-0.239508	6.371244	-23.650073	6.371244	42926.875	-1.858344E-11	-5.381136E+10	0	0	0	0
0	0	0	-0.24008	6.371321	-23.651115	6.371321	42917	-1.721195E-11	-5.809917E+10	0	0	0	0
0	0	0	-0.239508	6.371033	-23.649301	6.371033	42926.875	-2.372266E-11	-4.215379E+10	0	0	0	0
0	0	0	-0.241509	6.371117	-23.652268	6.371117	42892.125	-2.134255E-11	-4.685475E+10	0	0	0	0
0	0	0	-0.240815	6.37097	-23.650805	6.37097	42904.125	-2.585515E-11	-3.867701E+10	0	0	0	0
0	0	0	-0.241387	6.371103	-23.652054	6.371103	42894.25	-2.17039E-11	-4.607466E+10	0	0	0	0
0	0	0	-0.241183	6.371377	-23.652786	6.371377	42897.75	-1.633025E-11	-6.123604E+10	0	0	0	0
0	0	0	-0.241632	6.371222	-23.652817	6.371222	42890	-1.897862E-11	-5.269087E+10	0	0	0	0
0	0	0	-0.239876	0	-0.239876	0	42920.5	0	0	0	0	0	0
0	0	0	-0.241754	0	-0.241754	0	42887.875	0	0	0	0	0	0
