Vload_(V)	ILoad_(A)	RsLoad (ohm)	SunsVoc_Voltage_(V)	SunsVoc_Current_(A)	Model_Voltage_(V)	Model_Current_(A)	Carrier_Density_(cm-3)	Lifetime_(s)	Inverse_Lifetime_(s-1)	Efficiency_(%)	Intensity_(suns)	Dark_IV_Voltage_(V)	Dark_IV_Current_(A)
2.931421	6.002793	0	51.623489	-0.064373	51.65408	-0.064373	6.756917E+15	0.000495	1942.713492	19.385882	1.093856	0	0
2.925589	6.00264	3.0277	52.207289	-0.35797	52.367427	-0.35797	8.344862E+15	0.000584	1597.894557	19.428765	1.090175	0	0
3.578261	6.00403	-0.614792	52.362835	-0.247078	52.471532	-0.247078	8.816836E+15	0.000628	1464.450486	19.320941	1.088566	0	0
6.887136	6.0001	3.80029	52.343887	0.066883	52.314403	0.066883	8.758173E+15	0.000656	1396.250172	19.148046	1.08788	0	0
10.701971	5.98836	4.299957	52.259437	0.44255	52.062563	0.44255	8.500679E+15	0.00068	1350.434289	19.119231	1.085994	0	0
14.037324	5.98594	3.840269	52.145789	0.793954	51.788283	0.793954	8.164179E+15	0.000697	1323.589849	19.108989	1.084794	0	0
17.649827	5.982607	3.348552	52.02528	1.115171	51.516723	1.115171	7.819592E+15	0.000712	1303.591993	19.009621	1.085862	0	0
21.294151	5.972485	2.986611	51.906405	1.416273	51.252502	1.416273	7.491645E+15	0.000727	1283.085127	19.037308	1.082551	0	0
24.961477	5.969449	2.42783	51.782629	1.708484	50.983721	1.708484	7.162432E+15	0.000742	1262.639149	19.089473	1.077829	0	0
28.535651	5.966081	1.884774	51.648399	1.985472	50.707252	1.985472	6.819102E+15	0.000755	1247.155264	18.996696	1.075204	0	0
32.163723	5.961602	1.342338	51.52152	2.238858	50.44671	2.238858	6.507252E+15	0.000769	1229.987159	18.947734	1.070917	0	0
35.725096	5.943387	0.949243	51.395335	2.469102	50.195125	2.469102	6.208939E+15	0.000782	1215.395698	18.974558	1.064955	0	0
36.788531	5.927874	0.894977	51.273111	2.683402	49.953084	2.683402	5.930892E+15	0.000795	1199.7526	18.891344	1.06295	0	0
37.839684	5.906518	0.849364	51.144435	2.888325	49.705868	2.888325	5.649399E+15	0.000807	1186.311737	18.82635	1.06047	0	0
38.902078	5.868035	0.837416	51.021272	3.073389	49.472471	3.073389	5.390423E+15	0.000819	1173.419999	18.925129	1.054218	0	0
39.954094	5.819274	0.808316	50.894148	3.250445	49.236406	3.250445	5.133513E+15	0.00083	1161.513735	18.914952	1.049443	0	0
41.019128	5.754025	0.770127	50.772863	3.418715	49.009519	3.418715	4.897943E+15	0.000843	1146.174284	18.821594	1.045406	0	0
42.060368	5.663842	0.735578	50.6497	3.576898	48.783747	3.576898	4.667966E+15	0.000856	1132.07985	18.852512	1.038653	0	0
43.11946	5.540126	0.697215	50.5218	3.725394	48.555648	3.725394	4.438695E+15	0.000867	1120.68358	18.868696	1.032744	0	0
44.171253	5.364423	0.664089	50.398677	3.854596	48.341692	3.854596	4.226898E+15	0.000875	1112.809747	18.757515	1.029934	0	0
45.186303	5.140035	0.628263	50.277474	3.973983	48.133798	3.973983	4.026673E+15	0.000883	1105.711557	18.80139	1.02417	0	0
46.196451	4.80042	0.614372	50.155087	4.087819	47.926134	4.087819	3.832563E+15	0.00089	1098.838682	18.849174	1.018089	0	0
47.155125	4.377684	0.603102	50.036457	4.196647	47.72441	4.196647	3.651917E+15	0.000899	1089.654184	18.770233	1.014475	0	0
48.110565	3.82128	0.601394	49.909414	4.299731	47.514512	4.299731	3.466399E+15	0.000905	1084.498194	18.769279	1.008275	0	0
49.009624	3.185186	0.602654	49.78866	4.392921	47.316543	4.392921	3.297437E+15	0.000911	1079.456107	18.84482	1.000756	0	0
49.884248	2.443916	0.628773	49.670316	4.479413	47.124232	4.479413	3.1386E+15	0.000917	1074.746776	18.760167	0.996601	0	0
50.659013	1.699119	0.67124	49.553319	4.561198	46.935287	4.561198	2.987941E+15	0.000922	1069.763295	18.734246	0.991589	0	0
51.320458	1.000652	0.709763	49.431381	4.641094	46.740489	4.641094	2.83745E+15	0.000927	1065.445047	18.808905	0.984215	0	0
42.754193	5.588287	0.70926	49.312016	4.713871	46.552081	4.713871	2.696385E+15	0.000931	1062.505686	18.773272	0.979585	0	0
52.163879	0	0	49.192977	4.783371	46.365183	4.783371	2.56167E+15	0.000934	1059.202656	18.700666	0.975246	0	0
0	0	0	49.070916	4.849513	46.175778	4.849513	2.429518E+15	0.000937	1057.30537	18.794697	0.967147	0	0
0	0	0	48.954818	4.909663	45.996574	4.909663	2.309259E+15	0.00094	1055.269264	18.769695	0.961725	0	0
0	0	0	48.831246	4.969546	45.807621	4.969546	2.186891E+15	0.000942	1054.16927	18.687401	0.957504	0	0
0	0	0	48.713188	5.022958	45.628771	5.022958	2.075224E+15	0.000942	1054.253008	18.735026	0.950236	0	0
0	0	0	48.596314	5.0735	45.452569	5.0735	1.969553E+15	0.000943	1054.222521	18.762053	0.944287	0	0
0	0	0	48.47266	5.123702	45.26758	5.123702	1.862851E+15	0.000943	1055.074128	18.669412	0.940911	0	0
0	0	0	48.360605	5.167896	45.100249	5.167896	1.770529E+15	0.000943	1054.83416	18.734418	0.933933	0	0
0	0	0	48.238258	5.212216	44.919515	5.212216	1.674307E+15	0.000942	1056.799113	18.769988	0.927483	0	0
0	0	0	48.119465	5.252002	44.745621	5.252002	1.58529E+15	0.000939	1060.466429	18.671074	0.923578	0	0
0	0	0	48.004142	5.289128	44.577347	5.289128	1.50288E+15	0.000937	1063.736682	18.685769	0.917168	0	0
0	0	0	47.882082	5.325565	44.400663	5.325565	1.419794E+15	0.000933	1068.916559	18.754795	0.910084	0	0
0	0	0	47.769985	5.357978	44.238721	5.357978	1.347102E+15	0.000929	1073.022926	18.658302	0.906853	0	0
0	0	0	47.648864	5.390832	44.064793	5.390832	1.272295E+15	0.000925	1078.566284	18.670349	0.90097	0	0
0	0	0	47.529866	5.42121	43.894819	5.42121	1.202436E+15	0.00092	1084.881087	18.743822	0.893939	0	0
0	0	0	47.414952	5.449415	43.731114	5.449415	1.138258E+15	0.000915	1090.729154	18.661741	0.889889	0	0
0	0	0	47.294566	5.476567	43.560916	5.476567	1.074348E+15	0.000908	1099.163679	18.641984	0.88456	0	0
0	0	0	47.182143	5.501376	43.40207	5.501376	1.017613E+15	0.000903	1105.946086	18.723887	0.877002	0	0
0	0	0	47.063553	5.526033	43.235271	5.526033	9.607241E+14	0.000896	1114.028627	18.644282	0.873071	0	0
0	0	0	46.947495	5.548109	43.073197	5.548109	9.078698E+14	0.000888	1124.474818	18.607404	0.867927	0	0
0	0	0	46.832785	5.569909	42.912779	5.569909	8.582547E+14	0.000882	1132.604132	18.688844	0.860844	0	0
0	0	0	46.713053	5.590934	42.74631	5.590934	8.091314E+14	0.000874	1143.163841	18.632925	0.856464	0	0
0	0	0	46.601365	5.609675	42.591432	5.609675	7.656564E+14	0.000866	1153.226399	18.578369	0.852309	0	0
0	0	0	46.48057	5.628753	42.424559	5.628753	7.210739E+14	0.000858	1165.221117	18.67285	0.844949	0	0
0	0	0	46.366963	5.645392	42.268361	5.645392	6.813527E+14	0.000848	1178.397662	18.630874	0.840847	0	0
0	0	0	46.252783	5.661762	42.111452	5.661762	6.434911E+14	0.000839	1190.670703	18.55252	0.836837	0	0
0	0	0	46.134847	5.677484	41.950069	5.677484	6.064526E+14	0.000829	1205.231932	18.630787	0.830136	0	0
0	0	0	46.02222	5.692092	41.796087	5.692092	5.729536E+14	0.00082	1218.486718	18.59296	0.825572	0	0
0	0	0	45.902242	5.70676	41.63255	5.70676	5.39185E+14	0.00081	1233.740336	18.507801	0.822538	0	0
0	0	0	45.788022	5.719356	41.477737	5.719356	5.08787E+14	0.000799	1251.882202	18.601225	0.815508	0	0
0	0	0	45.671475	5.732502	41.319405	5.732502	4.794436E+14	0.000789	1266.93434	18.602025	0.811115	0	0
0	0	0	45.552722	5.744579	41.158935	5.744579	4.511989E+14	0.000777	1286.142123	18.504229	0.807949	0	0
0	0	0	45.437318	5.756249	41.00291	5.756249	4.252708E+14	0.000767	1302.928954	18.585408	0.801433	0	0
0	0	0	45.317462	5.76731	40.841552	5.76731	3.998483E+14	0.000755	1323.638194	18.583185	0.796856	0	0
0	0	0	45.202221	5.777578	40.686574	5.777578	3.767779E+14	0.000744	1343.46433	18.476709	0.794324	0	0
0	0	0	45.080733	5.78785	40.523508	5.78785	3.538387E+14	0.000732	1365.347869	18.545897	0.787953	0	0
0	0	0	44.96055	5.797502	40.362482	5.797502	3.324682E+14	0.00072	1387.88808	18.556128	0.783534	0	0
0	0	0	44.845024	5.80637	40.207916	5.80637	3.130993E+14	0.000709	1410.101961	18.441534	0.781001	0	0
0	0	0	44.723576	5.815142	40.045766	5.815142	2.939114E+14	0.000697	1435.099526	18.515821	0.775026	0	0
0	0	0	44.604864	5.823275	39.887529	5.823275	2.76256E+14	0.000685	1460.660531	18.532516	0.77	0	0
0	0	0	44.48656	5.830902	39.730134	5.830902	2.596843E+14	0.000672	1487.870979	18.4211	0.767758	0	0
0	0	0	44.362499	5.838751	39.565108	5.838751	2.43342E+14	0.00066	1515.309009	18.479268	0.761888	0	0
0	0	0	44.246931	5.845936	39.411403	5.845936	2.2902E+14	0.000649	1539.564432	18.50388	0.757205	0	0
0	0	0	44.121889	5.852808	39.245758	5.852808	2.144473E+14	0.000636	1572.15875	18.376589	0.754963	0	0
0	0	0	44.001217	5.859147	39.086071	5.859147	2.012424E+14	0.000623	1604.526296	18.43477	0.749212	0	0
0	0	0	43.883485	5.865221	38.930296	5.865221	1.891253E+14	0.000612	1635.136597	18.461682	0.744384	0	0
0	0	0	43.757872	5.871247	38.764406	5.871247	1.769831E+14	0.000598	1670.796039	18.34772	0.742168	0	0
0	0	0	43.636873	5.877027	38.604562	5.877027	1.660098E+14	0.000587	1702.980639	18.406109	0.736602	0	0
0	0	0	43.512444	5.882401	38.440608	5.882401	1.55421E+14	0.000574	1741.277165	18.445759	0.731563	0	0
0	0	0	43.388383	5.887647	38.277173	5.887647	1.455238E+14	0.000562	1778.670844	18.306375	0.729597	0	0
0	0	0	43.261462	5.892713	38.110171	5.892713	1.360396E+14	0.00055	1818.97556	18.36021	0.724057	0	0
0	0	0	43.138013	5.897269	37.948003	5.897269	1.273987E+14	0.000537	1861.960686	18.369979	0.719361	0	0
0	0	0	43.013911	5.901848	37.784925	5.901848	1.19257E+14	0.000526	1902.771321	18.247743	0.717304	0	0
0	0	0	42.883847	5.906058	37.614479	5.906058	1.112742E+14	0.000512	1954.231369	18.303853	0.711948	0	0
0	0	0	42.758111	5.90968	37.450058	5.90968	1.040588E+14	0.000497	2011.483379	18.326808	0.707107	0	0
0	0	0	42.631068	5.913545	37.283699	5.913545	9.723777E+13	0.000485	2063.244847	18.188927	0.705248	0	0
0	0	0	42.503985	5.917563	37.117101	5.917563	9.085672E+13	0.000474	2108.737403	18.246812	0.699457	0	0
0	0	0	42.374655	5.921115	36.948001	5.921115	8.478805E+13	0.000462	2165.510215	18.251981	0.695144	0	0
0	0	0	42.232054	5.924559	36.761933	5.924559	7.856073E+13	0.000447	2238.607931	18.130844	0.693046	0	0
0	0	0	42.102806	5.927786	36.593151	5.927786	7.330893E+13	0.000435	2300.017579	18.198142	0.687599	0	0
0	0	0	41.973027	5.931008	36.423652	5.931008	6.838571E+13	0.000424	2359.703601	18.203998	0.683219	0	0
0	0	0	41.843249	5.933925	36.254401	5.933925	6.379043E+13	0.000412	2426.883169	18.064109	0.681452	0	0
0	0	0	41.704976	5.936689	36.074358	5.936689	5.923109E+13	0.000399	2508.792848	18.144727	0.675503	0	0
0	0	0	41.57291	5.939432	35.902266	5.939432	5.517886E+13	0.000387	2581.294705	18.119084	0.671677	0	0
0	0	0	41.441539	5.941832	35.731359	5.941832	5.142121E+13	0.000375	2665.007581	18.003471	0.669409	0	0
0	0	0	41.312332	5.94476	35.56269	5.94476	4.797363E+13	0.000368	2719.312278	18.086779	0.663908	0	0
0	0	0	41.177408	5.946965	35.387349	5.946965	4.461856E+13	0.000356	2812.698119	18.06529	0.66007	0	0
0	0	0	41.043954	5.949329	35.213712	5.949329	4.152969E+13	0.000346	2893.944827	17.941889	0.658263	0	0
0	0	0	40.910949	5.951262	35.041046	5.951262	3.866293E+13	0.000334	2996.148017	18.036727	0.652155	0	0
0	0	0	40.775576	5.953473	34.865039	5.953473	3.594731E+13	0.000324	3084.232175	17.972781	0.649122	0	0
0	0	0	40.641836	5.955366	34.691418	5.955366	3.345101E+13	0.000314	3187.199194	17.883425	0.646602	0	0
0	0	0	40.500174	5.95719	34.507667	5.95719	3.099487E+13	0.000302	3307.411496	17.96359	0.640957	0	0
0	0	0	40.366393	5.958967	34.334064	5.958967	2.884057E+13	0.000293	3415.997801	17.898059	0.637923	0	0
0	0	0	40.228162	5.96106	34.154397	5.96106	2.677121E+13	0.000285	3504.28768	17.803728	0.635614	0	0
0	0	0	40.092012	5.962445	33.978104	5.962445	2.487775E+13	0.000274	3645.845	17.909276	0.629771	0	0
0	0	0	39.952719	5.964273	33.797297	5.964273	2.307867E+13	0.000267	3751.9765	17.800399	0.627766	0	0
0	0	0	39.81706	5.96571	33.621542	5.96571	2.145132E+13	0.000257	3886.086947	17.737764	0.624745	0	0
0	0	0	39.674213	5.967477	33.436189	5.967477	1.986131E+13	0.00025	3997.197777	17.839106	0.619192	0	0
0	0	0	39.539003	5.968771	33.26112	5.968771	1.846476E+13	0.000241	4141.950475	17.73865	0.617279	0	0
0	0	0	39.395218	5.970258	33.074812	5.970258	1.708697E+13	0.000234	4280.279439	17.687736	0.614417	0	0
0	0	0	39.255107	5.971348	32.893628	5.971348	1.584315E+13	0.000224	4461.606192	17.791216	0.608745	0	0
0	0	0	39.110546	5.972753	32.706374	5.972753	1.465447E+13	0.000217	4608.059385	17.647882	0.607584	0	0
0	0	0	38.968475	5.973837	32.522648	5.973837	1.357305E+13	0.000209	4795.70322	17.634933	0.603786	0	0
0	0	0	38.821586	5.975248	32.332358	5.975248	1.253865E+13	0.000202	4938.312222	17.706863	0.598905	0	0
0	0	0	38.677229	5.976244	32.145756	5.976244	1.15988E+13	0.000194	5145.366061	17.551887	0.597823	0	0
0	0	0	38.528869	5.977245	31.953992	5.977245	1.070615E+13	0.000186	5364.18762	17.580063	0.593734	0	0
0	0	0	38.381653	5.978285	31.763641	5.978285	9.888207E+12	0.000179	5571.498311	17.627193	0.589144	0	0
0	0	0	38.230599	5.979275	31.568397	5.979275	9.113774E+12	0.000172	5800.805353	17.459159	0.588379	0	0
0	0	0	38.078973	5.980318	31.372343	5.980318	8.397335E+12	0.000166	6016.37042	17.520528	0.583459	0	0
0	0	0	37.929307	5.981202	31.178975	5.981202	7.745353E+12	0.00016	6266.502111	17.53118	0.579884	0	0
0	0	0	37.782377	5.982109	30.989084	5.982109	7.154509E+12	0.000154	6498.996581	17.380793	0.578882	0	0
0	0	0	37.630424	5.98265	30.793142	5.98265	6.590793E+12	0.000146	6870.329145	17.473438	0.573764	0	0
0	0	0	37.481778	5.98392	30.600606	5.98392	6.082316E+12	0.000143	6975.32996	17.442477	0.570835	0	0
0	0	0	37.326599	5.984549	30.400394	5.984549	5.593263E+12	0.000136	7332.173208	17.30669	0.569411	0	0
0	0	0	37.177709	5.985316	30.208097	5.985316	5.16101E+12	0.000131	7612.460805	17.400648	0.564082	0	0
0	0	0	37.021183	5.986108	30.005942	5.986108	4.742535E+12	0.000126	7908.746537	17.311792	0.562196	0	0
0	0	0	36.870251	5.986589	29.811334	5.986589	4.371165E+12	0.00012	8333.072085	17.220777	0.56023	0	0
0	0	0	36.714908	5.987302	29.610775	5.987302	4.019272E+12	0.000115	8663.927488	17.329671	0.55502	0	0
0	0	0	36.560219	5.987967	29.411102	5.987967	3.696998E+12	0.000111	9014.871973	17.218267	0.553674	0	0
0	0	0	36.400507	5.988472	29.205154	5.988472	3.391337E+12	0.000105	9492.780536	17.176812	0.550878	0	0
0	0	0	36.24202	5.989157	29.000554	5.989157	3.112997E+12	0.000102	9846.4082	17.261638	0.546129	0	0
0	0	0	36.081819	5.989789	28.793805	5.989789	2.854845E+12	9.766202E-5	10239.395321	17.092746	0.545325	0	0
0	0	0	35.922107	5.99032	28.587799	5.99032	2.618788E+12	9.339685E-5	10706.998711	17.097471	0.541539	0	0
0	0	0	35.756759	5.990752	28.37466	5.990752	2.394938E+12	8.848351E-5	11301.541368	17.151745	0.537397	0	0
0	0	0	35.591167	5.99124	28.16113	5.99124	2.189927E+12	8.432764E-5	11858.508522	16.976423	0.536777	0	0
0	0	0	35.424921	5.991714	27.94677	5.991714	2.001754E+12	8.037986E-5	12440.92792	17.049575	0.532174	0	0
0	0	0	35.255653	5.99228	27.728402	5.99228	1.826761E+12	7.729817E-5	12936.9175	17.038514	0.529114	0	0
0	0	0	35.088387	5.992737	27.512734	5.992737	1.668865E+12	7.383028E-5	13544.577896	16.884634	0.528203	0	0
0	0	0	34.912095	5.992991	27.285713	5.992991	1.517197E+12	6.88601E-5	14522.197216	16.964442	0.52327	0	0
0	0	0	34.739806	5.993592	27.063389	5.993592	1.382296E+12	6.683068E-5	14963.186856	16.89342	0.52116	0	0
0	0	0	34.563718	5.993921	26.836522	5.993921	1.256805E+12	6.301869E-5	15868.308871	16.779266	0.519564	0	0
0	0	0	34.383792	5.994613	26.604242	5.994613	1.140337E+12	6.201391E-5	16125.413612	16.904833	0.51434	0	0
0	0	0	34.204846	5.994676	26.374032	5.994676	1.035209E+12	5.673449E-5	17625.963361	16.752145	0.51343	0	0
0	0	0	34.018305	5.994977	26.133739	5.994977	9.359209E+11	5.326837E-5	18772.867173	16.734137	0.510515	0	0
0	0	0	33.830293	5.995554	25.891185	5.995554	8.454826E+11	5.195889E-5	19245.984167	16.795197	0.50607	0	0
0	0	0	33.640689	5.99578	25.647041	5.99578	7.631253E+11	4.84068E-5	20658.253211	16.628453	0.505436	0	0
0	0	0	33.443407	5.996204	25.392753	5.996204	6.859371E+11	4.630996E-5	21593.626819	16.637976	0.501901	0	0
0	0	0	33.246044	5.996469	25.138567	5.996469	6.165285E+11	4.336954E-5	23057.65913	16.670632	0.498089	0	0
0	0	0	33.045822	5.996727	24.880709	5.996727	5.532871E+11	4.057698E-5	24644.51352	16.480732	0.497825	0	0
0	0	0	32.829511	5.997078	24.602024	5.997078	4.922327E+11	3.831864E-5	26096.957059	16.585751	0.492787	0	0
0	0	0	32.617814	5.997468	24.329215	5.997468	4.390089E+11	3.667504E-5	27266.504278	16.514271	0.490887	0	0
0	0	0	32.4053	5.997751	24.055495	5.997751	3.913669E+11	3.453245E-5	28958.269319	16.394935	0.489357	0	0
0	0	0	32.182292	5.997935	23.76841	5.997935	3.469211E+11	3.177172E-5	31474.530137	16.472488	0.484701	0	0
0	0	0	31.962713	5.998033	23.485856	5.998033	3.080934E+11	2.87921E-5	34731.751811	16.331277	0.483646	0	0
0	0	0	31.738561	5.998308	23.197164	5.998308	2.729356E+11	2.70709E-5	36940.035824	16.264553	0.481232	0	0
0	0	0	31.511306	5.998695	22.904314	5.998695	2.413843E+11	2.620204E-5	38164.963467	16.357459	0.476681	0	0
0	0	0	31.280089	5.998877	22.606656	5.998877	2.130236E+11	2.41987E-5	41324.537627	16.170952	0.476615	0	0
0	0	0	31.039643	5.999085	22.297086	5.999085	1.870594E+11	2.244293E-5	44557.456919	16.248266	0.47242	0	0
0	0	0	30.798381	5.999207	21.986587	5.999207	1.641873E+11	2.036936E-5	49093.341523	16.215988	0.469769	0	0
0	0	0	30.553688	5.999302	21.671713	5.999302	1.438447E+11	1.833319E-5	54545.873488	16.073414	0.468859	0	0
0	0	0	30.303074	5.99976	21.348679	5.99976	1.256198E+11	1.842886E-5	54262.706206	16.159715	0.464308	0	0
0	0	0	30.047273	5.999842	21.019529	5.999842	1.093968E+11	1.649312E-5	60631.342762	16.050442	0.46295	0	0
0	0	0	29.788819	6.000201	20.686543	6.000201	9.513229E+10	1.632582E-5	61252.659657	15.94773	0.461367	0	0
0	0	0	29.524647	6.000203	20.346739	6.000203	8.247245E+10	1.416422E-5	70600.431111	16.063136	0.456447	0	0
0	0	0	29.255697	6.000376	20.000526	6.000376	7.131289E+10	1.312641E-5	76182.277769	15.870055	0.456592	0	0
0	0	0	28.98152	6.000628	19.647461	6.000628	6.148936E+10	1.263821E-5	79125.124037	15.910798	0.452635	0	0
0	0	0	28.69595	6.000828	19.279817	6.000828	5.269349E+10	1.193018E-5	83821.037013	15.905727	0.449746	0	0
0	0	0	28.412952	6.000856	18.915749	6.000856	4.521868E+10	1.038419E-5	96300.224152	15.716176	0.449271	0	0
0	0	0	28.124646	6.000857	18.544894	6.000857	3.8693E+10	8.890929E-6	112474.191415	15.814356	0.44476	0	0
0	0	0	27.83001	6.001043	18.1656	6.001043	3.299597E+10	8.386713E-6	119236.222017	15.714944	0.44315	0	0
0	0	0	27.534108	6.00107	17.784929	6.00107	2.81185E+10	7.260161E-6	137737.986796	15.606923	0.441726	0	0
0	0	0	27.229835	6.00113	17.393436	6.00113	2.385382E+10	6.381972E-6	156691.383771	15.708019	0.437162	0	0
0	0	0	26.921192	6.001348	16.996058	6.001348	2.018821E+10	6.218247E-6	160817.019749	15.512495	0.437333	0	0
0	0	0	26.608057	6.001527	16.592962	6.001527	1.704446E+10	5.991635E-6	166899.33847	15.553576	0.433587	0	0
0	0	0	26.28802	6.001825	16.180782	6.001825	1.433667E+10	6.588641E-6	151776.370959	15.540202	0.430896	0	0
0	0	0	25.96243	6.001753	15.762078	6.001753	1.20229E+10	5.14228E-6	194466.262717	15.37554	0.430356	0	0
0	0	0	25.634921	6.001964	15.34042	6.001964	1.00721E+10	5.40791E-6	184914.306332	15.475841	0.425897	0	0
0	0	0	25.304022	6.002011	14.914681	6.002011	8.422377E+9	4.791265E-6	208713.156684	15.316246	0.42504	0	0
0	0	0	24.970673	6.002011	14.48587	6.002011	7.033544E+9	4.002715E-6	249830.428696	15.246804	0.42314	0	0
0	0	0	24.630504	6.002156	14.04803	6.002156	5.852112E+9	4.091482E-6	244410.242411	15.337515	0.418999	0	0
0	0	0	24.289151	6.002249	13.608756	6.002249	4.866011E+9	3.981407E-6	251167.476456	15.155978	0.419196	0	0
0	0	0	23.942285	6.002355	13.162364	6.002355	4.034031E+9	4.097803E-6	244033.194294	15.215524	0.415041	0	0
0	0	0	23.592152	6.002144	12.712339	6.002144	3.3384E+9	2.28858E-6	436952.253835	15.15751	0.413142	0	0
0	0	0	23.222458	6.002355	12.236387	6.002355	2.733664E+9	2.778869E-6	359858.670032	14.988975	0.412377	0	0
0	0	0	22.858768	6.002441	11.768381	6.002441	2.24575E+9	2.840411E-6	352061.731421	15.08788	0.40776	0	0
0	0	0	22.494995	6.002302	11.300685	6.002302	1.844838E+9	1.674202E-6	597299.502951	14.881498	0.407747	0	0
0	0	0	22.134327	6.002665	10.836043	6.002665	1.518043E+9	5.309092E-6	188356.13509	14.913287	0.404871	0	0
0	0	0	21.766022	6.002573	10.362429	6.002573	1.24399E+9	2.52103E-6	396663.235517	14.909925	0.401956	0	0
0	0	0	21.397308	6.002514	9.88823	6.002514	1.019187E+9	1.625965E-6	615019.222814	14.753039	0.401811	0	0
0	0	0	21.02692	6.002679	9.411446	6.002679	8.342525E+8	3.260146E-6	306734.760817	14.861643	0.3973	0	0
0	0	0	20.655185	6.002751	8.933102	6.002751	6.82378E+8	7.365186E-6	135773.898705	14.732982	0.396852	0	0
0	0	0	20.280917	6.002784	8.451577	6.002784	5.573886E+8	3.026759E-5	33038.636168	14.667675	0.394649	0	0
0	0	0	19.90469	6.002778	7.967608	6.002778	4.54811E+8	1.370275E-5	72978.056874	14.737976	0.390955	0	0
0	0	0	19.524705	6.002877	7.478594	6.002877	3.70358E+8	-1.95593E-6	-511265.836084	14.50187	0.391338	0	0
0	0	0	19.139984	6.002653	6.984137	6.002653	3.008157E+8	9.551832E-7	1046919.556844	14.600321	0.387025	0	0
0	0	0	18.756855	6.002884	6.490807	6.002884	2.445418E+8	-1.19723E-6	-835261.656072	14.458537	0.386154	0	0
0	0	0	18.370378	6.002917	5.99357	6.002917	1.984356E+8	-7.126498E-7	-1403213.84951	14.397492	0.384677	0	0
0	0	0	17.985166	6.002877	5.49811	6.002877	1.611325E+8	-8.504339E-7	-1175870.321396	14.448871	0.38093	0	0
0	0	0	17.599138	6.002969	5.001324	6.002969	1.307842E+8	-3.293066E-7	-3036683.400047	14.257954	0.381036	0	0
0	0	0	17.208536	6.003213	4.49833	6.003213	1.058896E+8	-1.119358E-7	-8933689.155676	14.328717	0.377052	0	0
0	0	0	16.816749	6.00322	3.994311	6.00322	8.567882E+7	-8.91717E-8	-1.121432E+7	14.251535	0.375905	0	0
0	0	0	16.424106	6.003167	3.489316	6.003167	6.929346E+7	-8.227912E-8	-1.215375E+7	14.127706	0.37477	0	0
0	0	0	16.03089	6.003055	2.983717	6.003055	5.602435E+7	-9.495288E-8	-1.053154E+7	14.226293	0.370615	0	0
0	0	0	15.638573	6.003101	2.478931	6.003101	4.531817E+7	-6.531316E-8	-1.531085E+7	13.991926	0.371222	0	0
0	0	0	15.24597	6.003055	1.973979	6.003055	3.665226E+7	-6.21189E-8	-1.609816E+7	14.077742	0.367186	0	0
0	0	0	14.851039	6.003286	1.465417	6.003286	2.96062E+7	-2.669168E-8	-3.746486E+7	13.939717	0.366289	0	0
0	0	0	14.452883	6.003279	0.95323	6.003279	2.387301E+7	-2.181453E-8	-4.5841E+7	13.866647	0.364812	0	0
0	0	0	14.053909	6.003253	0.440037	6.003253	1.924154E+7	-1.859026E-8	-5.379161E+7	13.945994	0.360973	0	0
0	0	0	13.649464	6.003385	-0.080556	6.003385	1.54628E+7	-1.161136E-8	-8.612255E+7	13.737243	0.36158	0	0
0	0	0	13.247101	6.003181	-0.597699	6.003181	1.244013E+7	-1.426825E-8	-7.008566E+7	13.830631	0.357623	0	0
0	0	0	12.852415	6.003266	-1.105633	6.003266	1.004996E+7	-9.439199E-9	-1.059412E+8	13.722847	0.356594	0	0
0	0	0	12.45581	6.003279	-1.615869	6.003279	8110606	-7.411195E-9	-1.34931E+8	13.629215	0.355262	0	0
0	0	0	12.058103	6.003299	-2.127539	6.003299	6541589.5	-5.743919E-9	-1.740972E+8	13.682437	0.35174	0	0
0	0	0	11.66305	6.003207	-2.635529	6.003207	5283679	-5.673986E-9	-1.76243E+8	13.443674	0.352439	0	0
0	0	0	11.270977	6.003352	-3.14025	6.003352	4274541	-3.399137E-9	-2.941924E+8	13.555395	0.348033	0	0
0	0	0	10.881601	6.003431	-3.64135	6.003431	3463181.5	-2.41247E-9	-4.145129E+8	13.383628	0.347994	0	0
0	0	0	10.491529	6.00322	-4.142638	6.00322	2804775	-2.918969E-9	-3.425867E+8	13.354457	0.345606	0	0
0	0	0	10.103868	6.0032	-4.641289	6.0032	2274502.5	-2.482052E-9	-4.028925E+8	13.36884	0.3431	0	0
0	0	0	9.714491	6.003306	-5.142456	6.003306	1842774.5	-1.597263E-9	-6.260711E+8	13.186318	0.343073	0	0
0	0	0	9.328136	6.003405	-5.639722	6.003405	1495435	-1.086639E-9	-9.202692E+8	13.286069	0.339143	0	0
0	0	0	8.94664	6.003365	-6.130393	6.003365	1216756.5	-9.452702E-10	-1.057899E+9	13.11619	0.339248	0	0
0	0	0	8.568616	6.003458	-6.616931	6.003458	991869.5	-6.63517E-10	-1.50712E+9	13.141628	0.336544	0	0
0	0	0	8.188836	6.003477	-7.105546	6.003477	807780.5	-5.247489E-10	-1.905673E+9	13.096318	0.334737	0	0
0	0	0	7.809464	6.003477	-7.593586	6.003477	658003	-4.274507E-10	-2.339451E+9	12.931579	0.334355	0	0
0	0	0	7.424702	6.003464	-8.088526	6.003464	534438	-3.540028E-10	-2.824837E+9	13.021961	0.330331	0	0
0	0	0	7.040879	6.003326	-8.581932	6.003326	434297	-3.624555E-10	-2.758959E+9	12.801963	0.331228	0	0
0	0	0	6.652972	6.003477	-9.081346	6.003477	352142	-2.287578E-10	-4.371436E+9	12.909471	0.327126	0	0
0	0	0	6.273355	6.003128	-9.568778	6.003128	286810.5	-3.8078E-10	-2.626188E+9	12.729941	0.327258	0	0
0	0	0	5.908317	6.003444	-10.039214	6.003444	235448	-1.606933E-10	-6.223036E+9	12.711817	0.324818	0	0
0	0	0	5.561042	6.003583	-10.486332	6.003583	195148	-1.098377E-10	-9.104341E+9	12.715201	0.322615	0	0
0	0	0	5.225447	6.003247	-10.917152	6.003247	162771	-1.595462E-10	-6.267775E+9	12.536495	0.322668	0	0
0	0	0	4.892466	6.003326	-11.345724	6.003326	135957.5	-1.134674E-10	-8.813106E+9	12.636736	0.318829	0	0
0	0	0	4.563282	6.003477	-11.76961	6.003477	113794	-7.392263E-11	-1.352766E+10	12.418571	0.319541	0	0
0	0	0	4.250882	6.003312	-12.171043	6.003312	96112	-8.224951E-11	-1.215813E+10	12.535481	0.315954	0	0
0	0	0	3.933541	6.003431	-12.579608	6.003431	80961	-5.639777E-11	-1.77312E+10	12.392157	0.315386	0	0
0	0	0	3.626695	6.003339	-12.974092	6.003339	68586.5	-5.585794E-11	-1.790256E+10	12.343684	0.313777	0	0
0	0	0	3.321033	6.003675	-13.368241	6.003675	58140	-2.929918E-11	-3.413064E+10	12.333782	0.311231	0	0
0	0	0	3.02068	6.00359	-13.754391	6.00359	49427	-2.758931E-11	-3.624592E+10	12.164225	0.311442	0	0
0	0	0	2.730413	6.003411	-14.127304	6.003411	42249	-3.037231E-11	-3.292472E+10	12.268571	0.307327	0	0
0	0	0	2.453541	6.003293	-14.483147	6.003293	36376	-3.236175E-11	-3.090068E+10	12.016408	0.308475	0	0
0	0	0	2.193494	6.003418	-14.818036	6.003418	31605.5	-2.24811E-11	-4.44818E+10	12.10629	0.304465	0	0
0	0	0	1.948964	6.003418	-15.132608	6.003418	27692	-1.969742E-11	-5.076807E+10	11.937129	0.304847	0	0
0	0	0	1.725384	6.003504	-15.420476	6.003504	24539.5	-1.534968E-11	-6.514795E+10	11.946536	0.302407	0	0
0	0	0	1.525979	6.00324	-15.676243	6.00324	22032	-2.191412E-11	-4.563268E+10	11.893019	0.300811	0	0
0	0	0	1.347891	6.003675	-15.906593	6.003675	20009.5	-1.008363E-11	-9.917068E+10	11.751343	0.300204	0	0
0	0	0	1.186464	6.003286	-16.113139	6.003286	18337.5	-1.653204E-11	-6.048862E+10	11.83274	0.296867	0	0
0	0	0	1.045577	6.003326	-16.294494	6.003326	16993	-1.418201E-11	-7.051185E+10	11.628937	0.297724	0	0
0	0	0	0.91686	6.003695	-16.461149	6.003695	15851	-7.812783E-12	-1.279954E+11	11.748344	0.29378	0	0
0	0	0	0.807296	6.003497	-16.601525	6.003497	14939	-9.431989E-12	-1.060222E+11	11.520119	0.294717	0	0
0	0	0	0.708063	6.003339	-16.728722	6.003339	14159	-1.153132E-11	-8.672038E+10	11.608083	0.291248	0	0
0	0	0	0.615731	6.003299	-16.847386	6.003299	13469.5	-1.182701E-11	-8.455221E+10	11.445837	0.291063	0	0
0	0	0	0.538305	6.00355	-16.947719	6.00355	12917.5	-7.587242E-12	-1.318002E+11	11.427151	0.288913	0	0
0	0	0	0.474233	6.003411	-17.029741	6.003411	12477.5	-8.96993E-12	-1.114836E+11	11.363277	0.287409	0	0
0	0	0	0.419961	6.003431	-17.099616	6.003431	12117	-8.440753E-12	-1.184728E+11	11.251109	0.286671	0	0
0	0	0	0.371814	6.003471	-17.161669	6.003471	11805.5	-7.743681E-12	-1.291376E+11	11.285497	0.283848	0	0
0	0	0	0.338165	6.003623	-17.205401	6.003623	11592.5	-6.213513E-12	-1.609396E+11	11.085648	0.284323	0	0
0	0	0	0.297002	6.00359	-17.258259	6.00359	11338	-6.32868E-12	-1.580108E+11	11.169642	0.280616	0	0
0	0	0	0.270417	6.003458	-17.292072	6.003458	11176	-7.476248E-12	-1.337569E+11	10.951861	0.281526	0	0
0	0	0	0.243098	6.003359	-17.326928	6.003359	11012	-8.654697E-12	-1.155442E+11	11.0368	0.277938	0	0
0	0	0	0.210265	6.003372	-17.369204	6.003372	10818.5	-8.308893E-12	-1.20353E+11	10.846973	0.278426	0	0
0	0	0	0.195115	6.003444	-17.388906	6.003444	10730	-7.323225E-12	-1.365519E+11	10.888566	0.275353	0	0
0	0	0	0.176289	6.003477	-17.413221	6.003477	10621.5	-6.899917E-12	-1.449293E+11	10.747316	0.2753	0	0
0	0	0	0.148438	6.003431	-17.448914	6.003431	10462.5	-7.288221E-12	-1.372077E+11	10.724774	0.273269	0	0
0	0	0	0.12998	6.003603	-17.473162	6.003603	10359	-5.68803E-12	-1.758078E+11	10.687116	0.271937	0	0
0	0	0	0.121078	6.003596	-17.484595	6.003596	10309	-5.707058E-12	-1.752216E+11	10.587822	0.270961	0	0
0	0	0	0.105764	6.003332	-17.503521	6.003332	10224	-8.428405E-12	-1.186464E+11	10.581699	0.26889	0	0
0	0	0	0.083222	6.003444	-17.532849	6.003444	10100.5	-6.893591E-12	-1.450623E+11	10.424831	0.268679	0	0
0	0	0	0.064437	6.003458	-17.557053	6.003458	9998	-6.688219E-12	-1.495166E+11	10.521228	0.26546	0	0
0	0	0	0.054759	6.003332	-17.569136	6.003332	9946	-8.199229E-12	-1.219627E+11	10.284768	0.266476	0	0
0	0	0	0.048348	6.003326	-17.577364	6.003326	9912	-8.272354E-12	-1.208846E+11	10.400447	0.262624	0	0
0	0	0	0.040017	6.003359	-17.588178	6.003359	9867	-7.754803E-12	-1.289523E+11	10.145288	0.263996	0	0
0	0	0	0.0265	6.003576	-17.606206	6.003576	9795.5	-5.559746E-12	-1.798643E+11	10.27026	0.260012	0	0
0	0	0	0.012126	6.003464	-17.624368	6.003464	9719.5	-6.438032E-12	-1.55327E+11	10.01824	0.261345	0	0
0	0	0	0.000324	6.003359	-17.639241	6.003359	9657.5	-7.59015E-12	-1.317497E+11	10.159893	0.257374	0	0
0	0	0	-0.007394	6.003471	-17.649499	6.003471	9617.5	-6.308488E-12	-1.585166E+11	9.895647	0.258759	0	0
0	0	0	-0.015031	6.003517	-17.659459	6.003517	9577.5	-5.88167E-12	-1.700198E+11	9.996288	0.255119	0	0
0	0	0	-0.018828	6.00353	-17.664383	6.00353	9558.5	-5.764974E-12	-1.734613E+11	9.7691	0.255976	0	0
0	0	0	-0.022218	6.00355	-17.668802	6.00355	9540.5	-5.603722E-12	-1.784528E+11	9.874878	0.252481	0	0
0	0	0	-0.025566	6.003359	-17.672547	6.003359	9523.5	-7.484835E-12	-1.336035E+11	9.646265	0.253443	0	0
0	0	0	-0.028139	6.003464	-17.676167	6.003464	9510.5	-6.299594E-12	-1.587404E+11	9.703967	0.250291	0	0
0	0	0	-0.03357	6.003504	-17.68327	6.003504	9482.5	-5.931388E-12	-1.685946E+11	9.511927	0.250871	0	0
0	0	0	-0.03696	6.003425	-17.687398	6.003425	9465	-6.662197E-12	-1.501006E+11	9.567802	0.247864	0	0
0	0	0	-0.042473	6.003491	-17.694684	6.003491	9437	-6.014535E-12	-1.662639E+11	9.392806	0.248299	0	0
0	0	0	-0.046556	6.003121	-17.698851	6.003121	9416	-1.275215E-11	-7.841818E+10	9.431552	0.245608	0	0
0	0	0	-0.051824	6.003675	-17.707257	6.003675	9389	-4.731511E-12	-2.11349E+11	9.254709	0.245912	0	0
0	0	0	-0.056071	6.003418	-17.711964	6.003418	9367.5	-6.663136E-12	-1.500795E+11	9.272272	0.24326	0	0
0	0	0	-0.062278	6.003378	-17.719833	6.003378	9336	-7.089529E-12	-1.410531E+11	9.115134	0.243326	0	0
0	0	0	-0.067056	6.003431	-17.726135	6.003431	9312	-6.486778E-12	-1.541597E+11	9.141812	0.240794	0	0
0	0	0	-0.069425	6.003451	-17.72924	6.003451	9300.5	-6.283975E-12	-1.591349E+11	8.99805	0.241203	0	0
0	0	0	-0.074693	6.00357	-17.736366	6.00357	9274	-5.308444E-12	-1.883791E+11	9.02866	0.238393	0	0
0	0	0	-0.07653	6.003266	-17.737837	6.003266	9265	-8.701891E-12	-1.149175E+11	8.857389	0.238841	0	0
0	0	0	-0.08139	6.00353	-17.744865	6.00353	9240.5	-5.57318E-12	-1.794308E+11	8.897218	0.23586	0	0
0	0	0	-0.083514	6.003708	-17.748121	6.003708	9230	-4.483803E-12	-2.23025E+11	8.707888	0.236665	0	0
0	0	0	-0.084698	6.003398	-17.748732	6.003398	9224	-6.775525E-12	-1.4759E+11	8.758748	0.233539	0	0
0	0	0	-0.087107	6.003398	-17.751832	6.003398	9212	-6.76671E-12	-1.477823E+11	8.566933	0.234383	0	0
0	0	0	-0.088414	6.003352	-17.753377	6.003352	9205.5	-7.320246E-12	-1.366074E+11	8.642545	0.231072	0	0
0	0	0	-0.090333	6.003596	-17.756564	6.003596	9195.5	-5.090625E-12	-1.964396E+11	8.444851	0.232193	0	0
0	0	0	-0.090946	6.003629	-17.757449	6.003629	9192.5	-4.888263E-12	-2.045716E+11	8.493527	0.228777	0	0
0	0	0	-0.091762	6.003431	-17.757918	6.003431	9188.5	-6.400747E-12	-1.562318E+11	8.251378	0.230043	0	0
0	0	0	-0.091762	6.003398	-17.75782	6.003398	9188.5	-6.749448E-12	-1.481603E+11	8.320139	0.226574	0	0
0	0	0	-0.093314	6.003352	-17.759681	6.003352	9181	-7.300763E-12	-1.36972E+11	8.145552	0.227577	0	0
0	0	0	-0.093804	6.003629	-17.761127	6.003629	9178.5	-4.880818E-12	-2.048837E+11	8.187101	0.224596	0	0
0	0	0	-0.094825	6.003477	-17.761993	6.003477	9173.5	-5.95927E-12	-1.678058E+11	8.019656	0.225057	0	0
0	0	0	-0.095152	6.003372	-17.762103	6.003372	9172	-7.044337E-12	-1.41958E+11	8.016712	0.222696	0	0
0	0	0	-0.09601	6.003299	-17.762993	6.003299	9167.5	-8.049604E-12	-1.242297E+11	7.890612	0.222459	0	0
0	0	0	-0.096745	6.003359	-17.764113	6.003359	9164	-7.202292E-12	-1.388447E+11	7.795237	0.221034	0	0
0	0	0	-0.096255	6.003299	-17.763308	6.003299	9166.5	-8.048726E-12	-1.242433E+11	7.785127	0.219649	0	0
0	0	0	-0.096949	6.003326	-17.764279	6.003326	9163	-7.647254E-12	-1.307659E+11	7.627774	0.219491	0	0
0	0	0	-0.096704	6.003405	-17.764196	6.003405	9164	-6.658899E-12	-1.50175E+11	7.676195	0.217051	0	0
0	0	0	-0.097398	6.003293	-17.764759	6.003293	9160.5	-8.149599E-12	-1.227054E+11	7.467935	0.217789	0	0
0	0	0	-0.097357	6.003378	-17.764959	6.003378	9161	-6.956638E-12	-1.437476E+11	7.543962	0.214755	0	0
0	0	0	-0.098174	6.003359	-17.765952	6.003359	9157	-7.19679E-12	-1.389508E+11	7.340586	0.21556	0	0
0	0	0	-0.097765	6.003378	-17.765485	6.003378	9159	-6.95512E-12	-1.43779E+11	7.381522	0.213133	0	0
0	0	0	-0.098174	6.003557	-17.766534	6.003557	9157	-5.332015E-12	-1.875464E+11	7.245727	0.212922	0	0
0	0	0	-0.098296	6.003365	-17.766129	6.003365	9156.5	-7.113471E-12	-1.405784E+11	7.212875	0.211827	0	0
0	0	0	-0.098582	6.003609	-17.767215	6.003609	9155	-4.986313E-12	-2.00549E+11	7.178268	0.210099	0	0
0	0	0	-0.098991	6.00357	-17.767624	6.00357	9152.5	-5.238897E-12	-1.908799E+11	7.061283	0.21035	0	0
0	0	0	-0.099236	6.003669	-17.76823	6.003669	9151.5	-4.646557E-12	-2.152131E+11	7.078767	0.207646	0	0
0	0	0	-0.099889	6.003411	-17.768314	6.003411	9148.5	-6.57675E-12	-1.520508E+11	6.9191	0.208464	0	0
0	0	0	-0.100828	6.003477	-17.769716	6.003477	9143.5	-5.939782E-12	-1.683564E+11	6.901873	0.206036	0	0
0	0	0	-0.101482	6.003695	-17.771197	6.003695	9140.5	-4.505251E-12	-2.219632E+11	6.808949	0.205628	0	0
0	0	0	-0.100175	6.003431	-17.768739	6.003431	9147	-6.371838E-12	-1.569406E+11	6.66347	0.204955	0	0
0	0	0	-0.101482	6.003464	-17.770518	6.003464	9140.5	-6.054513E-12	-1.651661E+11	6.681462	0.202726	0	0
0	0	0	-0.101563	6.003458	-17.770603	6.003458	9140	-6.114255E-12	-1.635522E+11	6.492863	0.203636	0	0
0	0	0	-0.103033	6.003537	-17.772728	6.003537	9132.5	-5.459203E-12	-1.831769E+11	6.54708	0.200866	0	0
0	0	0	-0.103523	6.003431	-17.773047	6.003431	9130.5	-6.360344E-12	-1.572242E+11	6.412839	0.200998	0	0
0	0	0	-0.102993	6.003583	-17.772811	6.003583	9133	-5.140446E-12	-1.945356E+11	6.384099	0.199969	0	0
0	0	0	-0.103319	6.003279	-17.772338	6.003279	9131.5	-8.344017E-12	-1.198464E+11	6.344988	0.198096	0	0
0	0	0	-0.103728	6.003405	-17.773232	6.003405	9129.5	-6.63383E-12	-1.507425E+11	6.207881	0.198491	0	0
0	0	0	-0.103319	6.003471	-17.772901	6.003471	9131.5	-5.989702E-12	-1.669532E+11	6.190719	0.19642	0	0
0	0	0	-0.104749	6.003576	-17.775051	6.003576	9124.5	-5.178899E-12	-1.930912E+11	6.099889	0.195985	0	0
0	0	0	-0.104749	6.003438	-17.774643	6.003438	9124.5	-6.29116E-12	-1.589532E+11	5.949602	0.195735	0	0
0	0	0	-0.104994	6.003517	-17.775191	6.003517	9123.5	-5.602862E-12	-1.784802E+11	5.99355	0.193281	0	0
0	0	0	-0.104422	6.003603	-17.774708	6.003603	9126	-5.011001E-12	-1.995609E+11	5.803764	0.193875	0	0
0	0	0	-0.104912	6.003444	-17.774872	6.003444	9123.5	-6.226789E-12	-1.605964E+11	5.780908	0.192107	0	0
0	0	0	-0.104504	6.003431	-17.774308	6.003431	9125.5	-6.356861E-12	-1.573103E+11	5.725018	0.190933	0	0
0	0	0	-0.104422	6.003735	-17.775096	6.003735	9126	-4.309082E-12	-2.32068E+11	5.613981	0.191052	0	0
0	0	0	-0.104136	6.00357	-17.774243	6.00357	9127.5	-5.224587E-12	-1.914027E+11	5.564931	0.18935	0	0
0	0	0	-0.104585	6.003273	-17.773947	6.003273	9125	-8.452643E-12	-1.183062E+11	5.518406	0.188229	0	0
0	0	0	-0.104667	6.003306	-17.774149	6.003306	9125	-7.909274E-12	-1.264339E+11	5.36473	0.188533	0	0
0	0	0	-0.106545	6.003491	-17.77711	6.003491	9115.5	-5.809632E-12	-1.721279E+11	5.357651	0.186382	0	0
0	0	0	-0.105524	6.003557	-17.77599	6.003557	9120.5	-5.310761E-12	-1.882969E+11	5.274657	0.185762	0	0
0	0	0	-0.106055	6.003517	-17.776557	6.003517	9118	-5.599484E-12	-1.785879E+11	5.177572	0.185776	0	0
0	0	0	-0.106995	6.003425	-17.777493	6.003425	9113.5	-6.414784E-12	-1.558899E+11	5.173672	0.183942	0	0
0	0	0	-0.10675	6.003484	-17.777353	6.003484	9114.5	-5.864434E-12	-1.705194E+11	5.088248	0.183124	0	0
0	0	0	-0.107893	6.003722	-17.779523	6.003722	9109	-4.362158E-12	-2.292443E+11	4.942258	0.183428	0	0
0	0	0	-0.108015	6.003444	-17.778865	6.003444	9108.5	-6.216551E-12	-1.608609E+11	4.918605	0.181344	0	0
0	0	0	-0.10822	6.003801	-17.780176	6.003801	9107	-4.018653E-12	-2.488396E+11	4.86286	0.180711	0	0
0	0	0	-0.107362	6.003517	-17.778238	6.003517	9111.5	-5.595493E-12	-1.787153E+11	4.744452	0.180486	0	0
0	0	0	-0.108465	6.003616	-17.779948	6.003616	9106	-4.919878E-12	-2.032571E+11	4.71063	0.179194	0	0
0	0	0	-0.108138	6.003563	-17.779372	6.003563	9107.5	-5.25778E-12	-1.901943E+11	4.640106	0.177914	0	0
0	0	0	-0.107811	6.003543	-17.778893	6.003543	9109	-5.397299E-12	-1.852779E+11	4.50061	0.177888	0	0
0	0	0	-0.108056	6.00353	-17.77917	6.00353	9108	-5.493266E-12	-1.820411E+11	4.418748	0.176978	0	0
0	0	0	-0.107975	6.003583	-17.77922	6.003583	9108.5	-5.126657E-12	-1.950589E+11	4.360468	0.175579	0	0
0	0	0	-0.106259	6.003385	-17.776431	6.003385	9117	-6.846113E-12	-1.460683E+11	4.282241	0.174788	0	0
0	0	0	-0.10679	6.003444	-17.777289	6.003444	9114	-6.220305E-12	-1.607638E+11	4.144667	0.174709	0	0
0	0	0	-0.106545	6.003392	-17.776818	6.003392	9115.5	-6.769584E-12	-1.477196E+11	4.06859	0.173561	0	0
0	0	0	-0.106259	6.003365	-17.776373	6.003365	9117	-7.082784E-12	-1.411874E+11	4.031052	0.172348	0	0
0	0	0	-0.106014	6.003695	-17.777029	6.003695	9118	-4.494161E-12	-2.225109E+11	3.954837	0.171609	0	0
0	0	0	-0.106464	6.003755	-17.777781	6.003755	9116	-4.215781E-12	-2.37204E+11	3.842235	0.171279	0	0
0	0	0	-0.106423	6.003227	-17.776175	6.003227	9116.5	-9.343422E-12	-1.070272E+11	3.778584	0.170369	0	0
0	0	0	-0.107158	6.003583	-17.778169	6.003583	9112.5	-5.128908E-12	-1.949733E+11	3.715435	0.169301	0	0
0	0	0	-0.1063	6.003359	-17.776406	6.003359	9117	-7.165353E-12	-1.395605E+11	3.615569	0.168456	0	0
0	0	0	-0.106341	6.003623	-17.777235	6.003623	9116.5	-4.886391E-12	-2.0465E+11	3.541608	0.168021	0	0
0	0	0	-0.107076	6.003405	-17.77754	6.003405	9113	-6.62184E-12	-1.510154E+11	3.430221	0.167296	0	0
0	0	0	-0.106382	6.003464	-17.776822	6.003464	9116.5	-6.038615E-12	-1.656009E+11	3.37824	0.16628	0	0
0	0	0	-0.107199	6.003471	-17.777892	6.003471	9112.5	-5.977239E-12	-1.673013E+11	3.261414	0.165475	0	0
0	0	0	-0.107117	6.003378	-17.777515	6.003378	9112.5	-6.919809E-12	-1.445127E+11	3.17083	0.164631	0	0
0	0	0	-0.108832	6.003517	-17.780129	6.003517	9104	-5.590887E-12	-1.788625E+11	3.068378	0.164051	0	0
0	0	0	-0.108914	6.00355	-17.780331	6.00355	9104	-5.347339E-12	-1.870089E+11	3.000028	0.163378	0	0
0	0	0	-0.109322	6.00353	-17.780798	6.00353	9102	-5.489647E-12	-1.821611E+11	2.908382	0.162613	0	0
0	0	0	-0.109445	6.003464	-17.780762	6.003464	9101.5	-6.02868E-12	-1.658738E+11	2.866703	0.161782	0	0
0	0	0	-0.109486	6.003491	-17.780892	6.003491	9101	-5.800391E-12	-1.724022E+11	2.776261	0.161057	0	0
0	0	0	-0.110139	6.003609	-17.782082	6.003609	9097.5	-4.954996E-12	-2.018165E+11	2.731798	0.160226	0	0
0	0	0	-0.109771	6.003484	-17.78124	6.003484	9099.5	-5.854783E-12	-1.708005E+11	2.669778	0.159474	0	0
0	0	0	-0.107158	6.00353	-17.778014	6.00353	9112.5	-5.49598E-12	-1.819512E+11	2.663978	0.158788	0	0
0	0	0	-0.108628	6.003524	-17.779886	6.003524	9105.5	-5.541331E-12	-1.80462E+11	2.625748	0.15797	0	0
0	0	0	-0.109526	6.003563	-17.781158	6.003563	9101	-5.254027E-12	-1.903302E+11	2.610118	0.157297	0	0
0	0	0	-0.108996	6.00357	-17.780495	6.00357	9103.5	-5.21085E-12	-1.919073E+11	2.551816	0.156677	0	0
0	0	0	-0.10773	6.003312	-17.778109	6.003312	9110	-7.79604E-12	-1.282702E+11	2.559621	0.15582	0	0
0	0	0	-0.109281	6.003477	-17.78059	6.003477	9102	-5.912823E-12	-1.69124E+11	2.518853	0.155174	0	0
0	0	0	-0.108424	6.003563	-17.77974	6.003563	9106.5	-5.257202E-12	-1.902152E+11	2.505453	0.154303	0	0
0	0	0	-0.109322	6.003669	-17.781206	6.003669	9102	-4.621424E-12	-2.163835E+11	2.466197	0.153828	0	0
0	0	0	-0.109486	6.00353	-17.781009	6.00353	9101	-5.489044E-12	-1.821811E+11	2.46597	0.152839	0	0
0	0	0	-0.109036	6.00357	-17.780547	6.00357	9103.5	-5.21085E-12	-1.919073E+11	2.407364	0.152311	0	0
0	0	0	-0.1092	6.003471	-17.780466	6.003471	9102.5	-5.970679E-12	-1.674851E+11	2.405439	0.151599	0	0
0	0	0	-0.108506	6.003847	-17.78068	6.003847	9106	-3.842173E-12	-2.602694E+11	2.342361	0.151111	0	0
0	0	0	-0.109159	6.003431	-17.780297	6.003431	9102.5	-6.340839E-12	-1.577078E+11	2.337666	0.150135	0	0
0	0	0	-0.11018	6.003451	-17.781669	6.003451	9097.5	-6.146817E-12	-1.626858E+11	2.28558	0.149739	0	0
0	0	0	-0.109812	6.003444	-17.781176	6.003444	9099.5	-6.210409E-12	-1.6102E+11	2.297003	0.148776	0	0
0	0	0	-0.110629	6.003365	-17.781994	6.003365	9095.5	-7.066081E-12	-1.415212E+11	2.236231	0.148354	0	0
0	0	0	-0.111732	6.003603	-17.784112	6.003603	9090	-4.991234E-12	-2.003513E+11	2.235904	0.147365	0	0
0	0	0	-0.111527	6.003689	-17.784101	6.003689	9091	-4.513854E-12	-2.215402E+11	2.187548	0.146969	0	0
0	0	0	-0.111364	6.003583	-17.78358	6.003583	9092	-5.11737E-12	-1.954129E+11	2.199165	0.146072	0	0
0	0	0	-0.112303	6.003596	-17.784828	6.003596	9087	-5.030559E-12	-1.987851E+11	2.110977	0.145676	0	0
0	0	0	-0.110711	6.003537	-17.782604	6.003537	9095	-5.436787E-12	-1.839322E+11	2.145052	0.14474	0	0
0	0	0	-0.110956	6.003682	-17.783346	6.003682	9094	-4.548845E-12	-2.19836E+11	2.079773	0.144239	0	0
0	0	0	-0.110792	6.003708	-17.783214	6.003708	9094.5	-4.417979E-12	-2.263478E+11	2.055088	0.143539	0	0
0	0	0	-0.111078	6.003741	-17.783679	6.003741	9093.5	-4.263873E-12	-2.345286E+11	2.003786	0.143091	0	0
0	0	0	-0.110547	6.003431	-17.782083	6.003431	9096	-6.336311E-12	-1.578205E+11	2.014449	0.142207	0	0
0	0	0	-0.112058	6.003326	-17.783716	6.003326	9088.5	-7.585078E-12	-1.318378E+11	1.978509	0.141759	0	0
0	0	0	-0.110997	6.003491	-17.782836	6.003491	9093.5	-5.795611E-12	-1.725444E+11	1.956798	0.140769	0	0
0	0	0	-0.110711	6.003603	-17.782798	6.003603	9095	-4.99398E-12	-2.002411E+11	1.901627	0.1404	0	0
0	0	0	-0.108955	6.003596	-17.78052	6.003596	9103.5	-5.039693E-12	-1.984248E+11	1.889915	0.139543	0	0
0	0	0	-0.108832	6.003484	-17.780032	6.003484	9104	-5.857679E-12	-1.707161E+11	1.858218	0.139107	0	0
0	0	0	-0.110792	6.003662	-17.783078	6.003662	9094.5	-4.652657E-12	-2.14931E+11	1.840808	0.138408	0	0
0	0	0	-0.110384	6.003616	-17.782417	6.003616	9096.5	-4.914745E-12	-2.034693E+11	1.801097	0.137986	0	0
0	0	0	-0.109649	6.003662	-17.781607	6.003662	9100.5	-4.655726E-12	-2.147893E+11	1.776369	0.137102	0	0
0	0	0	-0.108465	6.003405	-17.779326	6.003405	9106	-6.616754E-12	-1.511315E+11	1.736949	0.136628	0	0
0	0	0	-0.10871	6.003425	-17.7797	6.003425	9105	-6.408801E-12	-1.560354E+11	1.713262	0.135757	0	0
0	0	0	-0.109077	6.003596	-17.780677	6.003596	9103	-5.039417E-12	-1.984357E+11	1.701656	0.135361	0	0
0	0	0	-0.109649	6.003563	-17.781316	6.003563	9100.5	-5.253739E-12	-1.903406E+11	1.680718	0.134662	0	0
0	0	0	-0.110302	6.00359	-17.782234	6.00359	9097	-5.077791E-12	-1.96936E+11	1.658862	0.134174	0	0
0	0	0	-0.111772	6.003365	-17.783465	6.003365	9090	-7.061808E-12	-1.416068E+11	1.609969	0.133435	0	0
0	0	0	-0.110711	6.003497	-17.782487	6.003497	9095	-5.742281E-12	-1.741468E+11	1.594208	0.132868	0	0
0	0	0	-0.110506	6.003609	-17.782555	6.003609	9096	-4.954179E-12	-2.018498E+11	1.587854	0.13213	0	0
0	0	0	-0.111487	6.003464	-17.783388	6.003464	9091.5	-6.022056E-12	-1.660562E+11	1.560206	0.131734	0	0
0	0	0	-0.111282	6.003537	-17.783339	6.003537	9092	-5.434993E-12	-1.839929E+11	1.518371	0.130956	0	0
0	0	0	-0.10969	6.003451	-17.781038	6.003451	9100	-6.148506E-12	-1.626411E+11	1.5087	0.130454	0	0
0	0	0	-0.111936	6.003497	-17.784063	6.003497	9089	-5.738493E-12	-1.742618E+11	1.473431	0.129689	0	0
0	0	0	-0.111405	6.003656	-17.783847	6.003656	9091.5	-4.686686E-12	-2.133704E+11	1.453037	0.12928	0	0
0	0	0	-0.111119	6.003504	-17.783032	6.003504	9093	-5.687753E-12	-1.758164E+11	1.405479	0.128529	0	0
0	0	0	-0.111568	6.00355	-17.783746	6.00355	9090.5	-5.33941E-12	-1.872866E+11	1.426407	0.128199	0	0
0	0	0	-0.111772	6.003392	-17.783543	6.003392	9090	-6.750647E-12	-1.48134E+11	1.374741	0.127592	0	0
0	0	0	-0.111446	6.003372	-17.783064	6.003372	9091.5	-6.982511E-12	-1.432149E+11	1.375606	0.126959	0	0
0	0	0	-0.111568	6.003477	-17.783532	6.003477	9090.5	-5.905352E-12	-1.693379E+11	1.334739	0.126365	0	0
0	0	0	-0.111119	6.00353	-17.78311	6.00353	9093	-5.484219E-12	-1.823414E+11	1.337703	0.125693	0	0
0	0	0	-0.111936	6.003649	-17.78451	6.003649	9089	-4.7215E-12	-2.117971E+11	1.293147	0.125218	0	0
0	0	0	-0.112671	6.003662	-17.785495	6.003662	9085.5	-4.648052E-12	-2.151439E+11	1.286626	0.124664	0	0
0	0	0	-0.111037	6.003524	-17.782985	6.003524	9093.5	-5.534029E-12	-1.807002E+11	1.249299	0.124004	0	0
0	0	0	-0.110997	6.003497	-17.782855	6.003497	9093.5	-5.741334E-12	-1.741755E+11	1.259932	0.123529	0	0
0	0	0	-0.110833	6.00359	-17.782917	6.00359	9094.5	-5.076396E-12	-1.969902E+11	1.223228	0.122949	0	0
0	0	0	-0.110547	6.003642	-17.782705	6.003642	9096	-4.761828E-12	-2.100034E+11	1.20718	0.122316	0	0
0	0	0	-0.112303	6.003451	-17.7844	6.003451	9087	-6.139722E-12	-1.628738E+11	1.169549	0.122012	0	0
0	0	0	-0.111242	6.003609	-17.783501	6.003609	9092.5	-4.952272E-12	-2.019275E+11	1.185789	0.121379	0	0
0	0	0	-0.113283	6.003728	-17.786477	6.003728	9082.5	-4.31879E-12	-2.315463E+11	1.118833	0.120878	0	0
0	0	0	-0.111732	6.003748	-17.784539	6.003748	9090	-4.232793E-12	-2.362506E+11	1.13066	0.120271	0	0
0	0	0	-0.112916	6.003636	-17.785732	6.003636	9084	-4.792763E-12	-2.086479E+11	1.093641	0.119796	0	0
0	0	0	-0.113937	6.003794	-17.787512	6.003794	9079	-4.032693E-12	-2.479733E+11	1.112554	0.119071	0	0
0	0	0	-0.112058	6.003801	-17.785115	6.003801	9088.5	-4.01049E-12	-2.493461E+11	1.044045	0.118807	0	0
0	0	0	-0.113733	6.003603	-17.786686	6.003603	9080	-4.985743E-12	-2.005719E+11	1.063166	0.118042	0	0
0	0	0	-0.113814	6.003689	-17.787043	6.003689	9080	-4.508393E-12	-2.218085E+11	1.021592	0.117739	0	0
0	0	0	-0.113161	6.003695	-17.786222	6.003695	9083	-4.47691E-12	-2.233683E+11	1.022583	0.117119	0	0
0	0	0	-0.114263	6.003438	-17.786883	6.003438	9077.5	-6.258754E-12	-1.597762E+11	0.982756	0.116789	0	0
0	0	0	-0.11214	6.003339	-17.78386	6.003339	9088	-7.401412E-12	-1.351094E+11	0.990756	0.11609	0	0
0	0	0	-0.114141	6.00359	-17.787172	6.00359	9078	-5.067186E-12	-1.973482E+11	0.932033	0.115694	0	0
0	0	0	-0.112099	6.003352	-17.783846	6.003352	9088.5	-7.227207E-12	-1.38366E+11	0.984087	0.115101	0	0
0	0	0	-0.112426	6.003392	-17.784383	6.003392	9086.5	-6.748048E-12	-1.48191E+11	0.898852	0.114718	0	0
0	0	0	-0.111078	6.003286	-17.782339	6.003286	9093.5	-8.198177E-12	-1.219783E+11	0.950104	0.113992	0	0
0	0	0	-0.110997	6.003365	-17.782467	6.003365	9093.5	-7.064527E-12	-1.415523E+11	0.874616	0.113636	0	0
0	0	0	-0.111364	6.003299	-17.782745	6.003299	9092	-7.98331E-12	-1.252613E+11	0.898953	0.113016	0	0
0	0	0	-0.111405	6.003458	-17.783264	6.003458	9091.5	-6.08181E-12	-1.644247E+11	0.855445	0.11266	0	0
0	0	0	-0.110711	6.003497	-17.782487	6.003497	9095	-5.742281E-12	-1.741468E+11	0.849111	0.112027	0	0
0	0	0	-0.110588	6.003392	-17.782019	6.003392	9095.5	-6.754731E-12	-1.480444E+11	0.828477	0.111803	0	0
0	0	0	-0.110302	6.003365	-17.781574	6.003365	9097	-7.067246E-12	-1.414978E+11	0.844944	0.111064	0	0
0	0	0	-0.110752	6.003576	-17.782773	6.003576	9095	-5.162155E-12	-1.937175E+11	0.799973	0.110814	0	0
0	0	0	-0.109567	6.003411	-17.780764	6.003411	9100.5	-6.542244E-12	-1.528528E+11	0.829607	0.110114	0	0
0	0	0	-0.112099	6.003504	-17.784293	6.003504	9088.5	-5.684938E-12	-1.759034E+11	0.780765	0.109719	0	0
0	0	0	-0.112262	6.003398	-17.784192	6.003398	9087.5	-6.675258E-12	-1.498069E+11	0.779971	0.109191	0	0
0	0	0	-0.112589	6.003636	-17.785312	6.003636	9085.5	-4.793554E-12	-2.086135E+11	0.745031	0.108993	0	0
0	0	0	-0.11263	6.003418	-17.784723	6.003418	9085.5	-6.462548E-12	-1.547377E+11	0.755337	0.108136	0	0
0	0	0	-0.111813	6.003385	-17.783576	6.003385	9089.5	-6.825462E-12	-1.465102E+11	0.72087	0.107806	0	0
0	0	0	-0.112957	6.003484	-17.785338	6.003484	9084	-5.84481E-12	-1.71092E+11	0.726904	0.107226	0	0
0	0	0	-0.113447	6.003636	-17.786415	6.003636	9081.5	-4.791444E-12	-2.087054E+11	0.71437	0.107015	0	0
0	0	0	-0.111732	6.00355	-17.783956	6.00355	9090	-5.339116E-12	-1.872969E+11	0.723864	0.106263	0	0
0	0	0	-0.112671	6.003411	-17.784757	6.003411	9085.5	-6.53146E-12	-1.531051E+11	0.650183	0.106144	0	0
0	0	0	-0.111691	6.003477	-17.78369	6.003477	9090	-5.905027E-12	-1.693472E+11	0.683417	0.105313	0	0
0	0	0	-0.113528	6.003497	-17.786112	6.003497	9081.5	-5.733758E-12	-1.744057E+11	0.656466	0.105115	0	0
0	0	0	-0.112303	6.003708	-17.785158	6.003708	9087	-4.414335E-12	-2.265347E+11	0.645889	0.104535	0	0
0	0	0	-0.113773	6.003372	-17.786058	6.003372	9080	-6.973679E-12	-1.433963E+11	0.633778	0.104179	0	0
0	0	0	-0.113324	6.003464	-17.785752	6.003464	9082	-6.015763E-12	-1.662299E+11	0.641385	0.103704	0	0
0	0	0	-0.113733	6.003425	-17.786161	6.003425	9080	-6.391204E-12	-1.56465E+11	0.600611	0.103321	0	0
0	0	0	-0.113733	6.00359	-17.786647	6.00359	9080	-5.068302E-12	-1.973047E+11	0.611195	0.102728	0	0
0	0	0	-0.112099	6.00357	-17.784487	6.00357	9088.5	-5.202264E-12	-1.92224E+11	0.600786	0.102424	0	0
0	0	0	-0.112548	6.003629	-17.78524	6.003629	9086	-4.83163E-12	-2.069695E+11	0.581671	0.101949	0	0
0	0	0	-0.112099	6.003649	-17.78472	6.003649	9088.5	-4.721241E-12	-2.118087E+11	0	0	0	0
0	0	0	-0.113161	6.003689	-17.786203	6.003689	9083	-4.509882E-12	-2.217353E+11	0	0	0	0
0	0	0	-0.111527	6.003464	-17.783441	6.003464	9091	-6.021725E-12	-1.660654E+11	0	0	0	0
0	0	0	-0.112385	6.003444	-17.784486	6.003444	9087	-6.201878E-12	-1.612415E+11	0	0	0	0
0	0	0	-0.112793	6.003378	-17.784817	6.003378	9085	-6.898926E-12	-1.449501E+11	0	0	0	0
0	0	0	-0.1141	6.003524	-17.786925	6.003524	9078.5	-5.5249E-12	-1.809988E+11	0	0	0	0
0	0	0	-0.113855	6.003682	-17.787076	6.003682	9079.5	-4.541593E-12	-2.201871E+11	0	0	0	0
0	0	0	-0.113733	6.00355	-17.78653	6.00355	9080	-5.333242E-12	-1.875032E+11	0	0	0	0
0	0	0	-0.113161	6.003695	-17.786222	6.003695	9083	-4.47691E-12	-2.233683E+11	0	0	0	0
0	0	0	-0.115284	6.003642	-17.788799	6.003642	9072.5	-4.749526E-12	-2.105473E+11	0	0	0	0
0	0	0	-0.114999	6.00355	-17.788159	6.00355	9074	-5.329718E-12	-1.876272E+11	0	0	0	0
0	0	0	-0.114549	6.003543	-17.787562	6.003543	9076.5	-5.378042E-12	-1.859413E+11	0	0	0	0
0	0	0	-0.114794	6.003708	-17.788362	6.003708	9075	-4.408506E-12	-2.268342E+11	0	0	0	0
0	0	0	-0.114713	6.00355	-17.787791	6.00355	9075.5	-5.330599E-12	-1.875962E+11	0	0	0	0
0	0	0	-0.114876	6.003596	-17.788137	6.003596	9074.5	-5.023639E-12	-1.990589E+11	0	0	0	0
0	0	0	-0.114794	6.003477	-17.787683	6.003477	9075	-5.895283E-12	-1.696271E+11	0	0	0	0
0	0	0	-0.113488	6.003642	-17.786487	6.003642	9081.5	-4.754237E-12	-2.103387E+11	0	0	0	0
0	0	0	-0.113651	6.00355	-17.786425	6.00355	9080.5	-5.333536E-12	-1.874929E+11	0	0	0	0
0	0	0	-0.113692	6.003596	-17.786614	6.003596	9080.5	-5.026961E-12	-1.989274E+11	0	0	0	0
0	0	0	-0.113896	6.003576	-17.786818	6.003576	9079.5	-5.153358E-12	-1.940482E+11	0	0	0	0
0	0	0	-0.112222	6.003616	-17.784781	6.003616	9087.5	-4.909883E-12	-2.036708E+11	0	0	0	0
0	0	0	-0.112467	6.003471	-17.784669	6.003471	9086.5	-5.960184E-12	-1.6778E+11	0	0	0	0
0	0	0	-0.112181	0	-0.112181	0	9087.5	0	0	0	0	0	0
0	0	0	-0.111732	0	-0.111732	0	9090	0	0	0	0	0	0
