Vload_(V)	ILoad_(A)	RsLoad (ohm)	SunsVoc_Voltage_(V)	SunsVoc_Current_(A)	Model_Voltage_(V)	Model_Current_(A)	Carrier_Density_(cm-3)	Lifetime_(s)	Inverse_Lifetime_(s-1)	Efficiency_(%)	Intensity_(suns)	Dark_IV_Voltage_(V)	Dark_IV_Current_(A)
2.803067	6.049518	0	51.990005	0.035628	51.971203	0.035628	7.721053E+15	0.000571	1651.978188	19.901345	1.089892	0	0
2.807074	6.051658	-0.504287	52.640083	-0.361114	52.819277	-0.361114	9.713629E+15	0.000674	1326.952311	19.861966	1.089826	0	0
3.398956	6.050357	0.954988	52.812618	-0.261672	52.940277	-0.261672	1.030953E+16	0.000727	1199.709927	19.822375	1.087939	0	0
6.741926	6.04508	4.175874	52.795793	0.047702	52.772482	0.047702	1.02501E+16	0.00076	1141.867815	19.617371	1.087939	0	0
10.565258	6.026192	4.753044	52.718367	0.402092	52.520364	0.402092	9.980302E+15	0.000786	1106.687632	19.56688	1.084734	0	0
13.966487	6.024186	4.238278	52.612314	0.755912	52.236193	0.755912	9.620489E+15	0.000808	1083.294443	19.488311	1.083455	0	0
17.638459	6.019781	3.721998	52.497645	1.085877	51.951306	1.085877	9.243786E+15	0.000828	1065.25473	19.336437	1.085038	0	0
21.243831	6.013309	3.234255	52.379423	1.389893	51.672157	1.389893	8.86846E+15	0.000847	1050.563573	19.352676	1.082993	0	0
24.823963	6.007404	2.720708	52.26455	1.67209	51.404371	1.67209	8.516085E+15	0.000865	1035.113243	19.384407	1.080157	0	0
28.385187	6.006996	2.133264	52.143878	1.944009	51.132441	1.944009	8.158616E+15	0.000884	1020.713383	19.262623	1.07955	0	0
32.018907	6.006457	1.534425	52.02345	2.189963	50.871261	2.189963	7.814455E+15	0.000901	1008.905651	19.290922	1.07438	0	0
35.594396	5.986714	1.13432	51.903595	2.416277	50.618295	2.416277	7.484034E+15	0.000916	998.337717	19.273964	1.069868	0	0
36.641713	5.969117	1.081642	51.78329	2.632856	50.367427	2.632856	7.164158E+15	0.000933	986.884073	19.147999	1.068114	0	0
37.698409	5.945176	1.028666	51.660617	2.849193	50.111469	2.849193	6.849776E+15	0.000952	972.404632	19.144254	1.064091	0	0
38.749731	5.913016	0.974987	51.528266	3.055432	49.847376	3.055432	6.523529E+15	0.000969	961.104322	19.178742	1.059896	0	0
39.837614	5.869	0.918386	51.401305	3.239599	49.599157	3.239599	6.222793E+15	0.000985	950.799707	19.070506	1.058445	0	0
40.868589	5.812712	0.866007	51.27512	3.410979	49.356767	3.410979	5.935377E+15	0.001001	940.846283	19.121527	1.052562	0	0
41.922075	5.739133	0.807423	51.158654	3.565121	49.133479	3.565121	5.679949E+15	0.001017	929.705536	19.149351	1.046666	0	0
42.981749	5.633339	0.757601	51.032591	3.714404	48.899914	3.714404	5.413807E+15	0.001031	920.956958	19.044108	1.043342	0	0
44.037911	5.482609	0.715849	50.909265	3.847677	48.67706	3.847677	5.163522E+15	0.001043	914.329078	19.052614	1.037565	0	0
45.063218	5.268326	0.68788	50.793452	3.968919	48.468624	3.968919	4.93729E+15	0.001056	906.843534	19.08563	1.031365	0	0
46.069673	4.988317	0.658857	50.674495	4.086413	48.257275	4.086413	4.713531E+15	0.001068	899.363445	18.972606	1.028793	0	0
47.060952	4.590178	0.648104	50.558928	4.192785	48.055292	4.192785	4.504266E+15	0.001079	892.974725	19.013425	1.022606	0	0
48.019976	4.086375	0.645164	50.441073	4.29507	47.851818	4.29507	4.298859E+15	0.00109	886.766213	19.053721	1.016407	0	0
48.936842	3.497118	0.645137	50.323668	4.389122	47.65273	4.389122	4.102033E+15	0.001099	881.990418	18.964788	1.012621	0	0
49.816633	2.824085	0.652647	50.210306	4.476638	47.461506	4.476638	3.919154E+15	0.001108	876.686697	18.99702	1.005577	0	0
50.620625	2.116133	0.687759	50.087837	4.564616	47.257911	4.564616	3.729265E+15	0.001117	872.002999	19.03314	0.998652	0	0
51.358083	1.37578	0.738723	49.972637	4.643848	47.067652	4.643848	3.557712E+15	0.001126	867.17629	18.920921	0.995236	0	0
52.00655	0.685127	0.787299	49.851597	4.721913	46.870068	4.721913	3.384618E+15	0.001134	862.745432	18.962885	0.988628	0	0
42.8737	5.645383	0.762483	49.730762	4.794353	46.675404	4.794353	3.218906E+15	0.001141	859.365796	19.008424	0.982256	0	0
52.606631	0	0	49.615521	4.860516	46.490841	4.860516	3.067263E+15	0.001148	855.79444	18.92014	0.978642	0	0
0	0	0	49.496319	4.924797	46.301852	4.924797	2.916777E+15	0.001154	852.706762	18.986231	0.971598	0	0
0	0	0	49.381895	4.982305	46.122484	4.982305	2.778229E+15	0.001158	850.712177	19.086652	0.965096	0	0
0	0	0	49.266082	5.038062	45.941906	5.038062	2.643708E+15	0.001163	848.451088	19.021493	0.961363	0	0
0	0	0	49.149371	5.090132	45.762035	5.090132	2.513774E+15	0.001166	847.454456	19.065141	0.954596	0	0
0	0	0	49.037847	5.139603	45.589798	5.139603	2.394731E+15	0.001171	844.634315	19.077611	0.948383	0	0
0	0	0	48.919584	5.1872	45.40986	5.1872	2.273784E+15	0.001173	843.947855	18.964015	0.944967	0	0
0	0	0	48.809774	5.229031	45.243908	5.229031	2.166205E+15	0.001174	843.670373	19.018612	0.938015	0	0
0	0	0	48.693431	5.270659	45.069446	5.270659	2.057025E+15	0.001175	844.135934	19.034812	0.931934	0	0
0	0	0	48.58403	5.307883	44.906296	5.307883	1.958721E+15	0.001175	844.78715	18.931642	0.92807	0	0
0	0	0	48.471892	5.343823	44.740203	5.343823	1.862204E+15	0.001174	846.129292	18.97606	0.920947	0	0
0	0	0	48.357877	5.378487	44.572248	5.378487	1.768332E+15	0.001172	847.851337	18.998036	0.914919	0	0
0	0	0	48.249578	5.409983	44.413375	5.409983	1.683014E+15	0.001171	849.515938	18.882264	0.911529	0	0
0	0	0	48.137073	5.440959	44.249226	5.440959	1.598217E+15	0.001168	851.730809	18.960432	0.904261	0	0
0	0	0	48.024364	5.47016	44.085759	5.47016	1.517052E+15	0.001165	854.675891	18.959595	0.898997	0	0
0	0	0	47.915984	5.496961	43.929196	5.496961	1.442453E+15	0.001161	857.672136	18.877905	0.895304	0	0
0	0	0	47.802458	5.523569	43.765969	5.523569	1.367812E+15	0.001157	861.283383	18.94564	0.888379	0	0
0	0	0	47.690852	5.547864	43.606588	5.547864	1.297797E+15	0.001151	866.141997	18.95107	0.882971	0	0
0	0	0	47.582186	5.570881	43.451626	5.570881	1.232716E+15	0.001146	870.317604	18.852728	0.879594	0	0
0	0	0	47.467598	5.594118	43.28873	5.594118	1.167268E+15	0.00114	874.768076	18.960075	0.872089	0	0
0	0	0	47.35738	5.615664	43.132408	5.615664	1.107279E+15	0.001135	878.765738	18.932581	0.867617	0	0
0	0	0	47.243242	5.635732	42.971984	5.635732	1.048101E+15	0.001127	885.669092	18.857105	0.863752	0	0
0	0	0	47.132575	5.65521	42.81621	5.65521	9.934722E+14	0.001121	890.579522	18.9475	0.856603	0	0
0	0	0	47.023133	5.672867	42.66319	5.672867	9.420057E+14	0.001113	897.357024	18.914316	0.851947	0	0
0	0	0	46.91169	5.690714	42.507282	5.690714	8.921079E+14	0.001106	902.811142	18.836174	0.84828	0	0
0	0	0	46.798695	5.706682	42.350664	5.706682	8.439962E+14	0.001095	911.956736	18.935388	0.840708	0	0
0	0	0	46.692479	5.721937	42.203091	5.721937	8.009557E+14	0.001088	918.328896	18.877248	0.836975	0	0
0	0	0	46.57589	5.737823	42.041604	5.737823	7.560474E+14	0.001079	925.821769	18.830703	0.832728	0	0
0	0	0	46.468899	5.75135	41.894088	5.75135	7.168962E+14	0.00107	934.113081	18.915886	0.825856	0	0
0	0	0	46.354515	5.765472	41.736497	5.765472	6.771266E+14	0.00106	942.235003	18.836195	0.822452	0	0
0	0	0	46.244461	5.778147	41.585458	5.778147	6.408095E+14	0.00105	951.29335	18.804065	0.817862	0	0
0	0	0	46.134488	5.789713	41.435289	5.789713	6.063428E+14	0.001038	962.600829	18.892751	0.810977	0	0
0	0	0	46.024188	5.801701	41.284233	5.801701	5.735238E+14	0.00103	970.793789	18.807954	0.808088	0	0
0	0	0	45.912827	5.812639	41.132551	5.812639	5.42087E+14	0.001018	981.82137	18.794819	0.803247	0	0
0	0	0	45.804324	5.822847	40.985021	5.822847	5.130242E+14	0.001007	992.794164	18.875794	0.796797	0	0
0	0	0	45.688552	5.832902	40.828186	5.832902	4.836407E+14	0.000993	1006.447925	18.751342	0.794396	0	0
0	0	0	45.581479	5.842228	40.683012	5.842228	4.578899E+14	0.000983	1017.325353	18.771275	0.789001	0	0
0	0	0	45.465707	5.851896	40.526287	5.851896	4.315143E+14	0.000971	1029.202169	18.829969	0.783171	0	0
0	0	0	45.355652	5.860054	40.378077	5.860054	4.07787E+14	0.000957	1044.165494	18.722682	0.780757	0	0
0	0	0	45.242943	5.868358	40.226246	5.868358	3.847808E+14	0.000945	1058.128907	18.762535	0.775098	0	0
0	0	0	45.129908	5.876511	40.074035	5.876511	3.629577E+14	0.000933	1071.295438	18.799025	0.769756	0	0
0	0	0	45.018424	5.883774	39.924499	5.883774	3.425995E+14	0.00092	1087.335561	18.671928	0.767382	0	0
0	0	0	44.902611	5.891184	39.769191	5.891184	3.226144E+14	0.000906	1103.093527	18.74486	0.760984	0	0
0	0	0	44.790188	5.89797	39.618707	5.89797	3.042906E+14	0.000893	1119.416834	18.74283	0.756618	0	0
0	0	0	44.677887	5.904679	39.468373	5.904679	2.86991E+14	0.000881	1134.369146	18.635753	0.753967	0	0
0	0	0	44.563341	5.911055	39.315373	5.911055	2.703262E+14	0.000868	1151.306669	18.723399	0.747741	0	0
0	0	0	44.44859	5.916849	39.16256	5.916849	2.545728E+14	0.000854	1171.411878	18.703355	0.743573	0	0
0	0	0	44.338209	5.922348	39.01557	5.922348	2.402614E+14	0.00084	1189.748012	18.598481	0.740974	0	0
0	0	0	44.220518	5.928215	38.858778	5.928215	2.258635E+14	0.000828	1207.21497	18.696017	0.73455	0	0
0	0	0	44.110381	5.933328	38.712335	5.933328	2.131524E+14	0.000816	1225.300314	18.616402	0.731648	0	0
0	0	0	43.991465	5.938375	38.554589	5.938375	2.002105E+14	0.000801	1247.854219	18.564436	0.728179	0	0
0	0	0	43.878184	5.94288	38.404543	5.94288	1.885968E+14	0.000787	1271.008088	18.670391	0.722072	0	0
0	0	0	43.764863	5.947163	38.254601	5.947163	1.776384E+14	0.000772	1295.23104	18.573893	0.719619	0	0
0	0	0	43.647744	5.951491	38.099676	5.951491	1.669677E+14	0.000758	1319.740327	18.550872	0.715688	0	0
0	0	0	43.534994	5.95551	37.950623	5.95551	1.572895E+14	0.000744	1343.508284	18.643486	0.709541	0	0
0	0	0	43.41424	5.959813	37.790942	5.959813	1.475342E+14	0.000732	1366.792638	18.499946	0.707826	0	0
0	0	0	43.29708	5.963342	37.636578	5.963342	1.38638E+14	0.000716	1397.289634	18.511432	0.703025	0	0
0	0	0	43.180001	5.967163	37.481999	5.967163	1.302753E+14	0.000704	1421.050422	18.570053	0.697986	0	0
0	0	0	43.059574	5.970301	37.323716	5.970301	1.221913E+14	0.000686	1457.341274	18.43484	0.696232	0	0
0	0	0	42.943639	5.973581	37.171052	5.973581	1.148764E+14	0.000673	1485.950253	18.501325	0.691127	0	0
0	0	0	42.820435	5.976913	37.008925	5.976913	1.075757E+14	0.000659	1517.181585	18.524003	0.68651	0	0
0	0	0	42.698946	5.979706	36.849498	5.979706	1.008254E+14	0.000642	1556.488869	18.392767	0.684809	0	0
0	0	0	42.578152	5.982621	36.690814	5.982621	9.452867E+13	0.000629	1590.847921	18.467089	0.679018	0	0
0	0	0	42.453192	5.985336	36.52692	5.985336	8.842372E+13	0.000613	1631.668041	18.44763	0.675826	0	0
0	0	0	42.335378	5.987889	36.372374	5.987889	8.302568E+13	0.000599	1668.622292	18.342838	0.673386	0	0
0	0	0	42.203762	5.990434	36.199997	5.990434	7.738017E+13	0.000583	1716.443858	18.450661	0.667423	0	0
0	0	0	42.071533	5.993017	36.026757	5.993017	7.209137E+13	0.000568	1761.802586	18.365134	0.665089	0	0
0	0	0	41.94445	5.995458	35.860271	5.995458	6.734642E+13	0.000554	1804.471608	18.305558	0.661844	0	0
0	0	0	41.818918	5.997545	35.696117	5.997545	6.296365E+13	0.000539	1855.550474	18.387001	0.656093	0	0
0	0	0	41.695551	5.999602	35.534764	5.999602	5.893234E+13	0.000525	1904.027364	18.274999	0.654299	0	0
0	0	0	41.558258	6.001847	35.355215	6.001847	5.474659E+13	0.000511	1957.417122	18.250171	0.650487	0	0
0	0	0	41.430562	6.003892	35.188234	6.003892	5.111898E+13	0.000498	2006.41208	18.331132	0.645013	0	0
0	0	0	41.301722	6.005832	35.01986	6.005832	4.770096E+13	0.000486	2058.727729	18.163183	0.643891	0	0
0	0	0	41.1737	6.007266	34.85305	6.007266	4.452972E+13	0.000469	2132.985998	18.237447	0.638668	0	0
0	0	0	41.040001	6.009439	34.67811	6.009439	4.144151E+13	0.00046	2174.072745	18.248541	0.634618	0	0
0	0	0	40.907854	6.010599	34.506223	6.010599	3.859861E+13	0.000441	2266.59298	18.127805	0.633062	0	0
0	0	0	40.774277	6.012596	34.33158	6.012596	3.59222E+13	0.000433	2310.507742	18.206493	0.627561	0	0
0	0	0	40.640537	6.013957	34.157386	6.013957	3.342763E+13	0.000418	2391.40074	18.160493	0.624514	0	0
0	0	0	40.505082	6.015466	33.980798	6.015466	3.107689E+13	0.000406	2463.191423	18.05052	0.622641	0	0
0	0	0	40.363216	6.016825	33.796072	6.016825	2.879126E+13	0.000392	2552.617083	18.179154	0.616653	0	0
0	0	0	40.226903	6.018216	33.618467	6.018216	2.675307E+13	0.00038	2630.20189	18.047868	0.615044	0	0
0	0	0	40.085527	6.019391	33.43454	6.019391	2.479097E+13	0.000366	2731.769082	18.034792	0.611561	0	0
0	0	0	39.945499	6.020842	33.252031	6.020842	2.298904E+13	0.000357	2804.037551	18.108148	0.606509	0	0
0	0	0	39.801264	6.021932	33.064473	6.021932	2.126944E+13	0.000343	2915.564116	17.954146	0.605164	0	0
0	0	0	39.658213	6.023178	32.878253	6.023178	1.96907E+13	0.000333	3007.103502	17.970615	0.600969	0	0
0	0	0	39.512222	6.023941	32.688764	6.023941	1.819999E+13	0.000317	3159.136748	18.013821	0.596498	0	0
0	0	0	39.36517	6.0255	32.496985	6.0255	1.681226E+13	0.000311	3211.367061	17.854379	0.595535	0	0
0	0	0	39.213503	6.026263	32.300134	6.026263	1.549152E+13	0.000296	3374.544271	17.955105	0.58981	0	0
0	0	0	39.063592	6.027042	32.105522	6.027042	1.428787E+13	0.000283	3536.166668	17.904241	0.587383	0	0
0	0	0	38.909719	6.027958	31.905621	6.027958	1.314944E+13	0.000271	3685.712475	17.787102	0.585272	0	0
0	0	0	38.753764	6.02904	31.702821	6.02904	1.208798E+13	0.000263	3808.105495	17.893754	0.57968	0	0
0	0	0	38.593726	6.029895	31.494995	6.029895	1.108761E+13	0.000251	3978.521389	17.76464	0.578163	0	0
0	0	0	38.434953	6.030674	31.288881	6.030674	1.017687E+13	0.00024	4162.401386	17.719409	0.575129	0	0
0	0	0	38.270463	6.031587	31.075206	6.031587	9.312065E+12	0.000231	4328.619351	17.797739	0.569985	0	0
0	0	0	38.103401	6.032249	30.858493	6.032249	8.508836E+12	0.000219	4562.216853	17.651799	0.569114	0	0
0	0	0	37.930295	6.032988	30.633865	6.032988	7.749486E+12	0.000209	4795.061523	17.695938	0.56451	0	0
0	0	0	37.756617	6.033826	30.408364	6.033826	7.055661E+12	0.0002	4999.558151	17.713025	0.560923	0	0
0	0	0	37.582367	6.034309	30.182546	6.034309	6.421921E+12	0.000188	5323.689444	17.561029	0.559735	0	0
0	0	0	37.402727	6.035328	29.94909	6.035328	5.828065E+12	0.000183	5473.118816	17.67116	0.554341	0	0
0	0	0	37.217982	6.035977	29.709478	6.035977	5.274522E+12	0.000173	5770.89314	17.555882	0.552362	0	0
0	0	0	37.033074	6.036465	29.469845	6.036465	4.773101E+12	0.000163	6147.331379	17.495054	0.550001	0	0
0	0	0	36.839713	6.036981	29.21924	6.036981	4.299638E+12	0.000153	6554.577591	17.571152	0.545054	0	0
0	0	0	36.648883	6.037704	28.971636	6.037704	3.878418E+12	0.000146	6847.551729	17.438431	0.543973	0	0
0	0	0	36.449437	6.038361	28.712963	6.038361	3.482195E+12	0.000139	7202.168736	17.433749	0.540438	0	0
0	0	0	36.243703	6.038817	28.446407	6.038817	3.115827E+12	0.00013	7720.211559	17.495646	0.53623	0	0
0	0	0	36.03711	6.039116	28.178938	6.039116	2.7867E+12	0.000119	8390.721715	17.298178	0.5359	0	0
0	0	0	35.826557	6.039687	27.905985	6.039687	2.486998E+12	0.000113	8886.004851	17.395575	0.53069	0	0
0	0	0	35.611144	6.040341	27.626627	6.040341	2.213698E+12	0.000107	9318.283842	17.32192	0.52854	0	0
0	0	0	35.391239	6.040503	27.342106	6.040503	1.965646E+12	9.699326E-5	10309.994936	17.224614	0.52664	0	0
0	0	0	35.170435	6.040946	27.056039	6.040946	1.744535E+12	9.05387E-5	11045.001205	17.321726	0.521615	0	0
0	0	0	34.94857	6.041473	26.768478	6.041473	1.547403E+12	8.55679E-5	11686.625564	17.198429	0.520414	0	0
0	0	0	34.72107	6.041678	26.474059	6.041678	1.368369E+12	7.76476E-5	12878.698769	17.177257	0.517328	0	0
0	0	0	34.49655	6.042052	26.183256	6.042052	1.211996E+12	7.222102E-5	13846.384247	17.247399	0.512935	0	0
0	0	0	34.270029	6.042438	25.889843	6.042438	1.072331E+12	6.737478E-5	14842.348578	17.046076	0.512685	0	0
0	0	0	34.040528	6.042702	25.592736	6.042702	9.472308E+11	6.182198E-5	16175.476936	17.136853	0.507738	0	0
0	0	0	33.807188	6.043177	25.290363	6.043177	8.34989E+11	5.858223E-5	17070.023758	17.044336	0.505891	0	0
0	0	0	33.572786	6.043317	24.987082	6.043317	7.356236E+11	5.277763E-5	18947.421515	16.973656	0.503728	0	0
0	0	0	33.333973	6.04353	24.677991	6.04353	6.465388E+11	4.803573E-5	20817.835197	17.070375	0.49894	0	0
0	0	0	33.096549	6.043947	24.370395	6.043947	5.686681E+11	4.541428E-5	22019.506453	16.928399	0.498228	0	0
0	0	0	32.854347	6.044198	24.056854	6.044198	4.988856E+11	4.171846E-5	23970.202566	16.92234	0.494996	0	0
0	0	0	32.601528	6.044422	23.729618	6.044422	4.351611E+11	3.79855E-5	26325.835419	16.967872	0.49096	0	0
0	0	0	32.359	6.044783	23.41548	6.044783	3.816933E+11	3.585805E-5	27887.740761	16.76697	0.490709	0	0
0	0	0	32.105976	6.044957	23.088041	6.044957	3.329008E+11	3.247E-5	30797.658038	16.874735	0.485683	0	0
0	0	0	31.859282	6.045189	22.768695	6.045189	2.913404E+11	2.994279E-5	33397.023336	16.784885	0.484035	0	0
0	0	0	31.610669	6.045395	22.446902	6.045395	2.54704E+11	2.748079E-5	36389.052884	16.693747	0.482162	0	0
0	0	0	31.359197	6.045779	22.121135	6.045779	2.223307E+11	2.645291E-5	37803.028298	16.778802	0.477439	0	0
0	0	0	31.108665	6.045983	21.796851	6.045983	1.941706E+11	2.443599E-5	40923.249435	16.599196	0.477215	0	0
0	0	0	30.849761	6.045954	21.462098	6.045954	1.688114E+11	2.107142E-5	47457.657178	16.648369	0.473205	0	0
0	0	0	30.593675	6.04635	21.130324	6.04635	1.469879E+11	2.064034E-5	48448.816969	16.642894	0.470224	0	0
0	0	0	30.333586	6.04638	20.793943	6.04638	1.27709E+11	1.810345E-5	55238.100679	16.479465	0.469472	0	0
0	0	0	30.073008	6.046881	20.456177	6.046881	1.109293E+11	1.871581E-5	53430.760318	16.591568	0.464592	0	0
0	0	0	29.808183	6.046897	20.113685	6.046897	9.613335E+10	1.63172E-5	61285.031924	16.443578	0.463787	0	0
0	0	0	29.54348	6.046839	19.77147	6.046839	8.331638E+10	1.383687E-5	72270.698418	16.405052	0.46107	0	0
0	0	0	29.274775	6.047293	19.423247	6.047293	7.205217E+10	1.440894E-5	69401.364366	16.483497	0.45702	0	0
0	0	0	29.003008	6.047189	19.071969	6.047189	6.220777E+10	1.188124E-5	84166.300103	16.288711	0.457139	0	0
0	0	0	28.730179	6.047403	18.718793	6.047403	5.367757E+10	1.129089E-5	88566.976991	16.393029	0.45243	0	0
0	0	0	28.449509	6.047564	18.355561	6.047564	4.612116E+10	1.050067E-5	95232.051131	16.299644	0.450953	0	0
0	0	0	28.17133	6.047518	17.995893	6.047518	3.96819E+10	8.829466E-6	113257.137402	16.20928	0.449277	0	0
0	0	0	27.892375	6.048071	17.634208	6.048071	3.412733E+10	1.049651E-5	95269.73219	16.288329	0.444859	0	0
0	0	0	27.607948	6.047946	17.266591	6.047946	2.926359E+10	8.282184E-6	120741.098554	16.094844	0.444687	0	0
0	0	0	27.323603	6.04812	16.898567	6.04812	2.509412E+10	7.984219E-6	125247.065667	16.150043	0.440901	0	0
0	0	0	27.03738	6.048213	16.528248	6.048213	2.149687E+10	7.331336E-6	136400.780026	16.121402	0.438422	0	0
0	0	0	26.746623	6.048294	16.152088	6.048294	1.837022E+10	6.67647E-6	149779.742384	15.944159	0.43792	0	0
0	0	0	26.455622	6.04846	15.775457	6.04846	1.569625E+10	6.604399E-6	151414.221961	16.075914	0.432789	0	0
0	0	0	26.159025	6.048494	15.391822	6.048494	1.3371E+10	5.811292E-6	172078.762267	15.898604	0.43304	0	0
0	0	0	25.863981	6.048521	15.010205	6.048521	1.139978E+10	5.088715E-6	196513.282362	15.934206	0.429518	0	0
0	0	0	25.565139	6.048635	14.623519	6.048635	9.699228E+9	4.885432E-6	204690.174717	15.930484	0.426959	0	0
0	0	0	25.265521	6.048728	14.235864	6.048728	8.248895E+9	4.64616E-6	215231.482855	15.767563	0.426339	0	0
0	0	0	24.968516	6.048728	13.851756	6.048728	7.025349E+9	3.958187E-6	252640.934027	15.876203	0.421907	0	0
0	0	0	24.667387	6.048881	13.462032	6.048881	5.969965E+9	4.173024E-6	239634.361597	15.69065	0.421524	0	0
0	0	0	24.363931	6.049028	13.069305	6.049028	5.066746E+9	4.600408E-6	217372.002694	15.693904	0.418794	0	0
0	0	0	24.060801	6.049234	12.676883	6.049234	4.300938E+9	6.745063E-6	148256.589137	15.740803	0.415312	0	0
0	0	0	23.754036	6.049294	12.280033	6.049294	3.643711E+9	7.246693E-6	137993.974262	15.544427	0.415496	0	0
0	0	0	23.447353	6.049121	11.883731	6.049121	3.087051E+9	3.463905E-6	288691.524262	15.666642	0.410669	0	0
0	0	0	23.119885	6.049341	11.459797	6.049341	2.586211E+9	6.503595E-6	153761.107046	15.52454	0.410471	0	0
0	0	0	22.802462	6.049208	11.049532	6.049208	2.178424E+9	3.127945E-6	319698.758619	15.481746	0.408057	0	0
0	0	0	22.487653	6.049294	10.642222	6.049294	1.83753E+9	3.660746E-6	273168.357351	15.529236	0.404522	0	0
0	0	0	22.172762	6.049314	10.234935	6.049314	1.549913E+9	3.391657E-6	294841.148868	15.315939	0.404746	0	0
0	0	0	21.856074	6.049281	9.82543	6.049281	1.306046E+9	2.456786E-6	407035.800441	15.435679	0.400208	0	0
0	0	0	21.53126	6.049341	9.405229	6.049341	1.095725E+9	2.760207E-6	362291.668337	15.285024	0.399509	0	0
0	0	0	21.207303	6.04962	8.985692	6.04962	9.196999E+8	-3.98235E-6	-251108.013761	15.255758	0.397201	0	0
0	0	0	20.881672	6.049448	8.564901	6.049448	7.712543E+8	4.892314E-6	204402.266896	15.276575	0.394062	0	0
0	0	0	20.551672	6.04962	8.137755	6.04962	6.452429E+8	-2.792393E-6	-358115.775875	15.103111	0.394128	0	0
0	0	0	20.219303	6.04962	7.707898	6.04962	5.391291E+8	-2.332669E-6	-428693.544671	15.183504	0.389696	0	0
0	0	0	19.881217	6.049674	7.270536	6.049674	4.490763E+8	-1.280325E-6	-781051.834669	15.045738	0.389234	0	0
0	0	0	19.53921	6.04972	6.828116	6.04972	3.732734E+8	-8.196098E-7	-1220092.795568	15.018407	0.386912	0	0
0	0	0	19.188138	6.049953	6.373575	6.049953	3.087491E+8	-3.154826E-7	-3169746.743138	15.068237	0.383588	0	0
0	0	0	18.832737	6.04972	5.914422	6.04972	2.547816E+8	-5.593586E-7	-1787761.938415	14.847517	0.38376	0	0
0	0	0	18.474151	6.0497	5.450699	6.0497	2.098856E+8	-5.110852E-7	-1956620.757159	14.975315	0.37913	0	0
0	0	0	18.1114	6.049867	4.981186	6.049867	1.72512E+8	-2.199296E-7	-4546910.313426	14.752676	0.379499	0	0
0	0	0	17.746321	6.049687	4.509413	6.049687	1.41615E+8	-3.718837E-7	-2689012.844241	14.790145	0.376241	0	0
0	0	0	17.373646	6.050026	4.026679	6.050026	1.157754E+8	-1.012741E-7	-9874190.92028	14.738265	0.374052	0	0
0	0	0	16.994151	6.04988	3.536192	6.04988	9.430229E+7	-1.158028E-7	-8635366.09457	14.605055	0.373458	0	0
0	0	0	16.606776	6.0497	3.035591	6.0497	7.648527E+7	-1.862147E-7	-5370145.22825	14.697048	0.369395	0	0
0	0	0	16.214744	6.049774	2.528405	6.049774	6.187859E+7	-1.075816E-7	-9295267.262069	14.513165	0.369659	0	0
0	0	0	15.814872	6.04982	2.011137	6.04982	4.984967E+7	-7.332732E-8	-1.363748E+7	14.557521	0.366243	0	0
0	0	0	15.414592	6.049853	1.493369	6.049853	4.015025E+7	-5.320933E-8	-1.87937E+7	14.493177	0.364752	0	0
0	0	0	15.004144	6.0499	0.962418	6.0499	3.216081E+7	-3.743044E-8	-2.671622E+7	14.363258	0.36375	0	0
0	0	0	14.587774	6.049887	0.423947	6.049887	2.567885E+7	-3.096365E-8	-3.229593E+7	14.458752	0.359542	0	0
0	0	0	14.164625	6.050133	-0.123903	6.050133	2.042832E+7	-1.477724E-8	-6.767163E+7	14.226641	0.360294	0	0
0	0	0	13.732247	6.04986	-0.682464	6.04986	1.617049E+7	-2.101333E-8	-4.758884E+7	14.340165	0.355994	0	0
0	0	0	13.295663	6.049973	-1.247381	6.049973	1.277104E+7	-1.247585E-8	-8.015485E+7	14.170845	0.355717	0	0
0	0	0	12.861325	6.050086	-1.809397	6.050086	1.009849E+7	-7.903116E-9	-1.265324E+8	14.138855	0.353316	0	0
0	0	0	12.428662	6.05002	-2.368813	6.05002	7992445	-7.083601E-9	-1.411711E+8	14.153245	0.350849	0	0
0	0	0	11.98828	6.049933	-2.93816	6.049933	6299281	-6.744599E-9	-1.482668E+8	13.968242	0.350744	0	0
0	0	0	11.551206	6.050319	-3.5044	6.050319	4973692	-2.761652E-9	-3.621021E+8	14.069558	0.346641	0	0
0	0	0	11.11209	6.050026	-4.071594	6.050026	3922721	-3.43119E-9	-2.914441E+8	13.851374	0.347011	0	0
0	0	0	10.676486	6.049946	-4.634773	6.049946	3099705.5	-3.215886E-9	-3.109563E+8	13.912789	0.343634	0	0
0	0	0	10.239126	6.050199	-5.201068	6.050199	2447040.5	-1.597375E-9	-6.260272E+8	13.849712	0.342315	0	0
0	0	0	9.80242	6.050133	-5.765707	6.050133	1932481.5	-1.397887E-9	-7.153652E+8	13.754436	0.341312	0	0
0	0	0	9.366326	6.050106	-6.329655	6.050106	1526628.5	-1.154231E-9	-8.663775E+8	13.818326	0.337725	0	0
0	0	0	8.937501	6.049993	-6.883974	6.049993	1210759.5	-1.133125E-9	-8.825149E+8	13.60352	0.338345	0	0
0	0	0	8.51133	6.050286	-7.435925	6.050286	961624.5	-5.570615E-10	-1.795134E+9	13.707928	0.33419	0	0
0	0	0	8.089733	6.050379	-7.981442	6.050379	765644	-3.955748E-10	-2.527967E+9	13.498452	0.334519	0	0
0	0	0	7.666952	6.04996	-8.527125	6.04996	609215	-6.130332E-10	-1.631233E+9	13.52137	0.331354	0	0
0	0	0	7.248745	6.050073	-9.06831	6.050073	485945.5	-3.894122E-10	-2.567973E+9	13.451251	0.330087	0	0
0	0	0	6.833682	6.05	-9.604926	6.05	388278	-3.583678E-10	-2.790429E+9	13.331201	0.329085	0	0
0	0	0	6.424581	6.050079	-10.134248	6.050079	311242	-2.464612E-10	-4.057433E+9	13.407913	0.325655	0	0
0	0	0	6.025158	6.05002	-10.65067	6.05002	250799	-2.222789E-10	-4.498853E+9	13.163496	0.326473	0	0
0	0	0	5.624061	6.050139	-11.169754	6.050139	201911	-1.444926E-10	-6.92077E+9	13.332491	0.321909	0	0
0	0	0	5.228559	6.049946	-11.680733	6.049946	163045	-1.691558E-10	-5.911711E+9	13.101969	0.322753	0	0
0	0	0	4.829381	6.050106	-12.19745	6.050106	131399	-9.93462E-11	-1.006581E+10	13.169962	0.319205	0	0
0	0	0	4.425548	6.050232	-12.7201	6.050232	105629	-6.574456E-11	-1.521038E+10	13.030425	0.318506	0	0
0	0	0	4.036212	6.050106	-13.223284	6.050106	85581.5	-6.470518E-11	-1.545471E+10	12.963206	0.317029	0	0
0	0	0	3.649694	6.050246	-13.723584	6.050246	69444.5	-4.243335E-11	-2.356637E+10	12.96796	0.314325	0	0
0	0	0	3.277876	6.050166	-14.20424	6.050166	56799.5	-3.897923E-11	-2.565469E+10	12.788964	0.314417	0	0
0	0	0	2.917616	6.050133	-14.670082	6.050133	46748.5	-3.381615E-11	-2.957167E+10	12.865018	0.310644	0	0
0	0	0	2.567075	6.050066	-15.123256	6.050066	38678.5	-3.137078E-11	-3.18768E+10	12.664884	0.311264	0	0
0	0	0	2.238463	6.0499	-15.547773	6.0499	32383	-3.768813E-11	-2.653355E+10	12.757756	0.307545	0	0
0	0	0	1.925409	6.050066	-15.953144	6.050066	27341.5	-2.217573E-11	-4.509434E+10	12.575503	0.307663	0	0
0	0	0	1.633918	6.050126	-16.330318	6.050126	23356	-1.707956E-11	-5.854953E+10	12.571925	0.305183	0	0
0	0	0	1.365009	6.050392	-16.678901	6.050392	20196	-1.027567E-11	-9.73173E+10	12.507526	0.303653	0	0
0	0	0	1.128116	6.050113	-16.98445	6.050113	17768	-1.328363E-11	-7.528061E+10	12.399151	0.302941	0	0
0	0	0	0.919114	6.050099	-17.25472	6.050099	15870	-1.213591E-11	-8.240007E+10	12.465172	0.299736	0	0
0	0	0	0.73731	6.050312	-17.490495	6.050312	14384.5	-8.053856E-12	-1.241641E+11	12.250908	0.300263	0	0
0	0	0	0.585847	6.050272	-17.686269	6.050272	13253.5	-7.812959E-12	-1.279925E+11	12.370164	0.29628	0	0
0	0	0	0.456395	6.050219	-17.853534	6.050219	12358	-7.837587E-12	-1.275903E+11	12.129833	0.297546	0	0
0	0	0	0.342093	6.050079	-18.000941	6.050079	11617.5	-9.199475E-12	-1.087019E+11	12.252975	0.293497	0	0
0	0	0	0.250864	6.049893	-18.118366	6.049893	11058.5	-1.309802E-11	-7.634739E+10	12.054484	0.294011	0	0
0	0	0	0.169109	6.050053	-18.224587	6.050053	10580	-8.794314E-12	-1.137098E+11	12.087755	0.290845	0	0
0	0	0	0.102995	6.050226	-18.310621	6.050226	10209	-6.413859E-12	-1.559124E+11	11.974583	0.290489	0	0
0	0	0	0.053909	6.050053	-18.373579	6.050053	9941.5	-8.26358E-12	-1.210129E+11	11.935475	0.288603	0	0
0	0	0	0.006702	6.050046	-18.434613	6.050046	9691	-8.15671E-12	-1.225985E+11	11.906554	0.286888	0	0
0	0	0	-0.021393	6.05006	-18.47099	6.05006	9545	-7.836627E-12	-1.276059E+11	11.752043	0.286347	0	0
0	0	0	-0.058024	6.049933	-18.51798	6.049933	9357.5	-1.001897E-11	-9.981066E+10	11.806974	0.283313	0	0
0	0	0	-0.07885	6.050153	-18.545586	6.050153	9253	-6.482976E-12	-1.542501E+11	11.590457	0.28396	0	0
0	0	0	-0.092571	6.050372	-18.564002	6.050372	9185	-4.782422E-12	-2.090991E+11	11.70673	0.2802	0	0
0	0	0	-0.113847	6.050159	-18.590869	6.050159	9079.5	-6.295481E-12	-1.588441E+11	11.450968	0.281374	0	0
0	0	0	-0.132591	6.049933	-18.614421	6.049933	8988	-9.623351E-12	-1.039139E+11	11.582971	0.277167	0	0
0	0	0	-0.145496	6.050133	-18.63172	6.050133	8925.5	-6.456379E-12	-1.548856E+11	11.337978	0.27838	0	0
0	0	0	-0.152234	6.050306	-18.640963	6.050306	8893	-5.0212E-12	-1.991556E+11	11.43677	0.274687	0	0
0	0	0	-0.156358	6.050153	-18.64583	6.050153	8873.5	-6.217085E-12	-1.608471E+11	11.212045	0.275491	0	0
0	0	0	-0.162361	6.050226	-18.653817	6.050226	8844.5	-5.556605E-12	-1.79966E+11	11.285467	0.272181	0	0
0	0	0	-0.167711	6.050093	-18.660329	6.050093	8819	-6.821941E-12	-1.465859E+11	11.121804	0.27226	0	0
0	0	0	-0.175061	6.050026	-18.669633	6.050026	8784	-7.683317E-12	-1.301521E+11	11.145189	0.269846	0	0
0	0	0	-0.182208	6.050159	-18.679282	6.050159	8750	-6.067015E-12	-1.648257E+11	11.04428	0.269252	0	0
0	0	0	-0.189232	6.050033	-18.68798	6.050033	8717	-7.526303E-12	-1.328674E+11	11.002319	0.267524	0	0
0	0	0	-0.197726	6.050299	-18.699779	6.050299	8677	-4.940944E-12	-2.023905E+11	10.932408	0.266258	0	0
0	0	0	-0.204545	6.050192	-18.708274	6.050192	8645	-5.698871E-12	-1.754734E+11	10.85249	0.265005	0	0
0	0	0	-0.208506	6.049887	-18.712461	6.049887	8626.5	-1.040166E-11	-9.613855E+10	10.849581	0.263198	0	0
0	0	0	-0.212835	6.050046	-18.718548	6.050046	8606.5	-7.243909E-12	-1.38047E+11	10.73266	0.262723	0	0
0	0	0	-0.214877	6.050279	-18.721901	6.050279	8597	-5.023676E-12	-1.990574E+11	10.752113	0.260309	0	0
0	0	0	-0.218634	6.050292	-18.7268	6.050292	8579.5	-4.927367E-12	-2.029482E+11	10.578383	0.260362	0	0
0	0	0	-0.219042	6.049907	-18.726149	6.049907	8578	-9.812574E-12	-1.019101E+11	10.613784	0.257737	0	0
0	0	0	-0.221452	6.050192	-18.73014	6.050192	8566.5	-5.647123E-12	-1.770813E+11	10.455332	0.257869	0	0
0	0	0	-0.222881	6.050299	-18.732314	6.050299	8560	-4.874321E-12	-2.051568E+11	10.535992	0.254875	0	0
0	0	0	-0.224065	6.050053	-18.733093	6.050053	8554.5	-7.110677E-12	-1.406336E+11	10.32798	0.255429	0	0
0	0	0	-0.22431	6.050159	-18.733735	6.050159	8553.5	-5.930767E-12	-1.686123E+11	10.393025	0.252329	0	0
0	0	0	-0.225617	6.050232	-18.735649	6.050232	8547	-5.319739E-12	-1.879791E+11	10.180605	0.252922	0	0
0	0	0	-0.226025	6.050066	-18.735668	6.050066	8545.5	-6.930955E-12	-1.442803E+11	10.279627	0.249585	0	0
0	0	0	-0.225454	6.050026	-18.734807	6.050026	8548	-7.476889E-12	-1.337455E+11	10.060518	0.250495	0	0
0	0	0	-0.226842	6.05002	-18.736582	6.05002	8541.5	-7.570186E-12	-1.320972E+11	10.167442	0.247198	0	0
0	0	0	-0.226638	6.050219	-18.736929	6.050219	8542.5	-5.417752E-12	-1.845784E+11	9.913168	0.248029	0	0
0	0	0	-0.22725	6.050066	-18.737253	6.050066	8540	-6.926495E-12	-1.443732E+11	10.007781	0.244691	0	0
0	0	0	-0.227128	6.049946	-18.736728	6.049946	8540	-8.860069E-12	-1.128659E+11	9.781473	0.245549	0	0
0	0	0	-0.227332	6.050046	-18.737297	6.050046	8539.5	-7.187517E-12	-1.391301E+11	9.895038	0.242225	0	0
0	0	0	-0.228231	6.050186	-18.738887	6.050186	8535	-5.682353E-12	-1.759834E+11	9.684847	0.243069	0	0
0	0	0	-0.227904	6.050266	-18.738708	6.050266	8536.5	-5.077019E-12	-1.96966E+11	9.776951	0.23985	0	0
0	0	0	-0.228231	6.050066	-18.73852	6.050066	8535	-6.922439E-12	-1.444578E+11	9.534043	0.240681	0	0
0	0	0	-0.228108	6.050292	-18.739054	6.050292	8536	-4.902384E-12	-2.039824E+11	9.629837	0.237489	0	0
0	0	0	-0.229741	6.050259	-18.741065	6.050259	8528	-5.117461E-12	-1.954094E+11	9.407158	0.238268	0	0
0	0	0	-0.229047	6.050186	-18.739943	6.050186	8531.5	-5.680022E-12	-1.760556E+11	9.495582	0.2353	0	0
0	0	0	-0.229701	6.050053	-18.740381	6.050053	8528.5	-7.089065E-12	-1.410623E+11	9.296867	0.235959	0	0
0	0	0	-0.229537	6.050113	-18.740353	6.050113	8529.5	-6.376786E-12	-1.568188E+11	9.350822	0.233216	0	0
0	0	0	-0.229864	6.050013	-18.74047	6.050013	8528	-7.659701E-12	-1.305534E+11	9.174493	0.233361	0	0
0	0	0	-0.230232	6.050139	-18.741332	6.050139	8526	-6.10142E-12	-1.638963E+11	9.179878	0.23125	0	0
0	0	0	-0.230599	6.050186	-18.74195	6.050186	8524.5	-5.675362E-12	-1.762002E+11	9.05665	0.230868	0	0
0	0	0	-0.229946	6.050139	-18.740963	6.050139	8527	-6.102135E-12	-1.638771E+11	9.023894	0.229351	0	0
0	0	0	-0.230967	6.049953	-18.741713	6.049953	8522.5	-8.706881E-12	-1.148517E+11	8.951109	0.228111	0	0
0	0	0	-0.231212	6.050226	-18.742864	6.050226	8521.5	-5.353678E-12	-1.867875E+11	8.851562	0.227425	0	0
0	0	0	-0.230844	6.050365	-18.742816	6.050365	8523	-4.472545E-12	-2.235864E+11	8.8259	0.225512	0	0
0	0	0	-0.230844	6.050033	-18.741799	6.050033	8523	-7.358803E-12	-1.358917E+11	8.689607	0.225565	0	0
0	0	0	-0.231416	6.049946	-18.742274	6.049946	8520.5	-8.839838E-12	-1.131242E+11	8.728902	0.222874	0	0
0	0	0	-0.230599	6.050073	-18.741604	6.050073	8524.5	-6.831102E-12	-1.463893E+11	8.559017	0.223652	0	0
0	0	0	-0.231334	6.050219	-18.743002	6.050219	8521	-5.404117E-12	-1.850441E+11	8.6355	0.220724	0	0
0	0	0	-0.231212	6.050226	-18.742864	6.050226	8521.5	-5.353678E-12	-1.867875E+11	8.440919	0.221476	0	0
0	0	0	-0.231987	6.050099	-18.743481	6.050099	8518	-6.513781E-12	-1.535207E+11	8.4976	0.218719	0	0
0	0	0	-0.231579	6.050392	-18.743848	6.050392	8520	-4.334951E-12	-2.306831E+11	8.331859	0.219009	0	0
0	0	0	-0.230967	6.050292	-18.742751	6.050292	8522.5	-4.894631E-12	-2.043055E+11	8.33182	0.216965	0	0
0	0	0	-0.231089	6.050066	-18.742218	6.050066	8522	-6.911895E-12	-1.446781E+11	8.232038	0.216147	0	0
0	0	0	-0.23113	6.050299	-18.742982	6.050299	8522	-4.852682E-12	-2.060716E+11	8.153056	0.215619	0	0
0	0	0	-0.230722	6.050139	-18.741966	6.050139	8523.5	-6.099631E-12	-1.639444E+11	8.133248	0.213482	0	0
0	0	0	-0.231457	6.050299	-18.743405	6.050299	8520.5	-4.851828E-12	-2.061079E+11	7.98974	0.214089	0	0
0	0	0	-0.231497	6.050239	-18.743275	6.050239	8520	-5.25405E-12	-1.903294E+11	8.037415	0.210963	0	0
0	0	0	-0.232151	6.050139	-18.743815	6.050139	8517	-6.094979E-12	-1.640695E+11	7.839174	0.212071	0	0
0	0	0	-0.233131	6.050153	-18.745123	6.050153	8512.5	-5.964156E-12	-1.676683E+11	7.86098	0.209209	0	0
0	0	0	-0.233703	6.050252	-18.746167	6.050252	8510	-5.152882E-12	-1.940662E+11	7.69745	0.20942	0	0
0	0	0	-0.233458	6.050219	-18.745749	6.050219	8511	-5.397775E-12	-1.852615E+11	7.630666	0.207863	0	0
0	0	0	-0.233008	6.050226	-18.745188	6.050226	8513	-5.348338E-12	-1.86974E+11	7.592879	0.206544	0	0
0	0	0	-0.233294	6.049933	-18.744663	6.049933	8512	-9.113703E-12	-1.097249E+11	7.428119	0.206663	0	0
0	0	0	-0.233458	6.050272	-18.745912	6.050272	8511	-5.017248E-12	-1.993125E+11	7.512411	0.203906	0	0
0	0	0	-0.233539	6.050113	-18.745529	6.050113	8511	-6.362956E-12	-1.571597E+11	7.300866	0.204961	0	0
0	0	0	-0.234111	6.050379	-18.747082	6.050379	8508	-4.39571E-12	-2.274945E+11	7.368646	0.202284	0	0
0	0	0	-0.233825	6.050192	-18.746143	6.050192	8509.5	-5.609548E-12	-1.782675E+11	7.239633	0.202007	0	0
0	0	0	-0.23309	6.050126	-18.744989	6.050126	8513	-6.225307E-12	-1.606347E+11	7.158247	0.201294	0	0
0	0	0	-0.233539	6.050066	-18.745386	6.050066	8511	-6.902974E-12	-1.448651E+11	7.149026	0.19921	0	0
0	0	0	-0.232641	6.050179	-18.74457	6.050179	8515	-5.726024E-12	-1.746413E+11	6.989386	0.199909	0	0
0	0	0	-0.232559	6.050352	-18.744994	6.050352	8515	-4.539567E-12	-2.202853E+11	6.972434	0.19743	0	0
0	0	0	-0.232682	6.050153	-18.744542	6.050153	8514.5	-5.965557E-12	-1.676289E+11	6.858878	0.197324	0	0
0	0	0	-0.233049	6.050232	-18.745261	6.050232	8513	-5.298577E-12	-1.887299E+11	6.735108	0.196546	0	0
0	0	0	-0.233131	6.050146	-18.745102	6.050146	8512.5	-6.027282E-12	-1.659123E+11	6.772219	0.194224	0	0
0	0	0	-0.233131	6.050086	-18.744919	6.050086	8512.5	-6.661881E-12	-1.501077E+11	6.562563	0.195227	0	0
0	0	0	-0.231987	6.050013	-18.743217	6.050013	8518	-7.650719E-12	-1.307067E+11	6.579105	0.192813	0	0
0	0	0	-0.232069	6.050239	-18.744014	6.050239	8517.5	-5.252508E-12	-1.903852E+11	6.492593	0.192325	0	0
0	0	0	-0.231824	6.050113	-18.743311	6.050113	8518.5	-6.368563E-12	-1.570213E+11	6.387413	0.192061	0	0
0	0	0	-0.232968	6.05	-18.744444	6.05	8513.5	-7.857678E-12	-1.272641E+11	6.396213	0.189779	0	0
0	0	0	-0.233539	6.050126	-18.74557	6.050126	8511	-6.223844E-12	-1.606724E+11	6.268866	0.189871	0	0
0	0	0	-0.233294	6.050252	-18.745639	6.050252	8512	-5.154093E-12	-1.940206E+11	6.199399	0.188842	0	0
0	0	0	-0.23358	6.050026	-18.745317	6.050026	8510.5	-7.444088E-12	-1.343348E+11	6.1747	0.187009	0	0
0	0	0	-0.234193	6.050153	-18.746496	6.050153	8508	-5.961003E-12	-1.67757E+11	6.00223	0.187642	0	0
0	0	0	-0.233866	6.050339	-18.746643	6.050339	8509.5	-4.610114E-12	-2.169144E+11	5.983745	0.185782	0	0
0	0	0	-0.233294	6.050199	-18.745476	6.050199	8512	-5.556442E-12	-1.799713E+11	5.942566	0.184582	0	0
0	0	0	-0.234274	6.050126	-18.74652	6.050126	8507	-6.220919E-12	-1.60748E+11	5.777273	0.184819	0	0
0	0	0	-0.234193	6.04998	-18.745967	6.04998	8508	-8.191661E-12	-1.220754E+11	5.763803	0.183131	0	0
0	0	0	-0.234193	6.05	-18.746028	6.05	8508	-7.852602E-12	-1.273463E+11	5.70598	0.181997	0	0
0	0	0	-0.23456	6.050159	-18.746992	6.050159	8506	-5.897832E-12	-1.695538E+11	5.550107	0.1823	0	0
0	0	0	-0.234356	6.050266	-18.747053	6.050266	8507	-5.059474E-12	-1.97649E+11	5.527284	0.180493	0	0
0	0	0	-0.234519	6.04996	-18.746328	6.04996	8506.5	-8.559811E-12	-1.16825E+11	5.471907	0.179438	0	0
0	0	0	-0.234438	6.05006	-18.746528	6.05006	8506.5	-6.983999E-12	-1.431844E+11	5.344483	0.179635	0	0
0	0	0	-0.235091	6.050066	-18.747393	6.050066	8503.5	-6.896891E-12	-1.449929E+11	5.349852	0.178092	0	0
0	0	0	-0.233988	6.050086	-18.746028	6.050086	8508.5	-6.658751E-12	-1.501783E+11	5.259154	0.176852	0	0
0	0	0	-0.235214	6.050432	-18.748671	6.050432	8503	-4.13749E-12	-2.416924E+11	5.173739	0.176879	0	0
0	0	0	-0.235295	6.050252	-18.748227	6.050252	8503	-5.148643E-12	-1.942259E+11	5.092463	0.175863	0	0
0	0	0	-0.235132	6.050159	-18.747731	6.050159	8503.5	-5.896098E-12	-1.696037E+11	5.074758	0.174267	0	0
0	0	0	-0.234805	6.050119	-18.747187	6.050119	8505	-6.288195E-12	-1.590281E+11	4.959405	0.174109	0	0
0	0	0	-0.235459	6.050492	-18.749171	6.050492	8502	-3.882818E-12	-2.575449E+11	4.882822	0.173462	0	0
0	0	0	-0.234519	6.050272	-18.747285	6.050272	8506.5	-5.014595E-12	-1.994179E+11	4.836736	0.172077	0	0
0	0	0	-0.234397	6.050392	-18.747493	6.050392	8507	-4.328336E-12	-2.310356E+11	4.79398	0.171022	0	0
0	0	0	-0.235254	6.050139	-18.747829	6.050139	8503	-6.08496E-12	-1.643396E+11	4.666787	0.171246	0	0
0	0	0	-0.236357	6.050006	-18.748848	6.050006	8498	-7.736631E-12	-1.292552E+11	4.612893	0.170085	0	0
0	0	0	-0.236357	6.050226	-18.749519	6.050226	8498	-5.338914E-12	-1.87304E+11	4.559571	0.168911	0	0
0	0	0	-0.236071	6.050206	-18.749088	6.050206	8499	-5.494342E-12	-1.820054E+11	4.492023	0.168146	0	0
0	0	0	-0.236806	6.050153	-18.749876	6.050153	8496	-5.952595E-12	-1.679939E+11	4.370853	0.168146	0	0
0	0	0	-0.236316	6.050192	-18.749365	6.050192	8498	-5.601967E-12	-1.785087E+11	4.348168	0.166682	0	0
0	0	0	-0.236765	6.050405	-18.750597	6.050405	8496	-4.25797E-12	-2.348537E+11	4.276259	0.165759	0	0
0	0	0	-0.237786	6.050339	-18.751714	6.050339	8491.5	-4.600363E-12	-2.173742E+11	4.17572	0.16502	0	0
0	0	0	-0.236929	6.050186	-18.750136	6.050186	8495	-5.655722E-12	-1.768121E+11	4.060858	0.164756	0	0
0	0	0	-0.238154	6.050153	-18.751619	6.050153	8489.5	-5.948041E-12	-1.681226E+11	3.990019	0.163701	0	0
0	0	0	-0.237378	6.050073	-18.750371	6.050073	8493	-6.805859E-12	-1.469322E+11	3.929424	0.16287	0	0
0	0	0	-0.237378	6.050219	-18.750819	6.050219	8493	-5.386359E-12	-1.856542E+11	3.836705	0.161973	0	0
0	0	0	-0.23603	6.050086	-18.748669	6.050086	8499.5	-6.651707E-12	-1.503373E+11	3.748999	0.16163	0	0
0	0	0	-0.23652	6.050113	-18.749384	6.050113	8497	-6.352489E-12	-1.574186E+11	3.653318	0.160852	0	0
0	0	0	-0.236847	6.050133	-18.749868	6.050133	8495.5	-6.145333E-12	-1.627251E+11	3.613638	0.160061	0	0
0	0	0	-0.23603	6.050192	-18.748995	6.050192	8499.5	-5.602956E-12	-1.784772E+11	3.538782	0.158939	0	0
0	0	0	-0.236643	6.050445	-18.75056	6.050445	8496.5	-4.075045E-12	-2.453961E+11	3.458668	0.158333	0	0
0	0	0	-0.235908	6.050106	-18.748572	6.050106	8500	-6.426553E-12	-1.556044E+11	3.33608	0.157726	0	0
0	0	0	-0.235459	6.050186	-18.748235	6.050186	8502	-5.660382E-12	-1.766665E+11	3.285715	0.157093	0	0
0	0	0	-0.235622	6.050046	-18.748019	6.050046	8501	-7.155112E-12	-1.397602E+11	3.2	0.156248	0	0
0	0	0	-0.234969	6.050286	-18.747906	6.050286	8504.5	-4.926588E-12	-2.029802E+11	3.149986	0.155563	0	0
0	0	0	-0.236153	6.050126	-18.74895	6.050126	8498.5	-6.214703E-12	-1.609087E+11	3.072227	0.154784	0	0
0	0	0	-0.235459	6.050212	-18.748316	6.050212	8502	-5.443675E-12	-1.836994E+11	3.048995	0.154138	0	0
0	0	0	-0.234356	6.050106	-18.746565	6.050106	8507	-6.431845E-12	-1.554764E+11	2.95319	0.153439	0	0
0	0	0	-0.235989	6.050478	-18.749817	6.050478	8499.5	-3.935409E-12	-2.541032E+11	2.969708	0.152502	0	0
0	0	0	-0.23554	6.050246	-18.748524	6.050246	8501.5	-5.194755E-12	-1.925019E+11	2.863324	0.152107	0	0
0	0	0	-0.236194	6.050212	-18.749267	6.050212	8498.5	-5.441434E-12	-1.837751E+11	2.849749	0.151144	0	0
0	0	0	-0.236153	6.050345	-18.749621	6.050345	8498.5	-4.567168E-12	-2.189541E+11	2.802689	0.150642	0	0
0	0	0	-0.237337	6.050246	-18.750848	6.050246	8493.5	-5.189866E-12	-1.926832E+11	2.804296	0.149838	0	0
0	0	0	-0.23701	6.050199	-18.750283	6.050199	8495	-5.545345E-12	-1.803314E+11	2.733321	0.149323	0	0
0	0	0	-0.23697	6.050113	-18.749965	6.050113	8495	-6.350994E-12	-1.574557E+11	2.743228	0.148413	0	0
0	0	0	-0.237827	6.050219	-18.7514	6.050219	8491	-5.38509E-12	-1.856979E+11	2.697932	0.147833	0	0
0	0	0	-0.237174	6.050299	-18.750799	6.050299	8494	-4.836738E-12	-2.067509E+11	2.678594	0.147015	0	0
0	0	0	-0.237133	6.050325	-18.750828	6.050325	8494.5	-4.677753E-12	-2.137778E+11	2.616056	0.14658	0	0
0	0	0	-0.237215	6.050272	-18.750771	6.050272	8494	-5.007226E-12	-1.997114E+11	2.634947	0.14563	0	0
0	0	0	-0.237215	6.050073	-18.75016	6.050073	8494	-6.806661E-12	-1.469149E+11	2.570755	0.145261	0	0
0	0	0	-0.237174	6.050133	-18.75029	6.050133	8494	-6.144248E-12	-1.627539E+11	2.578828	0.14439	0	0
0	0	0	-0.238154	6.050246	-18.751904	6.050246	8489.5	-5.187422E-12	-1.92774E+11	2.522111	0.143942	0	0
0	0	0	-0.2375	6.050286	-18.751181	6.050286	8492.5	-4.919637E-12	-2.03267E+11	2.493998	0.143045	0	0
0	0	0	-0.237092	6.050292	-18.750673	6.050292	8494.5	-4.87855E-12	-2.049789E+11	2.460504	0.14253	0	0
0	0	0	-0.23799	6.050306	-18.751876	6.050306	8490	-4.793657E-12	-2.08609E+11	2.466807	0.141541	0	0
0	0	0	-0.237092	6.04998	-18.749717	6.04998	8494.5	-8.178663E-12	-1.222694E+11	2.411564	0.141422	0	0
0	0	0	-0.238072	6.050079	-18.75129	6.050079	8490	-6.722922E-12	-1.487448E+11	2.389569	0.140538	0	0
0	0	0	-0.2375	6.050439	-18.751649	6.050439	8492.5	-4.10254E-12	-2.437515E+11	2.352853	0.14005	0	0
0	0	0	-0.237215	6.050232	-18.750649	6.050232	8494	-5.286751E-12	-1.891521E+11	2.315582	0.139246	0	0
0	0	0	-0.236929	6.050206	-18.750197	6.050206	8495	-5.491756E-12	-1.820911E+11	2.30803	0.138718	0	0
0	0	0	-0.238072	6.050352	-18.752124	6.050352	8490	-4.526239E-12	-2.20934E+11	2.252404	0.138006	0	0
0	0	0	-0.238113	6.050159	-18.751587	6.050159	8490	-5.886738E-12	-1.698734E+11	2.247688	0.137399	0	0
0	0	0	-0.237705	6.050405	-18.751811	6.050405	8491.5	-4.255715E-12	-2.349782E+11	2.184835	0.136634	0	0
0	0	0	-0.238113	6.050139	-18.751526	6.050139	8490	-6.075657E-12	-1.645912E+11	2.187488	0.136225	0	0
0	0	0	-0.239216	6.050432	-18.753847	6.050432	8484.5	-4.128488E-12	-2.422194E+11	2.140383	0.135473	0	0
0	0	0	-0.239746	6.050179	-18.75376	6.050179	8482	-5.703833E-12	-1.753207E+11	2.124779	0.134932	0	0
0	0	0	-0.240522	6.050206	-18.754845	6.050206	8478.5	-5.481089E-12	-1.824455E+11	2.066087	0.134378	0	0
0	0	0	-0.240236	6.050292	-18.75474	6.050292	8480	-4.870222E-12	-2.053294E+11	2.079516	0.133745	0	0
0	0	0	-0.240359	6.050239	-18.754736	6.050239	8479.5	-5.229075E-12	-1.912384E+11	2.030732	0.133244	0	0
0	0	0	-0.240073	6.050312	-18.75459	6.050312	8481	-4.748497E-12	-2.10593E+11	2.015976	0.132453	0	0
0	0	0	-0.23942	6.050086	-18.753053	6.050086	8483.5	-6.639186E-12	-1.506209E+11	1.958433	0.131978	0	0
0	0	0	-0.239011	6.050113	-18.752606	6.050113	8486	-6.344265E-12	-1.576227E+11	1.966364	0.131186	0	0
0	0	0	-0.239011	6.050013	-18.752301	6.050013	8486	-7.621977E-12	-1.311996E+11	1.914807	0.130764	0	0
0	0	0	-0.239461	6.050259	-18.753635	6.050259	8483.5	-5.090757E-12	-1.964344E+11	1.901766	0.129933	0	0
0	0	0	-0.239379	6.050139	-18.753163	6.050139	8484	-6.071363E-12	-1.647076E+11	1.849776	0.129498	0	0
0	0	0	-0.237582	6.050146	-18.750859	6.050146	8492	-6.012767E-12	-1.663128E+11	1.860313	0.128759	0	0
0	0	0	-0.238358	6.050226	-18.752107	6.050226	8488.5	-5.332946E-12	-1.875136E+11	1.832376	0.128245	0	0
0	0	0	-0.238726	6.050146	-18.752338	6.050146	8487	-6.009227E-12	-1.664108E+11	1.827986	0.127572	0	0
0	0	0	-0.237051	6.050093	-18.75001	6.050093	8494.5	-6.570924E-12	-1.521856E+11	1.771581	0.127229	0	0
0	0	0	-0.237745	6.050133	-18.75103	6.050133	8491.5	-6.142439E-12	-1.628018E+11	1.764669	0.126306	0	0
0	0	0	-0.238358	6.050299	-18.752331	6.050299	8488.5	-4.833607E-12	-2.068849E+11	1.718061	0.125937	0	0
0	0	0	-0.237133	6.050279	-18.750685	6.050279	8494.5	-4.963779E-12	-2.014594E+11	1.700976	0.125277	0	0
0	0	0	-0.237296	6.050199	-18.750652	6.050199	8493.5	-5.544365E-12	-1.803633E+11	1.647194	0.124947	0	0
0	0	0	-0.236071	6.05004	-18.74858	6.05004	8499	-7.244578E-12	-1.380343E+11	1.64978	0.123984	0	0
0	0	0	-0.237215	6.050259	-18.75073	6.050259	8494	-5.097058E-12	-1.961916E+11	1.629473	0.123668	0	0
0	0	0	-0.239052	6.050399	-18.753534	6.050399	8485.5	-4.284808E-12	-2.333827E+11	1.578173	0.122916	0	0
0	0	0	-0.238399	6.050339	-18.752506	6.050339	8488.5	-4.598737E-12	-2.17451E+11	1.568704	0.122678	0	0
0	0	0	-0.239583	6.050206	-18.75363	6.050206	8483	-5.483998E-12	-1.823487E+11	1.542183	0.121861	0	0
0	0	0	-0.239052	6.049933	-18.75211	6.049933	8485.5	-9.08533E-12	-1.100676E+11	1.51926	0.121373	0	0
0	0	0	-0.239583	6.050026	-18.753081	6.050026	8483	-7.420033E-12	-1.347703E+11	1.483992	0.120845	0	0
0	0	0	-0.239093	6.050332	-18.753383	6.050332	8485	-4.634373E-12	-2.157789E+11	1.478027	0.120304	0	0
0	0	0	-0.239624	6.050405	-18.754294	6.050405	8483	-4.251455E-12	-2.352136E+11	1.443122	0.119737	0	0
0	0	0	-0.238072	6.050086	-18.75131	6.050086	8490	-6.644273E-12	-1.505056E+11	1.441164	0.119368	0	0
0	0	0	-0.239297	6.050259	-18.753424	6.050259	8484.5	-5.091357E-12	-1.964113E+11	1.393472	0.118761	0	0
0	0	0	-0.239583	6.050146	-18.753447	6.050146	8483	-6.006395E-12	-1.664892E+11	1.397867	0.118022	0	0
0	0	0	-0.23991	6.050106	-18.753748	6.050106	8481.5	-6.412566E-12	-1.559438E+11	1.34872	0.117679	0	0
0	0	0	-0.239991	6.050079	-18.753772	6.050079	8481	-6.715795E-12	-1.489027E+11	1.358441	0.117204	0	0
0	0	0	-0.239134	6.050199	-18.753029	6.050199	8485	-5.538817E-12	-1.80544E+11	1.294661	0.116782	0	0
0	0	0	-0.240236	6.050212	-18.754496	6.050212	8480	-5.429589E-12	-1.84176E+11	1.306258	0.116123	0	0
0	0	0	-0.240032	6.050126	-18.753967	6.050126	8481	-6.201906E-12	-1.612408E+11	1.250281	0.115701	0	0
0	0	0	-0.23942	6.050159	-18.753277	6.050159	8483.5	-5.882231E-12	-1.700035E+11	1.271206	0.11516	0	0
0	0	0	-0.240073	6.050252	-18.754407	6.050252	8481	-5.135322E-12	-1.947298E+11	1.210445	0.114725	0	0
0	0	0	-0.239746	6.050272	-18.754045	6.050272	8482	-5.000152E-12	-1.999939E+11	1.237632	0.113999	0	0
0	0	0	-0.240032	6.050405	-18.754822	6.050405	8481	-4.250452E-12	-2.352691E+11	1.159821	0.113656	0	0
0	0	0	-0.239787	6.050372	-18.754403	6.050372	8482	-4.416386E-12	-2.264295E+11	1.178779	0.113076	0	0
0	0	0	-0.240522	6.050359	-18.755313	6.050359	8478.5	-4.48437E-12	-2.229968E+11	1.125468	0.112654	0	0
0	0	0	-0.238889	6.050099	-18.752407	6.050099	8486	-6.48931E-12	-1.540996E+11	1.150746	0.111889	0	0
0	0	0	-0.239991	6.050252	-18.754301	6.050252	8481	-5.135322E-12	-1.947298E+11	1.101041	0.111717	0	0
0	0	0	-0.239746	6.050405	-18.754452	6.050405	8482	-4.250953E-12	-2.352413E+11	1.112409	0.111018	0	0
0	0	0	-0.240727	6.050332	-18.755496	6.050332	8478	-4.630549E-12	-2.159571E+11	1.039636	0.110609	0	0
0	0	0	-0.241911	6.050339	-18.757048	6.050339	8472	-4.589798E-12	-2.178745E+11	1.06864	0.109936	0	0
0	0	0	-0.240686	6.050192	-18.755016	6.050192	8478	-5.588783E-12	-1.789298E+11	1.032553	0.109646	0	0
0	0	0	-0.242033	6.05	-18.756169	6.05	8471.5	-7.818913E-12	-1.27895E+11	1.006185	0.109039	0	0
0	0	0	-0.241952	6.050518	-18.75765	6.050518	8472	-3.76627E-12	-2.655147E+11	0.971481	0.108802	0	0
0	0	0	-0.240032	6.050239	-18.754313	6.050239	8481	-5.23E-12	-1.912046E+11	1.000197	0.108142	0	0
0	0	0	-0.242278	6.050339	-18.757523	6.050339	8471	-4.589257E-12	-2.179002E+11	0.981194	0.107931	0	0
0	0	0	-0.242115	6.050565	-18.758004	6.050565	8471.5	-3.598646E-12	-2.778823E+11	0.940465	0.107272	0	0
0	0	0	-0.241707	6.050166	-18.756255	6.050166	8473	-5.814682E-12	-1.719785E+11	0.952976	0.106902	0	0
0	0	0	-0.241788	6.050432	-18.757174	6.050432	8473	-4.122892E-12	-2.425482E+11	0.925319	0.106309	0	0
0	0	0	-0.240767	6.050093	-18.754816	6.050093	8477.5	-6.557773E-12	-1.524908E+11	0.911984	0.10594	0	0
0	0	0	-0.241584	6.05004	-18.75571	6.05004	8473.5	-7.222842E-12	-1.384497E+11	0.88077	0.105438	0	0
0	0	0	-0.239787	6.050372	-18.754403	6.050372	8482	-4.416386E-12	-2.264295E+11	0.887229	0.104937	0	0
0	0	0	-0.239746	6.050206	-18.753842	6.050206	8482	-5.483352E-12	-1.823702E+11	0.843352	0.104475	0	0
0	0	0	-0.240236	6.050212	-18.754496	6.050212	8480	-5.429589E-12	-1.84176E+11	0.851736	0.104014	0	0
0	0	0	-0.240645	6.050166	-18.754882	6.050166	8478	-5.818113E-12	-1.71877E+11	0.813841	0.103618	0	0
0	0	0	-0.240359	6.050266	-18.754817	6.050266	8479.5	-5.043119E-12	-1.9829E+11	0.842231	0.103077	0	0
0	0	0	-0.239706	6.050046	-18.753301	6.050046	8482.5	-7.139541E-12	-1.40065E+11	0.796338	0.102734	0	0
0	0	0	-0.240196	6.050146	-18.75424	6.050146	8480	-6.00427E-12	-1.665481E+11	0.825269	0.102141	0	0
0	0	0	-0.238971	6.050239	-18.75294	6.050239	8486	-5.233083E-12	-1.910919E+11	0.769227	0.101785	0	0
0	0	0	-0.239461	6.050226	-18.753533	6.050226	8483.5	-5.329805E-12	-1.876241E+11	0.77048	0.101283	0	0
0	0	0	-0.239501	6.050106	-18.75322	6.050106	8483.5	-6.414078E-12	-1.559071E+11	0.720765	0.101006	0	0
0	0	0	-0.239583	6.050219	-18.753671	6.050219	8483	-5.380017E-12	-1.85873E+11	0	0	0	0
0	0	0	-0.240482	6.050166	-18.75467	6.050166	8479	-5.818799E-12	-1.718568E+11	0	0	0	0
0	0	0	-0.239991	6.050026	-18.753609	6.050026	8481	-7.418284E-12	-1.348021E+11	0	0	0	0
0	0	0	-0.241135	6.04998	-18.754946	6.04998	8476	-8.16085E-12	-1.225362E+11	0	0	0	0
0	0	0	-0.240563	6.050219	-18.754939	6.050219	8478.5	-5.377163E-12	-1.859717E+11	0	0	0	0
0	0	0	-0.240155	6.050279	-18.754594	6.050279	8480.5	-4.955599E-12	-2.01792E+11	0	0	0	0
0	0	0	-0.24138	6.050226	-18.756015	6.050226	8475	-5.324465E-12	-1.878123E+11	0	0	0	0
0	0	0	-0.242197	6.050093	-18.756665	6.050093	8471	-6.552745E-12	-1.526078E+11	0	0	0	0
0	0	0	-0.240727	6.05004	-18.754601	6.05004	8478	-7.226678E-12	-1.383762E+11	0	0	0	0
0	0	0	-0.241094	6.050419	-18.756236	6.050419	8476	-4.185237E-12	-2.389351E+11	0	0	0	0
0	0	0	-0.241421	6.050046	-18.755519	6.050046	8474.5	-7.132808E-12	-1.401973E+11	0	0	0	0
0	0	0	-0.240767	6.05004	-18.754653	6.05004	8477.5	-7.226252E-12	-1.383843E+11	0	0	0	0
0	0	0	-0.241829	6.050066	-18.756108	6.050066	8473	-6.872153E-12	-1.455148E+11	0	0	0	0
0	0	0	-0.239706	6.050133	-18.753565	6.050133	8482.5	-6.135929E-12	-1.629745E+11	0	0	0	0
0	0	0	-0.242401	6.050419	-18.757926	6.050419	8470	-4.182274E-12	-2.391044E+11	0	0	0	0
0	0	0	-0.241625	6.050345	-18.756699	6.050345	8473.5	-4.553733E-12	-2.196001E+11	0	0	0	0
0	0	0	-0.242237	6.050226	-18.757125	6.050226	8471	-5.321952E-12	-1.87901E+11	0	0	0	0
0	0	0	-0.24138	6.050139	-18.755751	6.050139	8475	-6.064923E-12	-1.648826E+11	0	0	0	0
0	0	0	-0.240727	6.050179	-18.755028	6.050179	8478	-5.701143E-12	-1.754034E+11	0	0	0	0
0	0	0	-0.241012	6.050359	-18.755947	6.050359	8476.5	-4.483312E-12	-2.230494E+11	0	0	0	0
0	0	0	-0.241217	6.050319	-18.756089	6.050319	8475.5	-4.70603E-12	-2.124934E+11	0	0	0	0
0	0	0	-0.239787	0	-0.239787	0	8482	0	0	0	0	0	0
0	0	0	-0.242319	0	-0.242319	0	8470.5	0	0	0	0	0	0
