Vload_(V)	ILoad_(A)	RsLoad (ohm)	SunsVoc_Voltage_(V)	SunsVoc_Current_(A)	Model_Voltage_(V)	Model_Current_(A)	Carrier_Density_(cm-3)	Lifetime_(s)	Inverse_Lifetime_(s-1)	Efficiency_(%)	Intensity_(suns)	Dark_IV_Voltage_(V)	Dark_IV_Current_(A)
3.035943	6.37345	0	64.991567	-0.710575	65.193046	-0.710575	3.816656E+15	0.000226	4397.34521	19.52752	1.092956	0	0
3.077121	6.37508	-0.518948	64.950486	-0.468596	65.084418	-0.468596	3.779628E+15	0.000232	4288.616932	19.614641	1.089935	0	0
7.091679	6.367749	5.34233	64.802657	-0.049261	64.81714	-0.049261	3.648982E+15	0.000238	4170.866871	19.489553	1.089684	0	0
12.038193	6.349762	5.914943	64.627877	0.397435	64.507188	0.397435	3.499636E+15	0.000246	4047.509504	19.503277	1.085938	0	0
16.613488	6.346412	5.268719	64.449625	0.804852	64.197277	0.804852	3.352853E+15	0.000253	3937.795383	19.496344	1.085068	0	0
21.448316	6.341364	4.598102	64.277213	1.164067	63.901132	1.164067	3.216011E+15	0.000259	3841.556447	19.449047	1.085542	0	0
26.382801	6.336661	3.891233	64.112274	1.495395	63.6155	1.495395	3.089666E+15	0.000266	3745.21329	19.544716	1.082588	0	0
31.48811	6.272269	3.582439	63.943986	1.809029	63.326176	1.809029	2.965209E+15	0.000273	3652.358737	19.488101	1.081453	0	0
36.360259	6.26041	2.859624	63.773698	2.101021	63.036368	2.101021	2.843702E+15	0.000279	3565.610411	19.462162	1.078617	0	0
40.939606	6.301456	1.917152	63.605083	2.378179	62.748298	2.378179	2.727638E+15	0.000287	3476.919966	19.527302	1.073011	0	0
45.752084	6.275616	1.293038	63.438021	2.636874	62.463658	2.636874	2.616676E+15	0.000294	3390.356995	19.42273	1.070809	0	0
47.163675	6.266555	1.10835	63.268631	2.877771	62.178277	2.877771	2.508136E+15	0.000301	3309.690714	19.481889	1.065084	0	0
48.565111	6.240526	0.983367	63.100711	3.100209	61.897269	3.100209	2.404356E+15	0.000308	3233.458842	19.480702	1.062103	0	0
49.962048	6.203499	0.870386	62.937446	3.306817	61.623926	3.306817	2.30698E+15	0.000316	3157.763917	19.41875	1.059821	0	0
51.376017	6.139975	0.787023	62.771813	3.4975	61.350493	3.4975	2.211635E+15	0.000323	3089.607295	19.51784	1.05378	0	0
52.812144	6.041127	0.717454	62.615164	3.672847	61.090747	3.672847	2.124553E+15	0.00033	3020.593357	19.446859	1.050297	0	0
54.200816	5.896199	0.660973	62.454104	3.838324	60.826796	3.838324	2.038059E+15	0.000337	2956.284235	19.449402	1.044361	0	0
55.589	5.683049	0.611543	62.294923	3.991658	60.567445	3.991658	1.95551E+15	0.000345	2895.128069	19.480885	1.038228	0	0
56.939509	5.381486	0.569446	62.137416	4.133093	60.312704	4.133093	1.876616E+15	0.000352	2838.071225	19.402676	1.034891	0	0
58.291766	4.950135	0.536392	61.981094	4.266112	60.060751	4.266112	1.800975E+15	0.000359	2782.030574	19.482354	1.028084	0	0
59.594105	4.384528	0.504945	61.824527	4.39122	59.809821	4.39122	1.727793E+15	0.000366	2728.030401	19.46971	1.02385	0	0
60.851142	3.656133	0.479326	61.66947	4.507846	59.562576	4.507846	1.657786E+15	0.000373	2676.248006	19.42175	1.019761	0	0
62.036893	2.785038	0.457687	61.512494	4.61625	59.314833	4.61625	1.589341E+15	0.00038	2629.584868	19.521994	1.012427	0	0
63.116294	1.825603	0.457351	61.358336	4.717405	59.072274	4.717405	1.524435E+15	0.000386	2583.988675	19.41991	1.008839	0	0
64.024636	0.893379	0.46622	61.208507	4.811339	58.837031	4.811339	1.463481E+15	0.000393	2539.172026	19.460469	1.001927	0	0
53.59377	5.964937	0.687391	61.05639	4.89907	58.600433	4.89907	1.403684E+15	0.0004	2498.889519	19.48143	0.995965	0	0
64.784389	0	0	60.902722	4.981435	58.363114	4.981435	1.345353E+15	0.000406	2461.80214	19.405956	0.991982	0	0
0	0	0	60.752974	5.058845	58.131979	5.058845	1.290459E+15	0.000412	2423.991319	19.496971	0.984753	0	0
0	0	0	60.608005	5.131304	57.908303	5.131304	1.2391E+15	0.000419	2385.490123	19.459665	0.980625	0	0
0	0	0	60.459645	5.199369	57.681446	5.199369	1.188306E+15	0.000425	2351.320875	19.44834	0.975137	0	0
0	0	0	60.309979	5.263597	57.453866	5.263597	1.138826E+15	0.000431	2319.425786	19.520714	0.967843	0	0
0	0	0	60.165295	5.323728	57.233929	5.323728	1.092627E+15	0.000437	2286.659152	19.410214	0.964387	0	0
0	0	0	60.025226	5.37961	57.02139	5.37961	1.049391E+15	0.000443	2254.250208	19.488009	0.956895	0	0
0	0	0	59.883318	5.432058	56.80754	5.432058	1.007044E+15	0.000449	2225.198661	19.464813	0.952067	0	0
0	0	0	59.744107	5.480883	56.598458	5.480883	9.668873E+14	0.000455	2197.5222	19.422776	0.947529	0	0
0	0	0	59.607345	5.5277	56.392992	5.5277	9.287392E+14	0.000461	2167.885933	19.518303	0.940472	0	0
0	0	0	59.470093	5.571222	56.188117	5.571222	8.917184E+14	0.000467	2141.794996	19.439885	0.936673	0	0
0	0	0	59.335536	5.612335	55.98755	5.612335	8.566224E+14	0.000472	2115.368972	19.471246	0.930342	0	0
0	0	0	59.194854	5.651068	55.779768	5.651068	8.21164E+14	0.000477	2094.499711	19.50799	0.924182	0	0
0	0	0	59.061033	5.687431	55.581853	5.687431	7.885767E+14	0.000483	2071.339327	19.418681	0.920212	0	0
0	0	0	58.926681	5.721383	55.384193	5.721383	7.569511E+14	0.000487	2051.154037	19.506888	0.912733	0	0
0	0	0	58.796493	5.753289	55.192802	5.753289	7.273224E+14	0.000492	2030.321364	19.446806	0.908841	0	0
0	0	0	58.662141	5.783918	54.996262	5.783918	6.977681E+14	0.000497	2011.855913	19.443817	0.903473	0	0
0	0	0	58.536936	5.812376	54.812748	5.812376	6.711374E+14	0.000502	1990.767077	19.523947	0.896825	0	0
0	0	0	58.404095	5.839751	54.619437	5.839751	6.438195E+14	0.000506	1974.040499	19.418167	0.893567	0	0
0	0	0	58.274561	5.865261	54.431327	5.865261	6.180874E+14	0.000511	1957.986843	19.51274	0.886193	0	0
0	0	0	58.148294	5.889462	54.24805	5.889462	5.938431E+14	0.000515	1940.917803	19.478601	0.881774	0	0
0	0	0	58.021415	5.912222	54.064587	5.912222	5.702941E+14	0.000519	1926.063706	19.433399	0.876986	0	0
0	0	0	57.895843	5.933843	53.88331	5.933843	5.4777E+14	0.000523	1911.298813	19.520407	0.870364	0	0
0	0	0	57.769086	5.954184	53.701032	5.954184	5.258026E+14	0.000526	1899.052699	19.439409	0.866895	0	0
0	0	0	57.648209	5.973366	53.527094	5.973366	5.055559E+14	0.00053	1884.773918	19.486267	0.860669	0	0
0	0	0	57.522188	5.991746	53.346605	5.991746	4.851582E+14	0.000534	1873.818679	19.501911	0.855182	0	0
0	0	0	57.398004	6.00936	53.168849	6.00936	4.657495E+14	0.000537	1861.861196	19.415116	0.851581	0	0
0	0	0	57.276964	6.025743	52.995918	6.025743	4.474758E+14	0.00054	1850.722967	19.52397	0.844128	0	0
0	0	0	57.152698	6.041263	52.819082	6.041263	4.293589E+14	0.000543	1842.743938	19.438828	0.840897	0	0
0	0	0	57.032312	6.056277	52.647579	6.056277	4.124134E+14	0.000546	1831.775831	19.465497	0.834974	0	0
0	0	0	56.910333	6.070198	52.474547	6.070198	3.958357E+14	0.000548	1824.746628	19.508963	0.829434	0	0
0	0	0	56.788803	6.083987	52.302023	6.083987	3.79896E+14	0.000551	1814.870503	19.410119	0.826084	0	0
0	0	0	56.665804	6.096743	52.128118	6.096743	3.643341E+14	0.000553	1809.016256	19.505163	0.819251	0	0
0	0	0	56.547663	6.108897	51.960994	6.108897	3.499127E+14	0.000555	1800.855968	19.452236	0.815452	0	0
0	0	0	56.429768	6.120218	51.794669	6.120218	3.36021E+14	0.000557	1795.074132	19.438527	0.810571	0	0
0	0	0	56.307503	6.131599	51.622299	6.131599	3.221272E+14	0.000559	1788.352928	19.496555	0.804557	0	0
0	0	0	56.192834	6.142092	51.460637	6.142092	3.095581E+14	0.000562	1780.242855	19.399821	0.801694	0	0
0	0	0	56.072816	6.15217	51.291993	6.15217	2.968676E+14	0.000563	1775.496252	19.484584	0.795033	0	0
0	0	0	55.955982	6.161771	51.12786	6.161771	2.84958E+14	0.000565	1769.45631	19.450811	0.791181	0	0
0	0	0	55.838495	6.170749	50.963219	6.170749	2.734112E+14	0.000566	1765.976194	19.405769	0.786921	0	0
0	0	0	55.719375	6.179479	50.796466	6.179479	2.621307E+14	0.000567	1762.649871	19.509995	0.780563	0	0
0	0	0	55.608504	6.187468	50.641267	6.187468	2.520064E+14	0.000569	1757.958654	19.384693	0.778096	0	0
0	0	0	55.49069	6.195696	50.476455	6.195696	2.416332E+14	0.000571	1752.327338	19.465753	0.771659	0	0
0	0	0	55.376838	6.203048	50.31757	6.203048	2.319745E+14	0.000571	1749.792662	19.434243	0.767728	0	0
0	0	0	55.260494	6.210317	50.155314	6.210317	2.22465E+14	0.000572	1746.761614	19.382123	0.763784	0	0
0	0	0	55.146152	6.217029	49.996115	6.217029	2.134635E+14	0.000573	1745.532013	19.464532	0.757585	0	0
0	0	0	55.031932	6.22381	49.836939	6.22381	2.048022E+14	0.000575	1740.490182	19.370749	0.755065	0	0
0	0	0	54.916323	6.229603	49.676641	6.229603	1.963618E+14	0.000573	1745.035398	19.43361	0.749328	0	0
0	0	0	54.801573	6.235798	49.517081	6.235798	1.882986E+14	0.000574	1741.391093	19.443305	0.744988	0	0
0	0	0	54.689762	6.241411	49.361895	6.241411	1.807339E+14	0.000575	1740.304269	19.351013	0.741809	0	0
0	0	0	54.574725	6.24695	49.202362	6.24695	1.732424E+14	0.000575	1739.402134	19.474277	0.735359	0	0
0	0	0	54.46169	6.252074	49.045812	6.252074	1.661599E+14	0.000575	1740.085368	19.351626	0.733235	0	0
0	0	0	54.348205	6.257086	48.888689	6.257086	1.593184E+14	0.000575	1739.866162	19.39964	0.727682	0	0
0	0	0	54.231657	6.261701	48.72773	6.261701	1.525636E+14	0.000573	1744.848854	19.408863	0.723382	0	0
0	0	0	54.122868	6.266257	48.577212	6.266257	1.464987E+14	0.000574	1743.002935	19.333138	0.720427	0	0
0	0	0	54.007015	6.270799	48.417136	6.270799	1.402864E+14	0.000574	1743.062631	19.435453	0.714227	0	0
0	0	0	53.895899	6.274749	48.263915	6.274749	1.345592E+14	0.000572	1747.325998	19.333503	0.712011	0	0
0	0	0	53.784782	6.278763	48.110588	6.278763	1.290505E+14	0.000572	1747.838438	19.369874	0.707065	0	0
0	0	0	53.671012	6.282702	47.953702	6.282702	1.236292E+14	0.000572	1748.584842	19.404371	0.702554	0	0
0	0	0	53.559854	6.286252	47.800646	6.286252	1.18539E+14	0.000571	1752.3298	19.303184	0.700153	0	0
0	0	0	53.447309	6.289754	47.645718	6.289754	1.135862E+14	0.00057	1755.296544	19.41743	0.693848	0	0
0	0	0	53.334151	6.292896	47.490255	6.292896	1.088032E+14	0.000567	1763.660189	19.31193	0.691909	0	0
0	0	0	53.225525	6.29604	47.340864	6.29604	1.04391E+14	0.000566	1766.465542	19.333177	0.687042	0	0
0	0	0	53.11253	6.299159	47.185565	6.299159	9.998092E+13	0.000565	1770.077091	19.362715	0.682623	0	0
0	0	0	52.998555	6.302228	47.028952	6.302228	9.571171E+13	0.000564	1772.628973	19.259636	0.68013	0	0
0	0	0	52.888542	6.304918	46.878007	6.304918	9.175531E+13	0.000562	1779.238234	19.392526	0.674154	0	0
0	0	0	52.773301	6.307651	46.719935	6.307651	8.777786E+13	0.00056	1785.703726	19.284165	0.672123	0	0
0	0	0	52.664267	6.310202	46.570378	6.310202	8.416621E+13	0.000559	1790.116786	19.323389	0.667322	0	0
0	0	0	52.547556	6.312565	46.410615	6.312565	8.04575E+13	0.000555	1802.684186	19.343875	0.663219	0	0
0	0	0	52.434766	6.315014	46.256027	6.315014	7.70221E+13	0.000553	1807.334842	19.260011	0.660555	0	0
0	0	0	52.321934	6.317278	46.101535	6.317278	7.372621E+13	0.000551	1814.969685	19.358403	0.654883	0	0
0	0	0	52.205591	6.319454	45.942364	6.319454	7.046953E+13	0.000548	1825.312286	19.256389	0.652917	0	0
0	0	0	52.089901	6.321489	45.784186	6.321489	6.73684E+13	0.000544	1837.377903	19.289049	0.648222	0	0
0	0	0	51.975926	6.323623	45.628197	6.323623	6.444185E+13	0.000543	1841.915264	19.314079	0.644238	0	0
0	0	0	51.859582	6.32532	45.469425	6.32532	6.158099E+13	0.000537	1861.826326	19.20108	0.642114	0	0
0	0	0	51.74377	6.327145	45.31122	6.327145	5.885508E+13	0.000534	1874.229022	19.336024	0.636152	0	0
0	0	0	51.623506	6.328955	45.146995	6.328955	5.614792E+13	0.00053	1887.780077	19.211792	0.635018	0	0
0	0	0	51.496422	6.330836	44.973464	6.330836	5.341828E+13	0.000526	1900.359326	19.280789	0.630045	0	0
0	0	0	51.373055	6.332781	44.804859	6.332781	5.08917E+13	0.000525	1903.66406	19.269099	0.626761	0	0
0	0	0	51.255487	6.333976	44.644842	6.333976	4.859203E+13	0.000517	1935.182974	19.200438	0.624241	0	0
0	0	0	51.136611	6.335625	44.482567	6.335625	4.636957E+13	0.000515	1943.228809	19.299981	0.618991	0	0
0	0	0	51.006628	6.337248	44.305295	6.337248	4.405261E+13	0.000511	1957.637146	19.175525	0.617237	0	0
0	0	0	50.88518	6.338458	44.139968	6.338458	4.198993E+13	0.000504	1985.173008	19.226502	0.612792	0	0
0	0	0	50.762058	6.339781	43.972242	6.339781	3.999504E+13	0.000499	2005.39605	19.237415	0.60923	0	0
0	0	0	50.636159	6.340944	43.80092	6.340944	3.805091E+13	0.000491	2035.067186	19.144113	0.607001	0	0
0	0	0	50.510668	6.342495	43.629711	6.342495	3.620511E+13	0.000491	2036.725088	19.262901	0.601606	0	0
0	0	0	50.383666	6.343543	43.456989	6.343543	3.442635E+13	0.000483	2069.443221	19.123811	0.600604	0	0
0	0	0	50.254949	6.34493	43.281563	6.34493	3.271097E+13	0.000481	2076.963434	19.225219	0.59538	0	0
0	0	0	50.120924	6.34579	43.099527	6.34579	3.101392E+13	0.000471	2124.585573	19.179164	0.592861	0	0
0	0	0	49.993023	6.34687	42.92551	6.34687	2.947513E+13	0.000465	2148.23583	19.132895	0.589985	0	0
0	0	0	49.851688	6.34815	42.733098	6.34815	2.786184E+13	0.000462	2163.165714	19.228084	0.585276	0	0
0	0	0	49.71562	6.348819	42.548474	6.348819	2.639083E+13	0.00045	2223.302546	19.081963	0.584063	0	0
0	0	0	49.575592	6.350026	42.357877	6.350026	2.495681E+13	0.000447	2235.915627	19.185034	0.578997	0	0
0	0	0	49.435359	6.35098	42.167274	6.35098	2.359767E+13	0.000441	2268.320358	19.119624	0.576834	0	0
0	0	0	49.288306	6.351643	41.967775	6.351643	2.225078E+13	0.000428	2334.647969	19.093815	0.573655	0	0
0	0	0	49.141662	6.352634	41.768437	6.352634	2.098321E+13	0.000423	2363.208975	19.173217	0.56921	0	0
0	0	0	48.985911	6.353541	41.556871	6.353541	1.971494E+13	0.000416	2405.590813	19.035344	0.568049	0	0
0	0	0	48.831427	6.354205	41.347289	6.354205	1.853185E+13	0.000404	2473.879206	19.153525	0.562918	0	0
0	0	0	48.66902	6.355031	41.126793	6.355031	1.736375E+13	0.000396	2526.930057	19.053305	0.561164	0	0
0	0	0	48.506082	6.355714	40.905737	6.355714	1.626506E+13	0.000385	2597.619463	19.056011	0.557668	0	0
0	0	0	48.336569	6.35671	40.675403	6.35671	1.519507E+13	0.000381	2624.446689	19.11188	0.553737	0	0
0	0	0	48.161543	6.357007	40.438447	6.357007	1.416343E+13	0.000362	2765.542766	18.982674	0.552511	0	0
0	0	0	47.983904	6.357508	40.197704	6.357508	1.318739E+13	0.000347	2879.833347	19.112174	0.547287	0	0
0	0	0	47.792871	6.358289	39.938496	6.358289	1.221212E+13	0.000338	2957.395294	18.980083	0.546351	0	0
0	0	0	47.599468	6.359032	39.676119	6.359032	1.129768E+13	0.000329	3040.218023	19.050054	0.542024	0	0
0	0	0	47.389528	6.359588	39.3916	6.359588	1.038188E+13	0.000314	3180.740483	19.044168	0.53932	0	0
0	0	0	47.170031	6.360193	39.094087	6.360193	9.503207E+12	0.000301	3323.128126	18.948117	0.537394	0	0
0	0	0	46.939345	6.360429	38.781905	6.360429	8.659337E+12	0.000279	3582.142952	19.052196	0.532896	0	0
0	0	0	46.696776	6.361287	38.452844	6.361287	7.852295E+12	0.000271	3689.849013	18.923687	0.53167	0	0
0	0	0	46.438484	6.361736	38.103039	6.361736	7.075092E+12	0.000254	3943.998615	19.015012	0.527303	0	0
0	0	0	46.173781	6.362397	37.744272	6.362397	6.358024E+12	0.000241	4141.115464	18.966355	0.525114	0	0
0	0	0	45.899115	6.363134	37.371912	6.363134	5.690418E+12	0.000232	4318.664217	18.91754	0.52274	0	0
0	0	0	45.612728	6.363336	36.984407	6.363336	5.068623E+12	0.00021	4753.65932	19.017197	0.518426	0	0
0	0	0	45.312946	6.363739	36.578507	6.363739	4.490196E+12	0.000194	5151.956928	18.858785	0.51778	0	0
0	0	0	45.000791	6.364169	36.155825	6.364169	3.957758E+12	0.000179	5586.018693	18.985649	0.512715	0	0
0	0	0	44.673772	6.364552	35.713096	6.364552	3.467403E+12	0.000164	6113.361052	18.871223	0.511752	0	0
0	0	0	44.32809	6.364991	35.245037	6.364991	3.01483E+12	0.00015	6684.26144	18.889175	0.508269	0	0
0	0	0	43.964767	6.365468	34.753049	6.365468	2.60258E+12	0.000137	7305.797573	18.919307	0.505051	0	0
0	0	0	43.584211	6.365815	34.23793	6.365815	2.231E+12	0.000123	8152.220589	18.800736	0.503679	0	0
0	0	0	43.186789	6.36623	33.699888	6.36623	1.899391E+12	0.00011	9054.866457	18.930751	0.499062	0	0
0	0	0	42.768092	6.366681	33.133001	6.366681	1.603147E+12	9.942092E-5	10058.245434	18.788055	0.498429	0	0
0	0	0	42.320686	6.367125	32.527281	6.367125	1.337423E+12	8.876626E-5	11265.541169	18.891724	0.494063	0	0
0	0	0	41.840489	6.367275	31.877652	6.367275	1.100987E+12	7.484526E-5	13360.899015	18.834279	0.492164	0	0
0	0	0	41.338525	6.367687	31.198163	6.367687	8.983671E+11	6.543678E-5	15281.92461	18.780769	0.490001	0	0
0	0	0	40.81402	6.368109	30.488148	6.368109	7.263532E+11	5.708835E-5	17516.709119	18.872109	0.485991	0	0
0	0	0	40.258193	6.368198	29.736299	6.368198	5.798554E+11	4.634931E-5	21575.294547	18.730045	0.485278	0	0
0	0	0	39.681131	6.368725	28.954989	6.368725	4.589289E+11	4.077182E-5	24526.744031	18.850723	0.480609	0	0
0	0	0	39.076056	6.368835	28.136473	6.368835	3.591143E+11	3.266371E-5	30615.018744	18.739898	0.479606	0	0
0	0	0	38.442068	6.368913	27.278904	6.368913	2.777308E+11	2.569704E-5	38914.981512	18.75612	0.476454	0	0
0	0	0	37.773491	6.369212	26.374153	6.369212	2.117975E+11	2.098059E-5	47663.096691	18.781906	0.473512	0	0
0	0	0	37.083965	6.369719	25.440669	6.369719	1.601492E+11	1.801629E-5	55505.330595	18.656078	0.472206	0	0
0	0	0	36.36418	6.369844	24.466931	6.369844	1.196183E+11	1.392418E-5	71817.506575	18.794278	0.467669	0	0
0	0	0	35.608008	6.369841	23.444216	6.369841	8.803624E+10	1.02387E-5	97668.68189	18.608211	0.46755	0	0
0	0	0	34.82317	6.370375	22.38168	6.370375	6.404355E+10	8.741941E-6	114391.077475	18.757014	0.462894	0	0
0	0	0	34.017954	6.370409	21.292534	6.370409	4.620614E+10	6.379261E-6	156757.980047	18.648975	0.461812	0	0
0	0	0	33.189135	6.370478	20.171391	6.370478	3.30192E+10	4.663328E-6	214439.110652	18.657392	0.458897	0	0
0	0	0	32.326217	6.37079	19.003612	6.37079	2.327172E+10	3.672404E-6	272301.200399	18.704383	0.455745	0	0
0	0	0	31.469138	6.371031	17.843855	6.371031	1.64406E+10	2.852822E-6	350530.123773	18.564185	0.454716	0	0
0	0	0	30.60132	6.37132	16.669442	6.37132	1.15642E+10	2.279146E-6	438760.850981	18.693017	0.450481	0	0
0	0	0	29.73048	6.371272	15.491667	6.371272	8.124201E+9	1.566155E-6	638506.213395	18.549117	0.449862	0	0
0	0	0	28.85233	6.371442	14.303514	6.371442	5.690606E+9	1.189409E-6	840753.819293	18.632389	0.446063	0	0
0	0	0	27.967483	6.371365	13.106859	6.371365	3.975181E+9	8.004371E-7	1249317.347556	18.589242	0.444084	0	0
0	0	0	27.087781	6.371569	11.916504	6.371569	2.782667E+9	6.2098E-7	1610357.763494	18.527113	0.442251	0	0
0	0	0	26.207834	6.371808	10.725714	6.371808	1.947701E+9	4.977725E-7	2008949.774953	18.617935	0.438676	0	0
0	0	0	25.328377	6.372088	9.535459	6.372088	1.363545E+9	4.202394E-7	2379596.224205	18.448232	0.438346	0	0
0	0	0	24.459293	6.372116	8.359844	6.372116	9.586124E+8	3.016853E-7	3314712.466981	18.594525	0.433743	0	0
0	0	0	23.592659	6.372046	7.187793	6.372046	6.746026E+8	2.017274E-7	4957184.407768	18.446639	0.433479	0	0
0	0	0	22.718266	6.372334	6.004318	6.372334	4.732458E+8	1.779337E-7	5620072.335952	18.528633	0.42972	0	0
0	0	0	21.872418	6.372123	4.860753	6.372123	3.358548E+8	1.06276E-7	9409466.369433	18.506115	0.427873	0	0
0	0	0	21.044497	6.37253	3.739783	6.37253	2.400894E+8	1.095221E-7	9130581.452672	18.414066	0.426198	0	0
0	0	0	20.237076	6.372544	2.647588	6.372544	1.730629E+8	8.016942E-8	1.247358E+7	18.533697	0.422438	0	0
0	0	0	19.44701	6.372656	1.578593	6.372656	1.256293E+8	6.641269E-8	1.505736E+7	18.343991	0.422306	0	0
0	0	0	18.675321	6.372831	0.534266	6.372831	9.187843E+7	6.23163E-8	1.604716E+7	18.498135	0.417822	0	0
0	0	0	17.927195	6.37246	-0.476625	6.37246	6.783988E+7	2.875925E-8	3.477142E+7	18.325877	0.417558	0	0
0	0	0	17.200508	6.372838	-1.460682	6.372838	5.052793E+7	3.466365E-8	2.884866E+7	18.418047	0.413996	0	0
0	0	0	16.495342	6.373076	-2.415242	6.373076	3.796359E+7	4.2645E-8	2.344941E+7	18.379105	0.412097	0	0
0	0	0	15.813656	6.37281	-3.336543	6.37281	2.879636E+7	1.889027E-8	5.293731E+7	18.308803	0.410488	0	0
0	0	0	15.156759	6.372852	-4.225231	6.372852	2.20634E+7	1.549111E-8	6.455315E+7	18.401283	0.407058	0	0
0	0	0	14.520607	6.372936	-5.085991	6.372936	1.704748E+7	1.39278E-8	7.179885E+7	18.254623	0.406583	0	0
0	0	0	13.900871	6.373111	-5.924834	6.373111	1.325984E+7	1.643594E-8	6.084229E+7	18.398778	0.402428	0	0
0	0	0	13.298939	6.373195	-6.739319	6.373195	1.038847E+7	1.71289E-8	5.838088E+7	18.266556	0.401901	0	0
0	0	0	12.729514	6.373188	-7.50955	6.373188	8246852.5	1.32336E-8	7.556524E+7	18.315547	0.398656	0	0
0	0	0	12.18116	6.373055	-8.250872	6.373055	6602908	7.022375E-9	1.42402E+8	18.286713	0.396994	0	0
0	0	0	11.657839	6.373195	-8.959209	6.373195	5340599.25	8.805831E-9	1.135611E+8	18.20606	0.395477	0	0
0	0	0	11.156407	6.373427	-9.638243	6.373427	4358116.25	7.818123E-8	1.279079E+7	18.326972	0.391928	0	0
0	0	0	10.676944	6.373336	-10.286511	6.373336	3588195.25	1.315796E-8	7.599962E+7	18.114748	0.39181	0	0
0	0	0	10.21982	6.373434	-10.905185	6.373434	2981168.25	7.63348E-8	1.310018E+7	18.283896	0.387457	0	0
0	0	0	9.778417	6.373357	-11.502012	6.373357	2492672.5	1.11963E-8	8.931521E+7	18.087266	0.387602	0	0
0	0	0	9.359597	6.373567	-12.069254	6.373567	2103392.25	-7.565088E-9	-1.321862E+8	18.202927	0.38375	0	0
0	0	0	8.959072	6.373441	-12.61062	6.373441	1788119.75	7.99549E-8	1.250705E+7	18.112934	0.382682	0	0
0	0	0	8.574268	6.373546	-13.1315	6.373546	1529823.25	-6.710564E-9	-1.490188E+8	18.105918	0.380479	0	0
0	0	0	8.208413	6.373413	-13.625938	6.373413	1318931.625	1.479946E-8	6.757002E+7	18.166047	0.377815	0	0
0	0	0	7.859587	6.373672	-14.098686	6.373672	1144990	-2.166998E-9	-4.61468E+8	18.0279	0.377234	0	0
0	0	0	7.523257	6.373609	-14.553425	6.373609	999036.625	-2.641735E-9	-3.785391E+8	18.157133	0.37333	0	0
0	0	0	7.20122	6.373721	-14.989438	6.373721	876753.875	-1.358887E-9	-7.358964E+8	17.959534	0.373462	0	0
0	0	0	6.8976	6.373504	-15.399389	6.373504	775205.625	-6.063959E-9	-1.649088E+8	18.116086	0.369399	0	0
0	0	0	6.607333	6.373784	-15.793018	6.373784	689140	-8.664048E-10	-1.154195E+9	17.980361	0.369056	0	0
0	0	0	6.330175	6.373693	-16.167613	6.373693	615894.125	-1.064743E-9	-9.391934E+8	18.037166	0.366035	0	0
0	0	0	6.066657	6.373665	-16.523978	6.373665	553485.5	-1.081687E-9	-9.24482E+8	18.00531	0.364387	0	0
0	0	0	5.812122	6.37384	-16.868912	6.37384	499215.75	-5.374183E-10	-1.860748E+9	17.932578	0.36312	0	0
0	0	0	5.568573	6.373378	-17.196715	6.373378	452277.125	2.620904E-9	3.815477E+8	18.030873	0.359889	0	0
0	0	0	5.335314	6.373721	-17.513473	6.373721	411465.125	-6.377325E-10	-1.568056E+9	17.852993	0.359651	0	0
0	0	0	5.108835	6.373651	-17.819583	6.373651	375366	-7.847768E-10	-1.274248E+9	17.987479	0.355905	0	0
0	0	0	4.893871	6.373721	-18.11062	6.373721	344036.5	-5.332244E-10	-1.875383E+9	17.827249	0.355839	0	0
0	0	0	4.671271	6.373497	-18.410922	6.373497	314347.125	-2.828153E-9	-3.535877E+8	17.924451	0.352581	0	0
0	0	0	4.469701	6.373826	-18.684782	6.373826	289679.375	-3.234702E-10	-3.091475E+9	17.844056	0.351592	0	0
0	0	0	4.279199	6.373637	-18.941789	6.373637	268147.875	-6.026728E-10	-1.659275E+9	17.818276	0.349534	0	0
0	0	0	4.096782	6.373798	-19.189135	6.373798	249031.75	-3.004798E-10	-3.32801E+9	17.854679	0.347265	0	0
0	0	0	3.910199	6.373581	-19.440732	6.373581	230888.125	-7.414081E-10	-1.348785E+9	17.736586	0.346711	0	0
0	0	0	3.743382	6.373966	-19.667803	6.373966	215788.75	-1.755353E-10	-5.696861E+9	17.880087	0.343031	0	0
0	0	0	3.577503	6.373637	-19.890978	6.373637	201753.625	-4.534491E-10	-2.205319E+9	17.658314	0.343559	0	0
0	0	0	3.416321	6.373826	-20.109709	6.373826	188990.875	-2.110365E-10	-4.738518E+9	17.839759	0.339404	0	0
0	0	0	3.265594	6.373686	-20.313083	6.373686	177787.375	-3.164857E-10	-3.1597E+9	17.636884	0.339997	0	0
0	0	0	3.113763	6.373882	-20.519193	6.373882	167173.25	-1.624541E-10	-6.155586E+9	17.781179	0.336198	0	0
0	0	0	2.972959	6.373917	-20.709793	6.373917	157897.125	-1.419307E-10	-7.045694E+9	17.663841	0.335763	0	0
0	0	0	2.82754	6.373525	-20.905044	6.373525	148857	-8.367186E-10	-1.195145E+9	17.678006	0.333455	0	0
0	0	0	2.689798	6.373924	-21.092857	6.373924	140771.875	-1.246669E-10	-8.021374E+9	17.693396	0.331661	0	0
0	0	0	2.55471	6.373945	-21.275672	6.373945	133269.25	-1.130118E-10	-8.848637E+9	17.585106	0.330724	0	0
0	0	0	2.426933	6.37405	-21.448914	6.37405	126541	-8.851574E-11	-1.129743E+10	17.711302	0.327558	0	0
0	0	0	2.300707	6.374071	-21.619742	6.374071	120228	-8.125409E-11	-1.230707E+10	17.479306	0.327796	0	0
0	0	0	2.174358	6.373749	-21.789446	6.373749	114224.25	-1.604371E-10	-6.232973E+9	17.667589	0.324102	0	0
0	0	0	2.055442	6.373903	-21.950887	6.373903	108847.875	-1.008676E-10	-9.913989E+9	17.460016	0.324406	0	0
0	0	0	1.937996	6.37384	-22.109521	6.37384	103786.375	-1.117286E-10	-8.950258E+9	17.606106	0.320976	0	0
0	0	0	1.822265	6.373847	-22.266099	6.373847	99029	-1.047257E-10	-9.548757E+9	17.443874	0.320686	0	0
0	0	0	1.711149	6.373805	-22.416249	6.373805	94666.75	-1.119695E-10	-8.931006E+9	17.522665	0.318061	0	0
0	0	0	1.595826	6.374001	-22.572992	6.374001	90342.375	-6.881845E-11	-1.453099E+10	17.450571	0.317032	0	0
0	0	0	1.492469	6.374029	-22.712913	6.374029	86634.875	-6.280073E-11	-1.592338E+10	17.442663	0.315318	0	0
0	0	0	1.381271	6.374134	-22.863733	6.374134	82815.75	-5.081168E-11	-1.968052E+10	17.462378	0.313181	0	0
0	0	0	1.275137	6.374162	-23.007412	6.374162	79327.75	-4.675654E-11	-2.138738E+10	17.347092	0.312706	0	0
0	0	0	1.169166	6.374113	-23.150576	6.374113	75991.625	-4.810238E-11	-2.078899E+10	17.469564	0.309514	0	0
0	0	0	1.063154	6.373959	-23.293392	6.373959	72794.75	-6.00305E-11	-1.66582E+10	17.285256	0.309738	0	0
0	0	0	0.954896	6.374141	-23.440533	6.374141	69668.75	-4.231207E-11	-2.363392E+10	17.43262	0.306282	0	0
0	0	0	0.853785	6.37405	-23.576961	6.37405	66870.5	-4.677608E-11	-2.137845E+10	17.257716	0.306533	0	0
0	0	0	0.747569	6.373924	-23.720158	6.373924	64051.875	-5.672404E-11	-1.762921E+10	17.372421	0.303393	0	0
0	0	0	0.6456	6.373938	-23.858148	6.373938	61457.875	-5.286417E-11	-1.891641E+10	17.269234	0.303103	0	0
0	0	0	0.543998	6.373952	-23.995641	6.373952	58977.75	-4.931496E-11	-2.027782E+10	17.292947	0.300795	0	0
0	0	0	0.435659	6.374176	-24.143059	6.374176	56443.25	-3.262632E-11	-3.06501E+10	17.246585	0.299634	0	0
0	0	0	0.334466	6.373917	-24.278946	6.373917	54174.375	-4.869629E-11	-2.053544E+10	17.204962	0.298223	0	0
0	0	0	0.234008	6.373868	-24.414648	6.373868	52012.25	-5.223838E-11	-1.914301E+10	17.271487	0.295954	0	0
0	0	0	0.133999	6.374001	-24.550448	6.374001	49945.5	-3.804606E-11	-2.628393E+10	17.112766	0.295822	0	0
0	0	0	0.052489	6.373805	-24.659948	6.373805	48321.875	-5.715391E-11	-1.749662E+10	17.243726	0.292709	0	0
0	0	0	-0.015422	6.373882	-24.752112	6.373882	47009.5	-4.568245E-11	-2.189024E+10	17.030653	0.293078	0	0
0	0	0	-0.066795	6.374204	-24.822856	6.374204	46040.625	-2.562443E-11	-3.902526E+10	17.213508	0.28949	0	0
0	0	0	-0.103057	6.373966	-24.870985	6.373966	45368.625	-3.690551E-11	-2.709622E+10	16.984075	0.290242	0	0
0	0	0	-0.133154	6.374071	-24.912106	6.374071	44818.375	-3.028975E-11	-3.301447E+10	17.14505	0.286641	0	0
0	0	0	-0.144466	6.373966	-24.926999	6.373966	44613.25	-3.629104E-11	-2.755501E+10	16.935145	0.287195	0	0
0	0	0	-0.158881	6.374008	-24.946662	6.374008	44353.375	-3.336212E-11	-2.997411E+10	17.095349	0.284003	0	0
0	0	0	-0.177176	6.373833	-24.970729	6.373833	44025.625	-4.826177E-11	-2.072034E+10	16.962486	0.283871	0	0
0	0	0	-0.19204	6.373861	-24.990945	6.373861	43761	-4.470051E-11	-2.237111E+10	17.017993	0.281576	0	0
0	0	0	-0.198901	6.373938	-25.000526	6.373938	43639.5	-3.753735E-11	-2.664013E+10	16.960843	0.280508	0	0
0	0	0	-0.204659	6.374008	-25.008587	6.374008	43537.75	-3.274862E-11	-3.053564E+10	16.900095	0.279188	0	0
0	0	0	-0.209151	6.373973	-25.014527	6.373973	43458.5	-3.48782E-11	-2.86712E+10	16.951432	0.277184	0	0
0	0	0	-0.211111	6.37377	-25.016388	6.37377	43424	-5.698509E-11	-1.754845E+10	16.824304	0.276814	0	0
0	0	0	-0.212254	6.373994	-25.018808	6.373994	43403.875	-3.348871E-11	-2.986081E+10	16.932039	0.274242	0	0
0	0	0	-0.213765	6.373952	-25.020688	6.373952	43377.25	-3.627042E-11	-2.757068E+10	16.74677	0.274202	0	0
0	0	0	-0.215276	6.374064	-25.023168	6.374064	43350.75	-2.96321E-11	-3.374718E+10	16.911898	0.271024	0	0
0	0	0	-0.215766	6.374064	-25.023831	6.374064	43342.125	-2.962621E-11	-3.37539E+10	16.674364	0.271828	0	0
0	0	0	-0.217032	6.374036	-25.025434	6.374036	43319.875	-3.102678E-11	-3.223023E+10	16.912335	0.268135	0	0
0	0	0	-0.218747	6.374113	-25.028054	6.374113	43289.75	-2.740223E-11	-3.649338E+10	16.637427	0.269084	0	0
0	0	0	-0.219728	6.37405	-25.029135	6.37405	43272.5	-3.026922E-11	-3.303686E+10	16.84881	0.265431	0	0
0	0	0	-0.22181	6.373987	-25.031707	6.373987	43236	-3.379434E-11	-2.959075E+10	16.590902	0.266301	0	0
0	0	0	-0.222872	6.373994	-25.03317	6.373994	43217.5	-3.334491E-11	-2.998958E+10	16.78279	0.262859	0	0
0	0	0	-0.223689	6.373679	-25.033048	6.373679	43203.125	-7.926223E-11	-1.261635E+10	16.557068	0.263386	0	0
0	0	0	-0.225077	6.374155	-25.03678	6.374155	43178.875	-2.570288E-11	-3.890615E+10	16.692265	0.260484	0	0
0	0	0	-0.225281	6.374099	-25.036838	6.374099	43175.25	-2.791964E-11	-3.581708E+10	16.538118	0.260445	0	0
0	0	0	-0.226302	6.374064	-25.038083	6.374064	43157.375	-2.949992E-11	-3.389839E+10	16.590726	0.258215	0	0
0	0	0	-0.228589	6.374183	-25.04164	6.374183	43117.375	-2.468533E-11	-4.050989E+10	16.536202	0.257556	0	0
0	0	0	-0.227241	6.37391	-25.038754	6.37391	43141	-3.936921E-11	-2.540056E+10	16.538826	0.255815	0	0
0	0	0	-0.229651	6.373973	-25.042258	6.373973	43098.75	-3.458948E-11	-2.891053E+10	16.507449	0.254575	0	0
0	0	0	-0.230508	6.374106	-25.043937	6.374106	43083.875	-2.756309E-11	-3.62804E+10	16.413932	0.253572	0	0
0	0	0	-0.232019	6.373994	-25.045544	6.373994	43057.375	-3.322137E-11	-3.010111E+10	16.495913	0.251594	0	0
0	0	0	-0.232673	6.374008	-25.046483	6.374008	43046	-3.237873E-11	-3.088447E+10	16.367989	0.251172	0	0
0	0	0	-0.233408	6.373868	-25.046931	6.373868	43033.25	-4.322034E-11	-2.313725E+10	16.485042	0.248942	0	0
0	0	0	-0.233204	6.373987	-25.047119	6.373987	43036.75	-3.36386E-11	-2.972775E+10	16.262747	0.24914	0	0
0	0	0	-0.233122	6.374134	-25.047581	6.374134	43038.25	-2.640616E-11	-3.786996E+10	16.430339	0.246225	0	0
0	0	0	-0.234102	6.373945	-25.04817	6.373945	43021.125	-3.648173E-11	-2.741098E+10	16.209183	0.246687	0	0
0	0	0	-0.234674	6.374029	-25.049271	6.374029	43011.125	-3.117832E-11	-3.207357E+10	16.394168	0.243706	0	0
0	0	0	-0.235776	6.374029	-25.050763	6.374029	42991.875	-3.116437E-11	-3.208793E+10	16.147533	0.244444	0	0
0	0	0	-0.234265	6.374148	-25.049182	6.374148	43018.25	-2.586421E-11	-3.866347E+10	16.346478	0.241213	0	0
0	0	0	-0.234388	6.374169	-25.04943	6.374169	43016.125	-2.510715E-11	-3.98293E+10	16.08997	0.241925	0	0
0	0	0	-0.235164	6.374323	-25.05108	6.374323	43002.625	-2.066975E-11	-4.837989E+10	16.321451	0.238627	0	0
0	0	0	-0.234796	6.373966	-25.049191	6.373966	43009	-3.498605E-11	-2.858282E+10	16.050796	0.239617	0	0
0	0	0	-0.235245	6.374274	-25.050999	6.374274	43001.125	-2.18987E-11	-4.566482E+10	16.266382	0.236345	0	0
0	0	0	-0.234306	6.374253	-25.049647	6.374253	43017.5	-2.248022E-11	-4.448355E+10	15.999075	0.237216	0	0
0	0	0	-0.235654	6.374085	-25.050815	6.374085	42994	-2.841577E-11	-3.519172E+10	16.221721	0.233892	0	0
0	0	0	-0.234429	6.374148	-25.049403	6.374148	43015.375	-2.586248E-11	-3.866605E+10	15.943865	0.234868	0	0
0	0	0	-0.234102	6.374099	-25.048771	6.374099	43021.125	-2.781998E-11	-3.594539E+10	16.148681	0.23157	0	0
0	0	0	-0.234184	6.374141	-25.049045	6.374141	43019.75	-2.612727E-11	-3.827418E+10	15.907352	0.232547	0	0
0	0	0	-0.233775	6.374029	-25.048056	6.374029	43026.875	-3.118974E-11	-3.206183E+10	16.103109	0.229288	0	0
0	0	0	-0.229814	6.374078	-25.042888	6.374078	43096	-2.880087E-11	-3.472118E+10	15.854923	0.230093	0	0
0	0	0	-0.232183	6.374134	-25.046311	6.374134	43054.625	-2.64162E-11	-3.785555E+10	16.017157	0.227257	0	0
0	0	0	-0.231284	6.374148	-25.04515	6.374148	43070.25	-2.589547E-11	-3.861679E+10	15.81891	0.227785	0	0
0	0	0	-0.233939	6.373868	-25.04765	6.373868	43023.875	-4.321093E-11	-2.314229E+10	15.95731	0.22512	0	0
0	0	0	-0.232264	6.374127	-25.046394	6.374127	43053.125	-2.668856E-11	-3.746923E+10	15.766972	0.225674	0	0
0	0	0	-0.23108	6.373952	-25.04411	6.373952	43073.875	-3.601674E-11	-2.776486E+10	15.875923	0.222865	0	0
0	0	0	-0.230223	6.374078	-25.043441	6.374078	43088.875	-2.87961E-11	-3.472692E+10	15.714354	0.223142	0	0
0	0	0	-0.228344	6.374183	-25.041309	6.374183	43121.625	-2.468776E-11	-4.05059E+10	15.826092	0.220767	0	0
0	0	0	-0.229692	6.373973	-25.042314	6.373973	43098.125	-3.458898E-11	-2.891095E+10	15.681177	0.221005	0	0
0	0	0	-0.229324	6.373791	-25.041107	6.373791	43104.5	-5.30784E-11	-1.884006E+10	15.77705	0.21867	0	0
0	0	0	-0.229896	6.373903	-25.042317	6.373903	43094.5	-3.993498E-11	-2.50407E+10	15.61021	0.218868	0	0
0	0	0	-0.229692	6.374113	-25.042859	6.374113	43098.125	-2.728093E-11	-3.665564E+10	15.722254	0.216335	0	0
0	0	0	-0.230958	6.373973	-25.044026	6.373973	43076	-3.457122E-11	-2.892579E+10	15.564543	0.216691	0	0
0	0	0	-0.22961	6.374064	-25.042558	6.374064	43099.5	-2.946036E-11	-3.394391E+10	15.652384	0.214475	0	0
0	0	0	-0.230223	6.373959	-25.042977	6.373959	43088.875	-3.553343E-11	-2.814252E+10	15.506094	0.21466	0	0
0	0	0	-0.23108	6.374001	-25.044301	6.374001	43073.875	-3.281159E-11	-3.047703E+10	15.606397	0.212378	0	0
0	0	0	-0.230223	6.373861	-25.042595	6.373861	43088.875	-4.401396E-11	-2.272007E+10	15.456002	0.212484	0	0
0	0	0	-0.233204	6.374127	-25.047664	6.374127	43036.75	-2.667841E-11	-3.748349E+10	15.533575	0.210215	0	0
0	0	0	-0.233081	6.374015	-25.047062	6.374015	43038.875	-3.197202E-11	-3.127735E+10	15.369658	0.210743	0	0
0	0	0	-0.233612	6.37419	-25.048462	6.37419	43029.625	-2.440194E-11	-4.098036E+10	15.496981	0.208184	0	0
0	0	0	-0.233734	6.374274	-25.048955	6.374274	43027.5	-2.191213E-11	-4.563682E+10	15.321006	0.208606	0	0
0	0	0	-0.233898	6.37398	-25.048031	6.37398	43024.625	-3.40736E-11	-2.934823E+10	15.448442	0.206152	0	0
0	0	0	-0.234143	6.374085	-25.048771	6.374085	43020.375	-2.84332E-11	-3.517015E+10	15.245204	0.206614	0	0
0	0	0	-0.234429	6.374113	-25.049267	6.374113	43015.375	-2.722855E-11	-3.672616E+10	15.386052	0.204015	0	0
0	0	0	-0.234715	6.373917	-25.04889	6.373917	43010.375	-3.866119E-11	-2.586573E+10	15.196672	0.204622	0	0
0	0	0	-0.236961	6.374099	-25.052637	6.374099	42971.25	-2.778773E-11	-3.598711E+10	15.359737	0.201971	0	0
0	0	0	-0.237287	6.374176	-25.053379	6.374176	42965.625	-2.483575E-11	-4.026454E+10	15.127072	0.202894	0	0
0	0	0	-0.238227	6.374267	-25.055004	6.374267	42949.25	-2.205977E-11	-4.533139E+10	15.301679	0.200216	0	0
0	0	0	-0.23643	6.374078	-25.051837	6.374078	42980.5	-2.872368E-11	-3.481448E+10	15.071494	0.200889	0	0
0	0	0	-0.239411	6.37412	-25.056034	6.37412	42928.625	-2.688957E-11	-3.718914E+10	15.231832	0.198198	0	0
0	0	0	-0.236879	6.374141	-25.052691	6.374141	42972.75	-2.609873E-11	-3.831604E+10	14.987931	0.199069	0	0
0	0	0	-0.237818	6.374225	-25.054288	6.374225	42956.375	-2.325971E-11	-4.29928E+10	15.180933	0.196418	0	0
0	0	0	-0.237532	6.373987	-25.052974	6.373987	42961.25	-3.357959E-11	-2.977999E+10	14.940016	0.197077	0	0
0	0	0	-0.238267	6.37426	-25.055032	6.37426	42948.5	-2.225011E-11	-4.49436E+10	15.099278	0.194663	0	0
0	0	0	-0.237777	6.374218	-25.054206	6.374218	42957	-2.347216E-11	-4.260367E+10	14.886582	0.195098	0	0
0	0	0	-0.237532	6.37419	-25.053765	6.37419	42961.25	-2.436316E-11	-4.104558E+10	15.032873	0.192816	0	0
0	0	0	-0.240228	6.373959	-25.056511	6.373959	42914.375	-3.538952E-11	-2.825695E+10	14.830985	0.193305	0	0
0	0	0	-0.237042	6.37405	-25.052557	6.37405	42969.875	-3.005753E-11	-3.326953E+10	14.970256	0.191141	0	0
0	0	0	-0.238145	6.374064	-25.054103	6.374064	42950.625	-2.93586E-11	-3.406157E+10	14.814248	0.191207	0	0
0	0	0	-0.2379	6.374134	-25.054044	6.374134	42954.875	-2.6355E-11	-3.794346E+10	14.92264	0.189427	0	0
0	0	0	-0.237491	6.374057	-25.053192	6.374057	42962	-2.970524E-11	-3.366409E+10	14.76842	0.189163	0	0
0	0	0	-0.2379	6.374211	-25.054344	6.374211	42954.875	-2.3687E-11	-4.221725E+10	14.794108	0.188094	0	0
0	0	0	-0.236266	6.374274	-25.05238	6.374274	42983.375	-2.188966E-11	-4.568367E+10	14.692305	0.187408	0	0
0	0	0	-0.236756	6.374183	-25.052688	6.374183	42974.875	-2.460374E-11	-4.064422E+10	14.709461	0.186393	0	0
0	0	0	-0.23496	6.37398	-25.049467	6.37398	43006.125	-3.405895E-11	-2.936086E+10	14.693534	0.185179	0	0
0	0	0	-0.234878	6.374029	-25.049547	6.374029	43007.625	-3.117578E-11	-3.207618E+10	14.585683	0.185021	0	0
0	0	0	-0.236756	6.374225	-25.052852	6.374225	42974.875	-2.326973E-11	-4.297429E+10	14.674699	0.183069	0	0
0	0	0	-0.234061	6.37426	-25.049343	6.37426	43021.875	-2.228812E-11	-4.486695E+10	14.486703	0.18353	0	0
0	0	0	-0.233408	6.373973	-25.04734	6.373973	43033.25	-3.453691E-11	-2.895453E+10	14.627305	0.181116	0	0
0	0	0	-0.234225	6.374169	-25.049209	6.374169	43019	-2.510882E-11	-3.982664E+10	14.408969	0.181934	0	0
0	0	0	-0.232632	6.373924	-25.0461	6.373924	43046.75	-3.8122E-11	-2.623157E+10	14.583353	0.179547	0	0
0	0	0	-0.23157	6.37384	-25.044336	6.37384	43065.25	-4.636082E-11	-2.156994E+10	14.355678	0.180312	0	0
0	0	0	-0.233857	6.373924	-25.047757	6.373924	43025.375	-3.810307E-11	-2.62446E+10	14.551892	0.177687	0	0
0	0	0	-0.233081	6.373861	-25.046462	6.373861	43038.875	-4.396288E-11	-2.274646E+10	14.300525	0.178531	0	0
0	0	0	-0.232591	6.374204	-25.047136	6.374204	43047.5	-2.395857E-11	-4.173872E+10	14.458014	0.176196	0	0
0	0	0	-0.230631	6.374008	-25.04372	6.374008	43081.75	-3.240562E-11	-3.085884E+10	14.23697	0.176618	0	0
0	0	0	-0.231448	6.374022	-25.04488	6.374022	43067.375	-3.16014E-11	-3.164417E+10	14.347667	0.174904	0	0
0	0	0	-0.230917	6.374078	-25.04438	6.374078	43076.75	-2.8788E-11	-3.473669E+10	14.228147	0.174521	0	0
0	0	0	-0.2301	6.37398	-25.042893	6.37398	43091	-3.412617E-11	-2.930302E+10	14.234572	0.173888	0	0
0	0	0	-0.232101	6.374127	-25.046173	6.374127	43056	-2.669035E-11	-3.746673E+10	14.243366	0.172556	0	0
0	0	0	-0.231897	6.374106	-25.045815	6.374106	43059.625	-2.754758E-11	-3.630083E+10	14.12341	0.172661	0	0
0	0	0	-0.232101	6.374148	-25.046255	6.374148	43056	-2.58869E-11	-3.862957E+10	14.212712	0.170577	0	0
0	0	0	-0.232673	6.373833	-25.045801	6.373833	43046	-4.718788E-11	-2.119188E+10	14.025716	0.171197	0	0
0	0	0	-0.232714	6.374267	-25.047547	6.374267	43045.375	-2.210914E-11	-4.523016E+10	14.193989	0.168625	0	0
0	0	0	-0.232877	6.374001	-25.046731	6.374001	43042.5	-3.278769E-11	-3.049925E+10	13.947187	0.169733	0	0
0	0	0	-0.234061	6.373889	-25.047897	6.373889	43021.875	-4.114019E-11	-2.430713E+10	14.106342	0.167398	0	0
0	0	0	-0.234388	6.374204	-25.049566	6.374204	43016.125	-2.394111E-11	-4.176916E+10	13.943133	0.167794	0	0
0	0	0	-0.234429	6.374036	-25.048967	6.374036	43015.375	-3.080869E-11	-3.245838E+10	13.972496	0.166132	0	0
0	0	0	-0.234633	6.374337	-25.050416	6.374337	43011.875	-2.034774E-11	-4.91455E+10	13.876408	0.165868	0	0
0	0	0	-0.236062	6.374071	-25.051313	6.374071	42986.875	-2.905196E-11	-3.442108E+10	13.784094	0.165248	0	0
0	0	0	-0.237328	6.374323	-25.054007	6.374323	42964.875	-2.06516E-11	-4.842239E+10	13.875219	0.163731	0	0
0	0	0	-0.237042	6.374267	-25.053402	6.374267	42969.875	-2.207036E-11	-4.530964E+10	13.661832	0.164232	0	0
0	0	0	-0.238145	6.374155	-25.054458	6.374155	42950.625	-2.556701E-11	-3.911291E+10	13.86303	0.161819	0	0
0	0	0	-0.236266	6.374015	-25.051371	6.374015	42983.375	-3.193079E-11	-3.131774E+10	13.555323	0.162966	0	0
0	0	0	-0.238717	6.374071	-25.054904	6.374071	42940.75	-2.902079E-11	-3.445806E+10	13.828724	0.160091	0	0
0	0	0	-0.23888	6.37426	-25.055861	6.37426	42937.875	-2.22446E-11	-4.495472E+10	13.518762	0.161185	0	0
0	0	0	-0.238594	6.374071	-25.054738	6.374071	42942.75	-2.902214E-11	-3.445645E+10	13.69363	0.158983	0	0
0	0	0	-0.23986	6.373994	-25.05615	6.373994	42920.75	-3.311595E-11	-3.019693E+10	13.484202	0.159273	0	0
0	0	0	-0.238839	6.374309	-25.055997	6.374309	42938.625	-2.097551E-11	-4.767465E+10	13.558453	0.158099	0	0
0	0	0	-0.239656	6.374218	-25.056747	6.374218	42924.375	-2.345433E-11	-4.263605E+10	13.55566	0.157215	0	0
0	0	0	-0.240799	6.37405	-25.057639	6.37405	42904.5	-3.00118E-11	-3.332022E+10	13.416192	0.157426	0	0
0	0	0	-0.239125	6.374113	-25.05562	6.374113	42933.625	-2.71768E-11	-3.679609E+10	13.560513	0.155223	0	0
0	0	0	-0.239207	6.374001	-25.055294	6.374001	42932.125	-3.270361E-11	-3.057766E+10	13.335623	0.156068	0	0
0	0	0	-0.240554	6.37398	-25.057035	6.37398	42908.75	-3.398184E-11	-2.942749E+10	13.47388	0.153865	0	0
0	0	0	-0.240268	6.374162	-25.057357	6.374162	42913.625	-2.52937E-11	-3.953553E+10	13.272398	0.154274	0	0
0	0	0	-0.239656	6.374043	-25.056065	6.374043	42924.375	-3.038037E-11	-3.291599E+10	13.306859	0.153073	0	0
0	0	0	-0.23888	6.374176	-25.055534	6.374176	42937.875	-2.481971E-11	-4.029056E+10	13.262209	0.152203	0	0
0	0	0	-0.237696	6.37419	-25.053986	6.37419	42958.5	-2.43616E-11	-4.104821E+10	13.147359	0.152242	0	0
0	0	0	-0.237736	6.374148	-25.053878	6.374148	42957.75	-2.582783E-11	-3.871792E+10	13.295574	0.150264	0	0
0	0	0	-0.2379	6.373924	-25.053226	6.373924	42954.875	-3.804064E-11	-2.628768E+10	13.052369	0.151187	0	0
0	0	0	-0.237655	6.374134	-25.053713	6.374134	42959.25	-2.635769E-11	-3.79396E+10	13.241739	0.148813	0	0
0	0	0	-0.237573	6.374071	-25.053357	6.374071	42960.625	-2.903422E-11	-3.444212E+10	13.017087	0.149472	0	0
0	0	0	-0.237491	6.374148	-25.053546	6.374148	42962	-2.583039E-11	-3.871409E+10	13.034489	0.148048	0	0
0	0	0	-0.236389	6.37419	-25.052219	6.37419	42981.25	-2.43745E-11	-4.102648E+10	13.022086	0.147401	0	0
0	0	0	-0.236307	6.374085	-25.051699	6.374085	42982.625	-2.840825E-11	-3.520104E+10	12.85877	0.147467	0	0
0	0	0	-0.234592	6.374029	-25.049161	6.374029	43012.5	-3.117932E-11	-3.207254E+10	13.066814	0.145291	0	0
0	0	0	-0.23447	6.374057	-25.049104	6.374057	43014.75	-2.974172E-11	-3.362281E+10	12.768544	0.146452	0	0
0	0	0	-0.23496	6.374092	-25.049903	6.374092	43006.125	-2.811369E-11	-3.556987E+10	12.991867	0.144196	0	0
0	0	0	-0.235613	6.374085	-25.05076	6.374085	42994.75	-2.841627E-11	-3.519111E+10	12.793414	0.144486	0	0
0	0	0	-0.233489	6.374113	-25.047996	6.374113	43031.75	-2.723892E-11	-3.671218E+10	12.805374	0.143602	0	0
0	0	0	-0.232387	6.374092	-25.046423	6.374092	43051	-2.814302E-11	-3.553279E+10	12.825234	0.142389	0	0
0	0	0	-0.231774	6.374043	-25.045404	6.374043	43061.75	-3.04776E-11	-3.281099E+10	12.624663	0.142903	0	0
0	0	0	-0.231407	6.373973	-25.044634	6.373973	43068.125	-3.45649E-11	-2.893108E+10	12.746695	0.140819	0	0
0	0	0	-0.232918	6.373987	-25.046732	6.373987	43041.75	-3.364251E-11	-2.97243E+10	12.481179	0.141413	0	0
0	0	0	-0.233244	6.374106	-25.047638	6.374106	43036	-2.753246E-11	-3.632076E+10	12.562518	0.140094	0	0
0	0	0	-0.232918	6.374092	-25.047141	6.374092	43041.75	-2.813697E-11	-3.554042E+10	12.514799	0.139302	0	0
0	0	0	-0.233122	6.374022	-25.047145	6.374022	43038.25	-3.158003E-11	-3.166558E+10	12.363422	0.139632	0	0
0	0	0	-0.233244	6.374176	-25.04791	6.374176	43036	-2.487643E-11	-4.01987E+10	12.560521	0.137456	0	0
0	0	0	-0.23255	6.374078	-25.04659	6.374078	43048.25	-2.876895E-11	-3.475969E+10	12.350602	0.138445	0	0
0	0	0	-0.233734	6.374078	-25.048192	6.374078	43027.5	-2.875509E-11	-3.477645E+10	12.495245	0.136572	0	0
0	0	0	-0.233612	6.374155	-25.048326	6.374155	43029.625	-2.561403E-11	-3.90411E+10	12.443951	0.136242	0	0
0	0	0	-0.234225	6.374057	-25.048773	6.374057	43019	-2.974466E-11	-3.361949E+10	12.272216	0.136374	0	0
0	0	0	-0.235858	6.373924	-25.050464	6.373924	42990.5	-3.807219E-11	-2.626589E+10	12.441474	0.134488	0	0
0	0	0	-0.237124	6.374337	-25.053786	6.374337	42968.375	-2.032716E-11	-4.919526E+10	12.122386	0.135424	0	0
0	0	0	-0.237001	6.374029	-25.05242	6.374029	42970.625	-3.114896E-11	-3.21038E+10	12.252502	0.133525	0	0
0	0	0	-0.237328	6.373924	-25.052453	6.373924	42964.875	-3.804949E-11	-2.628156E+10	12.114795	0.133169	0	0
0	0	0	-0.237124	6.374092	-25.052831	6.374092	42968.375	-2.808901E-11	-3.560112E+10	12.030674	0.13338	0	0
0	0	0	-0.236879	6.374001	-25.052145	6.374001	42972.75	-3.273456E-11	-3.054875E+10	12.12586	0.131507	0	0
0	0	0	-0.238921	6.373987	-25.054853	6.373987	42937.125	-3.356073E-11	-2.979673E+10	11.968179	0.132034	0	0
0	0	0	-0.239247	6.374127	-25.05584	6.374127	42931.5	-2.661317E-11	-3.757538E+10	11.996002	0.1309	0	0
0	0	0	-0.23937	6.374148	-25.056088	6.374148	42929.25	-2.58107E-11	-3.874363E+10	12.044668	0.129963	0	0
0	0	0	-0.240881	6.374358	-25.05895	6.374358	42903	-1.982663E-11	-5.043721E+10	11.814777	0.130689	0	0
0	0	0	-0.239288	6.37398	-25.055322	6.37398	42930.75	-3.399926E-11	-2.941241E+10	12.03194	0.128394	0	0
0	0	0	-0.240309	6.373847	-25.056185	6.373847	42913	-4.538158E-11	-2.203537E+10	11.716523	0.129251	0	0
0	0	0	-0.239901	6.374232	-25.057133	6.374232	42920.125	-2.303195E-11	-4.341795E+10	11.824713	0.127998	0	0
0	0	0	-0.241044	6.37412	-25.058243	6.37412	42900.125	-2.687172E-11	-3.721384E+10	11.82823	0.127101	0	0
0	0	0	-0.239982	6.374092	-25.056698	6.374092	42918.625	-2.805649E-11	-3.564238E+10	11.64682	0.127668	0	0
0	0	0	-0.241779	6.374232	-25.059674	6.374232	42887.375	-2.301437E-11	-4.345111E+10	11.739364	0.126059	0	0
0	0	0	-0.240309	6.374057	-25.057003	6.374057	42913	-2.967136E-11	-3.370253E+10	11.692415	0.125531	0	0
0	0	0	-0.241289	6.374071	-25.058384	6.374071	42896	-2.899055E-11	-3.4494E+10	11.490134	0.12598	0	0
0	0	0	-0.241167	6.374155	-25.058545	6.374155	42898	-2.553568E-11	-3.916089E+10	11.661711	0.123856	0	0
0	0	0	-0.239942	6.374435	-25.057979	6.374435	42919.375	-1.828311E-11	-5.469529E+10	11.388208	0.124727	0	0
0	0	0	-0.240513	6.374379	-25.058534	6.374379	42909.5	-1.938121E-11	-5.159638E+10	11.442346	0.123605	0	0
0	0	0	-0.240187	6.374183	-25.057329	6.374183	42915.125	-2.456954E-11	-4.070081E+10	11.487372	0.122471	0	0
0	0	0	-0.239615	6.374274	-25.05691	6.374274	42925.125	-2.185999E-11	-4.574567E+10	11.310454	0.122999	0	0
0	0	0	-0.240146	6.374169	-25.057219	6.374169	42915.875	-2.504863E-11	-3.992234E+10	11.418343	0.121746	0	0
0	0	0	-0.238594	6.374127	-25.054956	6.374127	42942.75	-2.662014E-11	-3.756554E+10	11.359741	0.121099	0	0
0	0	0	-0.23692	6.373938	-25.051955	6.373938	42972	-3.696319E-11	-2.705394E+10	11.189365	0.12164	0	0
0	0	0	-0.238022	6.374008	-25.053719	6.374008	42952.75	-3.230859E-11	-3.095152E+10	11.355037	0.119688	0	0
0	0	0	-0.237206	6.374043	-25.052751	6.374043	42967	-3.041054E-11	-3.288334E+10	11.19654	0.119938	0	0
0	0	0	-0.236144	6.37412	-25.051614	6.37412	42985.5	-2.69252E-11	-3.713993E+10	11.06927	0.119675	0	0
0	0	0	-0.236838	6.37405	-25.052281	6.37405	42973.375	-3.005998E-11	-3.326682E+10	11.185513	0.118052	0	0
0	0	0	-0.235776	6.37426	-25.051663	6.37426	42991.875	-2.227258E-11	-4.489826E+10	11.008601	0.118659	0	0
0	0	0	-0.235164	6.374127	-25.050316	6.374127	43002.625	-2.665726E-11	-3.751323E+10	11.036253	0.117828	0	0
0	0	0	-0.235981	6.374071	-25.051202	6.374071	42988.375	-2.905298E-11	-3.441988E+10	11.059028	0.11668	0	0
0	0	0	-0.233653	6.373959	-25.047617	6.373959	43028.875	-3.548395E-11	-2.818176E+10	10.861467	0.117287	0	0
0	0	0	-0.23402	6.373742	-25.047269	6.373742	43022.5	-6.187906E-11	-1.616056E+10	10.902846	0.116034	0	0
0	0	0	-0.23353	6.373931	-25.047343	6.373931	43031.125	-3.755314E-11	-2.662893E+10	10.915741	0.115177	0	0
0	0	0	-0.233612	6.373903	-25.047344	6.373903	43029.625	-3.987486E-11	-2.507846E+10	10.706253	0.115783	0	0
0	0	0	-0.233285	6.374141	-25.047829	6.374141	43035.375	-2.613676E-11	-3.826029E+10	10.859078	0.114187	0	0
0	0	0	-0.232959	6.374148	-25.047415	6.374148	43041	-2.587789E-11	-3.864303E+10	10.772398	0.11395	0	0
0	0	0	-0.232959	6.374022	-25.046924	6.374022	43041	-3.158205E-11	-3.166356E+10	10.619507	0.114121	0	0
0	0	0	-0.234306	6.373959	-25.048501	6.373959	43017.5	-3.547457E-11	-2.818921E+10	10.657665	0.112908	0	0
0	0	0	-0.234388	6.37398	-25.048694	6.37398	43016.125	-3.406687E-11	-2.935403E+10	10.617589	0.112354	0	0
0	0	0	-0.233285	6.373987	-25.047229	6.373987	43035.375	-3.363753E-11	-2.97287E+10	10.451446	0.112697	0	0
0	0	0	-0.23496	6.374092	-25.049903	6.374092	43006.125	-2.811369E-11	-3.556987E+10	10.56767	0.111299	0	0
0	0	0	-0.23496	6.373973	-25.04944	6.373973	43006.125	-3.451514E-11	-2.897279E+10	10.511323	0.110956	0	0
0	0	0	-0.235286	6.374029	-25.0501	6.374029	43000.375	-3.117053E-11	-3.208159E+10	10.346363	0.111259	0	0
0	0	0	-0.236634	6.374162	-25.052441	6.374162	42977	-2.533106E-11	-3.947723E+10	10.452681	0.109821	0	0
0	0	0	-0.237165	6.374064	-25.052777	6.374064	42967.75	-2.937031E-11	-3.404799E+10	10.378822	0.109333	0	0
0	0	0	-0.236348	6.374239	-25.052354	6.374239	42981.875	-2.286035E-11	-4.374386E+10	10.190943	0.109769	0	0
0	0	0	-0.237124	6.374043	-25.05264	6.374043	42968.375	-3.041151E-11	-3.288229E+10	10.288503	0.108529	0	0
0	0	0	-0.237981	6.374239	-25.054564	6.374239	42953.5	-2.284526E-11	-4.377275E+10	10.307935	0.107935	0	0
0	0	0	-0.23888	6.374246	-25.055806	6.374246	42937.875	-2.263603E-11	-4.417736E+10	10.09984	0.108397	0	0
0	0	0	-0.238512	6.374106	-25.054764	6.374106	42944.25	-2.747377E-11	-3.639836E+10	10.157351	0.107091	0	0
0	0	0	-0.240391	6.373917	-25.056568	6.373917	42911.5	-3.857231E-11	-2.592533E+10	10.124325	0.106471	0	0
0	0	0	-0.239288	6.374071	-25.055677	6.374071	42930.75	-2.901403E-11	-3.446608E+10	9.981053	0.106787	0	0
0	0	0	-0.23937	6.374099	-25.055897	6.374099	42929.25	-2.776057E-11	-3.602232E+10	9.990121	0.106102	0	0
0	0	0	-0.239452	6.374211	-25.056443	6.374211	42927.875	-2.367211E-11	-4.22438E+10	10.079435	0.104967	0	0
0	0	0	-0.239982	6.374267	-25.05738	6.374267	42918.625	-2.204404E-11	-4.536374E+10	9.863613	0.105323	0	0
0	0	0	-0.240799	6.374274	-25.058512	6.374274	42904.5	-2.184949E-11	-4.576766E+10	9.856315	0.104769	0	0
0	0	0	-0.241044	6.374148	-25.058352	6.374148	42900.125	-2.579319E-11	-3.876993E+10	9.885127	0.10374	0	0
0	0	0	-0.241698	6.374232	-25.059564	6.374232	42888.875	-2.301518E-11	-4.344959E+10	9.820369	0.103661	0	0
0	0	0	-0.241943	6.373994	-25.058968	6.373994	42884.5	-3.308798E-11	-3.022245E+10	9.676457	0.10378	0	0
0	0	0	-0.241003	6.373854	-25.057152	6.373854	42900.875	-4.458193E-11	-2.243061E+10	9.778662	0.102487	0	0
0	0	0	-0.241616	6.374141	-25.059099	6.374141	42890.25	-2.604862E-11	-3.838974E+10	9.677614	0.102237	0	0
0	0	0	-0.241493	6.37398	-25.058305	6.37398	42892.375	-3.396887E-11	-2.943872E+10	9.590012	0.102065	0	0
0	0	0	-0.241371	6.374386	-25.059722	6.374386	42894.5	-1.922948E-11	-5.200349E+10	9.566645	0.101472	0	0
0	0	0	-0.239574	6.374099	-25.056173	6.374099	42925.75	-2.77583E-11	-3.602526E+10	9.660318	0.100364	0	0
0	0	0	-0.241248	6.374085	-25.058383	6.374085	42896.625	-2.835141E-11	-3.527161E+10	0	0	0	0
0	0	0	-0.240677	6.374309	-25.058483	6.374309	42906.625	-2.095988E-11	-4.771021E+10	0	0	0	0
0	0	0	-0.239697	6.374127	-25.056448	6.374127	42923.625	-2.660829E-11	-3.758228E+10	0	0	0	0
0	0	0	-0.238267	6.374183	-25.054732	6.374183	42948.5	-2.458864E-11	-4.066918E+10	0	0	0	0
0	0	0	-0.238431	6.37419	-25.054981	6.37419	42945.75	-2.435437E-11	-4.106039E+10	0	0	0	0
0	0	0	-0.238717	6.373945	-25.054413	6.373945	42940.75	-3.641357E-11	-2.746229E+10	0	0	0	0
0	0	0	-0.238512	6.374253	-25.055337	6.374253	42944.25	-2.244194E-11	-4.455943E+10	0	0	0	0
0	0	0	-0.23839	6.374239	-25.055116	6.374239	42946.375	-2.284147E-11	-4.378002E+10	0	0	0	0
0	0	0	-0.237206	6.373833	-25.051932	6.373833	42967	-4.710128E-11	-2.123084E+10	0	0	0	0
0	0	0	-0.237287	6.374057	-25.052916	6.374057	42965.625	-2.970775E-11	-3.366125E+10	0	0	0	0
0	0	0	-0.237655	6.37412	-25.053658	6.37412	42959.25	-2.690876E-11	-3.716262E+10	0	0	0	0
0	0	0	-0.235082	6.374134	-25.050233	6.374134	43004	-2.638514E-11	-3.790012E+10	0	0	0	0
0	0	0	-0.236103	6.374113	-25.051532	6.374113	42986.25	-2.721011E-11	-3.675104E+10	0	0	0	0
0	0	0	-0.235613	6.374036	-25.050569	6.374036	42994.75	-3.079391E-11	-3.247395E+10	0	0	0	0
0	0	0	-0.23353	6.374295	-25.048761	6.374295	43031.125	-2.136912E-11	-4.679649E+10	0	0	0	0
0	0	0	-0.233285	6.374078	-25.047584	6.374078	43035.375	-2.876035E-11	-3.477009E+10	0	0	0	0
0	0	0	-0.23398	6.374001	-25.048223	6.374001	43023.25	-3.277303E-11	-3.051289E+10	0	0	0	0
0	0	0	-0.234674	6.37419	-25.049898	6.37419	43011.125	-2.439144E-11	-4.099798E+10	0	0	0	0
0	0	0	-0.23255	6.374127	-25.04678	6.374127	43048.25	-2.668554E-11	-3.747348E+10	0	0	0	0
0	0	0	-0.234061	6.374043	-25.048497	6.374043	43021.875	-3.044938E-11	-3.28414E+10	0	0	0	0
0	0	0	-0.234796	6.373945	-25.04911	6.373945	43009	-3.647145E-11	-2.741871E+10	0	0	0	0
0	0	0	-0.235041	6.374106	-25.050068	6.374106	43004.75	-2.751247E-11	-3.634715E+10	0	0	0	0
0	0	0	-0.234674	0	-0.234674	0	43011.125	0	0	0	0	0	0
0	0	0	-0.236021	0	-0.236021	0	42987.625	0	0	0	0	0	0
