Vload_(V)	ILoad_(A)	RsLoad (ohm)	SunsVoc_Voltage_(V)	SunsVoc_Current_(A)	Model_Voltage_(V)	Model_Current_(A)	Carrier_Density_(cm-3)	Lifetime_(s)	Inverse_Lifetime_(s-1)	Efficiency_(%)	Intensity_(suns)	Dark_IV_Voltage_(V)	Dark_IV_Current_(A)
2.976651	6.357394	0	64.882633	-0.749738	65.108538	-0.749738	3.719161E+15	0.00022	4529.27247	19.339367	1.090683	0	0
2.981852	6.358172	-0.327419	64.833425	-0.508245	64.987836	-0.508245	3.675842E+15	0.000225	4426.947571	19.5916	1.083955	0	0
6.961072	6.347112	5.742483	64.694376	-0.113227	64.729577	-0.113227	3.555816E+15	0.000231	4313.938763	19.317319	1.088981	0	0
12.09489	6.330275	5.867606	64.523149	0.314346	64.422689	0.314346	3.412733E+15	0.000237	4198.882961	19.563984	1.082254	0	0
16.708068	6.323119	5.288103	64.344448	0.731782	64.103935	0.731782	3.268786E+15	0.000244	4082.02313	19.293265	1.087754	0	0
21.512709	6.320016	4.578214	64.166278	1.118424	63.788559	1.118424	3.130551E+15	0.000251	3970.30872	19.501987	1.081581	0	0
26.407263	6.313211	3.898939	63.984147	1.472955	63.473059	1.472955	2.994509E+15	0.000257	3870.768927	19.307715	1.085934	0	0
31.533467	6.231668	3.637171	63.812347	1.788334	63.176212	1.788334	2.870897E+15	0.000264	3777.586069	19.441061	1.081264	0	0
36.414681	6.224813	2.881391	63.641038	2.082706	62.882055	2.082706	2.752039E+15	0.00027	3687.62571	19.361259	1.083718	0	0
40.972445	6.289349	1.817953	63.469156	2.362834	62.587446	2.362834	2.637058E+15	0.000277	3596.937473	19.37015	1.082412	0	0
45.803351	6.266142	1.19323	63.296581	2.623636	62.294536	2.623636	2.525776E+15	0.000284	3510.899944	19.431765	1.081818	0	0
47.224626	6.245171	1.065126	63.123597	2.867146	62.003339	2.867146	2.418281E+15	0.000291	3428.441239	19.328218	1.08348	0	0
48.629016	6.218462	0.94153	62.94947	3.098376	61.711441	3.098376	2.314035E+15	0.000298	3346.106425	19.506347	1.080038	0	0
50.055444	6.172538	0.847038	62.776486	3.309809	61.424873	3.309809	2.214278E+15	0.000305	3270.539693	19.306765	1.083837	0	0
51.484329	6.103967	0.765123	62.611874	3.504619	61.151383	3.504619	2.122756E+15	0.000312	3193.939505	19.548373	1.078534	0	0
52.895941	5.998214	0.702692	62.440564	3.68555	60.872581	3.68555	2.030925E+15	0.000319	3127.105544	19.294569	1.083362	0	0
54.302114	5.844701	0.64406	62.275503	3.852251	60.604278	3.852251	1.945634E+15	0.000326	3060.947821	19.554611	1.07703	0	0
55.67938	5.618044	0.598266	62.113504	4.00406	60.343449	4.00406	1.864875E+15	0.000333	3000.364773	19.299756	1.082491	0	0
57.057448	5.295598	0.55595	61.954691	4.144412	60.089136	4.144412	1.788455E+15	0.000339	2942.334652	19.524311	1.076278	0	0
58.386415	4.853853	0.5206	61.795755	4.275288	59.836749	4.275288	1.714619E+15	0.000346	2887.865333	19.334475	1.079919	0	0
59.687868	4.254768	0.495158	61.634899	4.397514	59.583933	4.397514	1.642505E+15	0.000352	2838.004141	19.479938	1.074656	0	0
60.956074	3.496017	0.46609	61.478454	4.511715	59.338348	4.511715	1.574815E+15	0.000358	2787.795417	19.384697	1.076476	0	0
62.123311	2.60724	0.446803	61.321968	4.618697	59.094378	4.618697	1.509449E+15	0.000364	2740.195411	19.411165	1.073667	0	0
63.171943	1.64298	0.453552	61.16875	4.719365	58.855853	4.719365	1.447652E+15	0.000371	2691.978511	19.444097	1.072559	0	0
64.052135	0.715983	0.467109	61.007894	4.812818	58.609847	4.812818	1.385053E+15	0.000376	2653.366521	19.350645	1.072519	0	0
53.57809	5.931511	0.673011	60.8539	4.899907	58.374105	4.899907	1.327247E+15	0.000382	2613.017331	19.486876	1.06872	0	0
64.660256	0	0	60.700599	4.982438	58.140212	4.982438	1.271704E+15	0.000388	2572.911503	19.292279	1.071134	0	0
0	0	0	60.551015	5.059764	57.91242	5.059764	1.21938E+15	0.000394	2532.584476	19.515213	1.064803	0	0
0	0	0	60.392814	5.132227	57.675162	5.132227	1.165996E+15	0.0004	2500.816361	19.250485	1.069037	0	0
0	0	0	60.24376	5.198808	57.451464	5.198808	1.117485E+15	0.000405	2467.727612	19.512416	1.062112	0	0
0	0	0	60.096217	5.262096	57.230466	5.262096	1.071124E+15	0.000411	2434.041827	19.241309	1.067019	0	0
0	0	0	59.949941	5.321673	57.012176	5.321673	1.026745E+15	0.000416	2401.258136	19.485391	1.060014	0	0
0	0	0	59.801418	5.377011	56.792511	5.377011	9.832554E+14	0.000421	2373.618633	19.266566	1.064169	0	0
0	0	0	59.657673	5.429379	56.579793	5.429379	9.426298E+14	0.000426	2343.774331	19.455875	1.058234	0	0
0	0	0	59.512989	5.479339	56.366491	5.479339	9.031547E+14	0.000432	2314.626874	19.330408	1.060845	0	0
0	0	0	59.369367	5.52714	56.155069	5.52714	8.653364E+14	0.000438	2284.362653	19.399562	1.057561	0	0
0	0	0	59.219619	5.571412	55.937168	5.571412	8.273157E+14	0.000442	2262.031849	19.385948	1.057798	0	0
0	0	0	59.079509	5.612376	55.732953	5.612376	7.930107E+14	0.000447	2236.972412	19.341491	1.056572	0	0
0	0	0	58.937643	5.650409	55.527663	5.650409	7.594912E+14	0.000451	2216.536934	19.45483	1.053604	0	0
0	0	0	58.799982	5.686643	55.328346	5.686643	7.281036E+14	0.000456	2193.659361	19.287667	1.055187	0	0
0	0	0	58.660362	5.720092	55.127711	5.720092	6.973836E+14	0.000459	2176.143581	19.499296	1.049686	0	0
0	0	0	58.525928	5.751642	54.93449	5.751642	6.688374E+14	0.000464	2156.750871	19.267072	1.052971	0	0
0	0	0	58.388921	5.782236	54.738112	5.782236	6.407595E+14	0.000468	2137.614075	19.522206	1.046125	0	0
0	0	0	58.255998	5.810333	54.548192	5.810333	6.144718E+14	0.000472	2120.221289	19.249094	1.050557	0	0
0	0	0	58.120012	5.837324	54.354634	5.837324	5.885241E+14	0.000475	2104.528294	19.511281	1.042365	0	0
0	0	0	57.986967	5.862399	54.165768	5.862399	5.640385E+14	0.000478	2090.055664	19.267404	1.046481	0	0
0	0	0	57.85629	5.885878	53.980692	5.885878	5.408333E+14	0.000481	2076.3815	19.478814	1.039398	0	0
0	0	0	57.724183	5.908498	53.794016	5.908498	5.182024E+14	0.000485	2063.137825	19.312826	1.042207	0	0
0	0	0	57.595834	5.929636	53.612922	5.929636	4.969914E+14	0.000488	2049.923569	19.415103	1.0373	0	0
0	0	0	57.460747	5.949943	53.42334	5.949943	4.754709E+14	0.00049	2041.02166	19.355662	1.037617	0	0
0	0	0	57.334888	5.968773	53.24652	5.968773	4.561426E+14	0.000493	2029.210449	19.338929	1.03544	0	0
0	0	0	57.204987	5.986703	53.064808	5.986703	4.369038E+14	0.000495	2020.84754	19.420868	1.032591	0	0
0	0	0	57.079659	6.003774	52.889429	6.003774	4.190079E+14	0.000497	2010.146316	19.285764	1.033066	0	0
0	0	0	56.95033	6.019744	52.709381	6.019744	4.012068E+14	0.000499	2004.544503	19.476583	1.02808	0	0
0	0	0	56.820306	6.03537	52.528461	6.03537	3.839735E+14	0.000501	1997.605089	19.254693	1.030771	0	0
0	0	0	56.695306	6.049923	52.354672	6.049923	3.680152E+14	0.000502	1990.056581	19.493316	1.024281	0	0
0	0	0	56.568467	6.063441	52.179043	6.063441	3.524155E+14	0.000503	1986.796615	19.224381	1.028238	0	0
0	0	0	56.446284	6.076445	52.009708	6.076445	3.379375E+14	0.000505	1980.271176	19.496322	1.020324	0	0
0	0	0	56.320385	6.089001	51.835675	6.089001	3.235668E+14	0.000506	1975.807412	19.238351	1.024519	0	0
0	0	0	56.199304	6.100792	51.668363	6.100792	3.102556E+14	0.000508	1970.067221	19.474784	1.017198	0	0
0	0	0	56.072752	6.112053	51.494131	6.112053	2.96861E+14	0.000508	1968.613742	19.272624	1.020799	0	0
0	0	0	55.952202	6.122958	51.327894	6.122958	2.845799E+14	0.00051	1962.303429	19.420573	1.014982	0	0
0	0	0	55.831652	6.132942	51.162225	6.132942	2.727517E+14	0.00051	1960.222716	19.322886	1.016208	0	0
0	0	0	55.706243	6.142796	50.990156	6.142796	2.609129E+14	0.00051	1959.210737	19.369212	1.012291	0	0
0	0	0	55.588185	6.151736	50.828318	6.151736	2.501894E+14	0.000511	1958.07323	19.407042	1.010431	0	0
0	0	0	55.468248	6.160704	50.663884	6.160704	2.397012E+14	0.000512	1954.638018	19.329718	1.009679	0	0
0	0	0	55.345534	6.169033	50.496196	6.169033	2.293805E+14	0.000511	1956.099916	19.468267	1.005326	0	0
0	0	0	55.22723	6.176959	50.334518	6.176959	2.198116E+14	0.000511	1955.370084	19.272139	1.006988	0	0
0	0	0	55.106027	6.184463	50.169271	6.184463	2.103837E+14	0.000511	1958.039589	19.479988	1.000855	0	0
0	0	0	54.9856	6.191759	50.005118	6.191759	2.013808E+14	0.00051	1959.271802	19.227395	1.003743	0	0
0	0	0	54.864275	6.198925	49.8398	6.198925	1.926663E+14	0.00051	1959.30113	19.500844	0.996027	0	0
0	0	0	54.743643	6.205457	49.675825	6.205457	1.843439E+14	0.000509	1963.354145	19.230065	0.999984	0	0
0	0	0	54.622359	6.211738	49.511116	6.211738	1.763091E+14	0.000508	1967.973394	19.495709	0.992188	0	0
0	0	0	54.503647	6.217833	49.34987	6.217833	1.687571E+14	0.000508	1970.007258	19.265063	0.995829	0	0
0	0	0	54.381872	6.223846	49.184588	6.223846	1.613204E+14	0.000507	1972.039247	19.446307	0.989498	0	0
0	0	0	54.260506	6.229324	49.020218	6.229324	1.542105E+14	0.000505	1978.339959	19.301654	0.991555	0	0
0	0	0	54.143468	6.234452	48.861778	6.234452	1.476297E+14	0.000504	1983.793641	19.398597	0.986727	0	0
0	0	0	54.019488	6.239632	48.694088	6.239632	1.409433E+14	0.000502	1990.347703	19.370709	0.986332	0	0
0	0	0	53.901715	6.244588	48.534704	6.244588	1.348535E+14	0.000502	1992.699816	19.34356	0.984234	0	0
0	0	0	53.782309	6.248964	48.373609	6.248964	1.289303E+14	0.000499	2003.38108	19.425237	0.981583	0	0
0	0	0	53.657186	6.253676	48.204635	6.253676	1.229851E+14	0.000498	2008.973098	19.280043	0.981979	0	0
0	0	0	53.542272	6.257779	48.049592	6.257779	1.177521E+14	0.000496	2015.249042	19.468044	0.976874	0	0
0	0	0	53.417843	6.262083	47.881779	6.262083	1.12322E+14	0.000495	2021.384587	19.239823	0.979367	0	0
0	0	0	53.300192	6.265916	47.723269	6.265916	1.074053E+14	0.000493	2028.905498	19.517426	0.971809	0	0
0	0	0	53.18291	6.269236	47.565658	6.269236	1.027066E+14	0.000489	2044.725615	19.239741	0.975964	0	0
0	0	0	53.059216	6.273016	47.399137	6.273016	9.79619E+13	0.000487	2051.856488	19.513741	0.968168	0	0
0	0	0	52.942831	6.276398	47.242571	6.276398	9.36879E+13	0.000486	2059.454109	19.238725	0.972323	0	0
0	0	0	52.819954	6.279535	47.077624	6.279535	8.936788E+13	0.000482	2075.400172	19.470223	0.965003	0	0
0	0	0	52.697812	6.282782	46.913507	6.282782	8.526198E+13	0.00048	2084.618053	19.273895	0.967654	0	0
0	0	0	52.578732	6.285695	46.753699	6.285695	8.143261E+13	0.000477	2097.430616	19.429744	0.961639	0	0
0	0	0	52.4561	6.288306	46.589451	6.288306	7.766096E+13	0.000472	2119.229014	19.339111	0.962233	0	0
0	0	0	52.335101	6.29115	46.427106	6.29115	7.410375E+13	0.00047	2129.511788	19.365831	0.959186	0	0
0	0	0	52.211407	6.293809	46.261344	6.293809	7.062902E+13	0.000466	2144.617297	19.386589	0.957563	0	0
0	0	0	52.088326	6.296095	46.096712	6.296095	6.73271E+13	0.000461	2168.899274	19.298297	0.956574	0	0
0	0	0	51.962753	6.298463	45.928684	6.298463	6.411163E+13	0.000457	2189.710078	19.444272	0.95234	0	0
0	0	0	51.839468	6.300884	45.763594	6.300884	6.109896E+13	0.000454	2203.270635	19.257503	0.953843	0	0
0	0	0	51.717652	6.302989	45.600722	6.302989	5.825665E+13	0.000449	2224.704626	19.499685	0.947433	0	0
0	0	0	51.580931	6.305075	45.41816	6.305075	5.521874E+13	0.000443	2257.11326	19.239529	0.950955	0	0
0	0	0	51.448212	6.30749	45.24053	6.30749	5.241677E+13	0.000441	2267.996583	19.512138	0.943555	0	0
0	0	0	51.320516	6.309194	45.070206	6.309194	4.985126E+13	0.000434	2303.293794	19.217793	0.948026	0	0
0	0	0	51.195189	6.310971	44.902915	6.310971	4.745208E+13	0.000429	2330.537	19.492119	0.939914	0	0
0	0	0	51.062266	6.312633	44.725684	6.312633	4.503021E+13	0.000422	2367.968981	19.249232	0.943871	0	0
0	0	0	50.925912	6.314586	44.543605	6.314586	4.2671E+13	0.000418	2389.842562	19.464213	0.936946	0	0
0	0	0	50.793888	6.316215	44.367548	6.316215	4.050171E+13	0.000413	2422.059153	19.323815	0.938964	0	0
0	0	0	50.661781	6.31765	44.191559	6.31765	3.843894E+13	0.000406	2463.104656	19.405464	0.93477	0	0
0	0	0	50.528613	6.319319	44.013907	6.319319	3.646359E+13	0.000402	2487.494454	19.373494	0.934216	0	0
0	0	0	50.389932	6.320755	43.82919	6.320755	3.451207E+13	0.000395	2529.02451	19.326294	0.932514	0	0
0	0	0	50.252558	6.322186	43.646184	6.322186	3.267991E+13	0.00039	2566.479952	19.427946	0.929309	0	0
0	0	0	50.109426	6.323592	43.455576	6.323592	3.087241E+13	0.000383	2608.262758	19.296465	0.929428	0	0
0	0	0	49.96858	6.324934	43.268038	6.324934	2.91897E+13	0.000377	2649.064909	19.486189	0.924481	0	0
0	0	0	49.815892	6.326097	43.065021	6.326097	2.746722E+13	0.000368	2714.353837	19.24852	0.926895	0	0
0	0	0	49.666634	6.327339	42.866434	6.327339	2.588018E+13	0.000361	2766.500582	19.508396	0.91997	0	0
0	0	0	49.512925	6.32849	42.662044	6.32849	2.434017E+13	0.000353	2828.867463	19.221294	0.923848	0	0
0	0	0	49.356358	6.329525	42.453985	6.329525	2.286439E+13	0.000344	2903.665383	19.501786	0.916171	0	0
0	0	0	49.196891	6.330761	42.241855	6.330761	2.145201E+13	0.000338	2957.551439	19.236126	0.91997	0	0
0	0	0	49.031993	6.331596	42.02297	6.331596	2.008208E+13	0.000327	3060.25084	19.497208	0.912412	0	0
0	0	0	48.86003	6.332627	41.794513	6.332627	1.874548E+13	0.000318	3147.388127	19.272518	0.915934	0	0
0	0	0	48.681002	6.333563	41.556806	6.333563	1.744739E+13	0.000307	3253.764961	19.44231	0.90984	0	0
0	0	0	48.497973	6.334594	41.313685	6.334594	1.621222E+13	0.000298	3350.198162	19.315821	0.911343	0	0
0	0	0	48.307674	6.335268	41.061343	6.335268	1.501977E+13	0.000285	3509.348511	19.367123	0.907624	0	0
0	0	0	48.107861	6.335942	40.796408	6.335942	1.386116E+13	0.000271	3686.845807	19.3904	0.906159	0	0
0	0	0	47.902167	6.337155	40.523057	6.337155	1.276099E+13	0.000265	3778.199855	19.31581	0.90517	0	0
0	0	0	47.683405	6.338091	40.232728	6.338091	1.168589E+13	0.000254	3934.929371	19.447908	0.90145	0	0
0	0	0	47.454353	6.338599	39.929281	6.338599	1.06565E+13	0.000238	4201.561551	19.257887	0.903033	0	0
0	0	0	47.218073	6.33964	39.615625	6.33964	9.688978E+12	0.000229	4365.098071	19.489066	0.896979	0	0
0	0	0	46.97632	6.340137	39.295368	6.340137	8.789398E+12	0.000214	4677.156516	19.230419	0.900382	0	0
0	0	0	46.728156	6.340956	38.966227	6.340956	7.952329E+12	0.000203	4924.218876	19.514848	0.893061	0	0
0	0	0	46.471784	6.3417	38.626304	6.3417	7.170822E+12	0.000192	5213.773455	19.242966	0.896781	0	0
0	0	0	46.20557	6.342558	38.273205	6.342558	6.440161E+12	0.000182	5488.075	19.524971	0.889143	0	0
0	0	0	45.92976	6.343285	37.907556	6.343285	5.761301E+12	0.000171	5833.847387	19.256478	0.89314	0	0
0	0	0	45.639983	6.343869	37.523602	6.343869	5.12476E+12	0.000159	6287.20022	19.474453	0.886294	0	0
0	0	0	45.335424	6.344168	37.120448	6.344168	4.531185E+12	0.000144	6953.397487	19.273448	0.889104	0	0
0	0	0	45.012284	6.344955	36.692073	6.344955	3.976196E+12	0.000134	7452.322177	19.410224	0.883524	0	0
0	0	0	44.670114	6.345187	36.239242	6.345187	3.462276E+12	0.000119	8399.421758	19.340626	0.884118	0	0
0	0	0	44.313039	6.346039	35.765854	6.346039	2.996524E+12	0.000111	9027.363953	19.366695	0.880833	0	0
0	0	0	43.937098	6.346406	35.268146	6.346406	2.573594E+12	9.831623E-5	10171.260183	19.40755	0.879132	0	0
0	0	0	43.548701	6.346821	34.753882	6.346821	2.199155E+12	8.731445E-5	11452.858108	19.283605	0.879092	0	0
0	0	0	43.145603	6.347513	34.21977	6.347513	1.867975E+12	7.935324E-5	12601.879747	19.45782	0.874581	0	0
0	0	0	42.728008	6.34802	33.666718	6.34802	1.57733E+12	7.063298E-5	14157.693223	19.23819	0.876639	0	0
0	0	0	42.28636	6.348408	33.082003	6.348408	1.318955E+12	6.161109E-5	16230.84481	19.493006	0.87007	0	0
0	0	0	41.818455	6.348857	32.462449	6.348857	1.091202E+12	5.365446E-5	18637.778456	19.21929	0.873434	0	0
0	0	0	41.331968	6.349456	31.818072	6.349456	8.959835E+11	4.737907E-5	21106.368171	19.509729	0.866034	0	0
0	0	0	40.829066	6.349673	31.152532	6.349673	7.307954E+11	3.973097E-5	25169.283138	19.224259	0.870189	0	0
0	0	0	40.303417	6.350082	30.456595	6.350082	5.905813E+11	3.390374E-5	29495.268373	19.49894	0.86271	0	0
0	0	0	39.764415	6.350535	29.742904	6.350535	4.74685E+11	2.905085E-5	34422.401924	19.238524	0.866548	0	0
0	0	0	39.207118	6.35095	29.005048	6.35095	3.78708E+11	2.466933E-5	40536.16659	19.455909	0.859742	0	0
0	0	0	38.633568	6.351229	28.245891	6.351229	3.001489E+11	2.043656E-5	48931.908223	19.291393	0.862116	0	0
0	0	0	38.040417	6.351435	27.460909	6.351435	2.36001E+11	1.662474E-5	60151.315489	19.404663	0.857447	0	0
0	0	0	37.428603	6.351925	26.650746	6.351925	1.841625E+11	1.413471E-5	70747.822398	19.34095	0.857724	0	0
0	0	0	36.809765	6.352118	25.831773	6.352118	1.433009E+11	1.140154E-5	87707.464005	19.333572	0.85531	0	0
0	0	0	36.182638	6.352358	25.00174	6.352358	1.111308E+11	9.263082E-6	107955.431334	19.392445	0.853133	0	0
0	0	0	35.546976	6.35261	24.160379	6.35261	8.588464E+10	7.535598E-6	132703.47681	19.272105	0.853133	0	0
0	0	0	34.902411	6.353035	23.306909	6.353035	6.61344E+10	6.368431E-6	157024.550393	19.457439	0.848424	0	0
0	0	0	34.250741	6.353019	22.44483	6.353019	5.077932E+10	4.87153E-6	205274.320209	19.239419	0.85064	0	0
0	0	0	33.585758	6.353232	21.564707	6.353232	3.877943E+10	3.911039E-6	255686.563781	19.496238	0.844032	0	0
0	0	0	32.902929	6.353682	20.660504	6.353682	2.940174E+10	3.324955E-6	300755.956068	19.196531	0.848187	0	0
0	0	0	32.203766	6.354027	19.734866	6.354027	2.21446E+10	2.760705E-6	362226.334716	19.505382	0.84051	0	0
0	0	0	31.50889	6.354113	18.815394	6.354113	1.670772E+10	2.137259E-6	467888.962506	19.206073	0.844981	0	0
0	0	0	30.806705	6.354492	17.88565	6.354492	1.256837E+10	1.817503E-6	550205.306194	19.505661	0.837067	0	0
0	0	0	30.107052	6.35429	16.960429	6.35429	9.464253E+9	1.279725E-6	781417.997272	19.247065	0.841064	0	0
0	0	0	29.40503	6.354556	16.031104	6.354556	7.119942E+9	1.053072E-6	949602.45423	19.459486	0.834455	0	0
0	0	0	28.696842	6.354794	15.093662	6.354794	5.342944E+9	8.626403E-7	1159231.721667	19.29737	0.836909	0	0
0	0	0	27.98359	6.354851	14.149899	6.354851	4.001226E+9	6.603274E-7	1514400.357268	19.379322	0.832793	0	0
0	0	0	27.263314	6.355138	13.19633	6.355138	2.987918E+9	5.557775E-7	1799281.085135	19.355644	0.832556	0	0
0	0	0	26.541446	6.355047	12.241481	6.355047	2.22979E+9	3.987535E-7	2507815.025172	19.326948	0.830736	0	0
0	0	0	25.813452	6.35548	11.277337	6.35548	1.659894E+9	3.640658E-7	2746756.115097	19.425965	0.827926	0	0
0	0	0	25.088807	6.355481	10.318597	6.355481	1.237333E+9	2.714055E-7	3684523.614329	19.263169	0.828638	0	0
0	0	0	24.367265	6.355593	9.3637	6.355593	9.235045E+8	2.151503E-7	4647913.954036	19.471439	0.823494	0	0
0	0	0	23.639312	6.355558	8.400665	6.355558	6.87484E+8	1.571246E-7	6364374.800321	19.223738	0.826462	0	0
0	0	0	22.894249	6.355767	7.414398	6.355767	5.082454E+8	1.311316E-7	7625929.032902	19.500264	0.819853	0	0
0	0	0	22.167439	6.355935	6.45237	6.355935	3.785283E+8	1.088912E-7	9183479.85041	19.192019	0.823969	0	0
0	0	0	21.448715	6.356187	5.500817	6.356187	2.82844E+8	9.831777E-8	1.01711E+7	19.509375	0.816094	0	0
0	0	0	20.735014	6.356117	4.55671	6.356117	2.117776E+8	6.958934E-8	1.437002E+7	19.204898	0.820645	0	0
0	0	0	20.027847	6.356494	3.620099	6.356494	1.589877E+8	7.414559E-8	1.348698E+7	19.478001	0.813284	0	0
0	0	0	19.322599	6.356452	2.687097	6.356452	1.194497E+8	5.3228E-8	1.87871E+7	19.240045	0.816925	0	0
0	0	0	18.626213	6.356711	1.765026	6.356711	9.00672E+7	5.531879E-8	1.807704E+7	19.431758	0.811108	0	0
0	0	0	17.941383	6.356571	0.859297	6.356571	6.823124E+7	3.479283E-8	2.874155E+7	19.276849	0.813007	0	0
0	0	0	17.273215	6.356473	-0.024491	6.356473	5.203956E+7	2.371776E-8	4.21625E+7	19.378493	0.808734	0	0
0	0	0	16.619053	6.356557	-0.89024	6.356557	3.99163E+7	2.001475E-8	4.996315E+7	19.34515	0.808575	0	0
0	0	0	15.981717	6.356704	-1.73391	6.356704	3.082686E+7	1.874259E-8	5.335441E+7	19.307017	0.806913	0	0
0	0	0	15.365779	6.357172	-2.550182	6.357172	2.401465E+7	4.536271E-8	2.204454E+7	19.405258	0.804262	0	0
0	0	0	14.765481	6.356921	-3.343738	6.356921	1.882682E+7	1.668036E-8	5.995074E+7	19.239911	0.805212	0	0
0	0	0	14.178741	6.356739	-4.119542	6.356739	1.484106E+7	9.50435E-9	1.05215E+8	19.44891	0.800186	0	0
0	0	0	13.601066	6.357116	-4.884966	6.357116	1.17422E+7	1.772248E-8	5.642551E+7	19.206859	0.802679	0	0
0	0	0	13.047322	6.357431	-5.618565	6.357431	9380958.75	-1.08376E-7	-9227133.371374	19.4881	0.795952	0	0
0	0	0	12.518407	6.357305	-6.318024	6.357305	7570366.25	3.552723E-8	2.814743E+7	19.175475	0.800305	0	0
0	0	0	12.003906	6.357137	-6.998277	6.357137	6145040.75	1.003084E-8	9.969252E+7	19.4853	0.792786	0	0
0	0	0	11.513296	6.357277	-7.647841	6.357277	5036618.375	1.800896E-8	5.552792E+7	19.183373	0.797297	0	0
0	0	0	11.04343	6.357221	-8.269368	6.357221	4162996.625	1.008359E-8	9.917106E+7	19.459208	0.789897	0	0
0	0	0	10.592431	6.357137	-8.865844	6.357137	3467328.875	5.659901E-9	1.766815E+8	19.216386	0.793657	0	0
0	0	0	10.159113	6.357403	-9.439997	6.357403	2908690.25	-1.456152E-7	-6867413.458293	19.426727	0.787484	0	0
0	0	0	9.739885	6.357347	-9.994523	6.357347	2454034.25	2.167856E-8	4.612852E+7	19.270667	0.78962	0	0
0	0	0	9.339932	6.357235	-10.523368	6.357235	2086688.5	5.497745E-9	1.818928E+8	19.364666	0.785663	0	0
0	0	0	8.958844	6.357661	-11.028938	6.357661	1787955.125	-2.811619E-9	-3.55667E+8	19.338687	0.785545	0	0
0	0	0	8.595971	6.357661	-11.509077	6.357661	1543343.25	-2.426958E-9	-4.120384E+8	19.282417	0.784001	0	0
0	0	0	8.248655	6.357577	-11.968363	6.357577	1340627.125	-3.07376E-9	-3.253345E+8	19.38388	0.78135	0	0
0	0	0	7.914735	6.35755	-12.410102	6.35755	1170878.75	-3.16827E-9	-3.156297E+8	19.227481	0.781785	0	0
0	0	0	7.592248	6.357794	-12.837586	6.357794	1027375.375	-1.078937E-9	-9.268383E+8	19.443671	0.776562	0	0
0	0	0	7.285034	6.357591	-13.243425	6.357591	907059.125	-1.932189E-9	-5.175478E+8	19.180485	0.779648	0	0
0	0	0	6.992767	6.357633	-13.630276	6.357633	805700.75	-1.415176E-9	-7.066257E+8	19.460651	0.773396	0	0
0	0	0	6.712669	6.357885	-14.001709	6.357885	719208.25	-6.154324E-10	-1.624874E+9	19.146255	0.77763	0	0
0	0	0	6.446333	6.357633	-14.353294	6.357633	645592.875	-1.133954E-9	-8.818699E+8	19.453489	0.770191	0	0
0	0	0	6.189838	6.357661	-14.692768	6.357661	581829.375	-9.149453E-10	-1.092962E+9	19.155242	0.774306	0	0
0	0	0	5.945227	6.35778	-15.016818	6.35778	526896.125	-5.733882E-10	-1.744019E+9	19.448525	0.766788	0	0
0	0	0	5.711151	6.357717	-15.32633	6.357717	479192	-6.230608E-10	-1.60498E+9	19.182448	0.770784	0	0
0	0	0	5.484304	6.357682	-15.626369	6.357682	437085.875	-6.372831E-10	-1.569161E+9	19.404543	0.764611	0	0
0	0	0	5.269136	6.357605	-15.910814	6.357605	400571.875	-7.967762E-10	-1.255058E+9	19.213016	0.7675	0	0
0	0	0	5.060706	6.357878	-16.18751	6.357878	368112.5	-3.195488E-10	-3.129412E+9	19.339757	0.762672	0	0
0	0	0	4.857626	6.357564	-16.455165	6.357564	339017.875	-8.415309E-10	-1.188311E+9	19.288599	0.76283	0	0
0	0	0	4.651728	6.357794	-16.728375	6.357794	311866.25	-3.27518E-10	-3.053268E+9	19.275391	0.760812	0	0
0	0	0	4.469188	6.35778	-16.969857	6.35778	289619.125	-3.151744E-10	-3.172847E+9	19.351894	0.758675	0	0
0	0	0	4.291467	6.357682	-17.20468	6.357682	269485	-3.929164E-10	-2.545071E+9	19.20886	0.759229	0	0
0	0	0	4.126161	6.357543	-17.422933	6.357543	252015.75	-7.140928E-10	-1.400378E+9	19.39368	0.754876	0	0
0	0	0	3.954157	6.357836	-17.651517	6.357836	235040	-2.234022E-10	-4.476231E+9	19.162333	0.757449	0	0
0	0	0	3.797263	6.357752	-17.858828	6.357752	220554.625	-2.58767E-10	-3.86448E+9	19.424956	0.751117	0	0
0	0	0	3.645882	6.35771	-18.058987	6.35771	207425	-2.756674E-10	-3.62756E+9	19.135493	0.754837	0	0
0	0	0	3.502505	6.357759	-18.248865	6.357759	195711.125	-2.252204E-10	-4.440095E+9	19.453616	0.747516	0	0
0	0	0	3.357698	6.357598	-18.439917	6.357598	184551.875	-3.796631E-10	-2.633914E+9	19.144277	0.752106	0	0
0	0	0	3.223386	6.357738	-18.618112	6.357738	174770.875	-2.133864E-10	-4.686334E+9	19.439396	0.744984	0	0
0	0	0	3.089932	6.357787	-18.794861	6.357787	165565.875	-1.76969E-10	-5.650706E+9	19.151502	0.749257	0	0
0	0	0	2.963502	6.357899	-18.962534	6.357899	157293	-1.308684E-10	-7.641261E+9	19.401881	0.74257	0	0
0	0	0	2.837726	6.357752	-19.128451	6.357752	149473	-1.753701E-10	-5.702226E+9	19.19427	0.745419	0	0
0	0	0	2.711663	6.357836	-19.295542	6.357836	142025.375	-1.349931E-10	-7.407785E+9	19.327315	0.740947	0	0
0	0	0	2.596341	6.357983	-19.448642	6.357983	135537.625	-9.669645E-11	-1.034164E+10	19.269472	0.741343	0	0
0	0	0	2.478405	6.358004	-19.604765	6.358004	129209.375	-8.901031E-11	-1.123465E+10	19.274229	0.739166	0	0
0	0	0	2.368554	6.357766	-19.749289	6.357766	123581.125	-1.395415E-10	-7.166329E+9	19.314686	0.737623	0	0
0	0	0	2.255886	6.357899	-19.89883	6.357899	118063	-9.822892E-11	-1.01803E+10	19.193089	0.737663	0	0
0	0	0	2.148649	6.358025	-20.041162	6.358025	113039.875	-7.528143E-11	-1.328349E+10	19.369779	0.733429	0	0
0	0	0	2.041821	6.357934	-20.182197	6.357934	108248.375	-8.423001E-11	-1.187225E+10	19.148299	0.735526	0	0
0	0	0	1.935441	6.358081	-20.323469	6.358081	103678.875	-6.342223E-11	-1.576734E+10	19.404929	0.729907	0	0
0	0	0	1.829511	6.358116	-20.463756	6.358116	99320.375	-5.781245E-11	-1.729731E+10	19.111665	0.733587	0	0
0	0	0	1.72938	6.357703	-20.5948	6.357703	95369	-1.296127E-10	-7.715291E+9	19.420257	0.726622	0	0
0	0	0	1.622715	6.358088	-20.737286	6.358088	91332.625	-5.530661E-11	-1.808102E+10	19.086841	0.731331	0	0
0	0	0	1.523318	6.357948	-20.868313	6.357948	87725.25	-6.653684E-11	-1.502927E+10	19.411102	0.723575	0	0
0	0	0	1.422044	6.35778	-21.001725	6.35778	84196.125	-9.162538E-11	-1.091401E+10	19.110673	0.728086	0	0
0	0	0	1.316359	6.358004	-21.142354	6.358004	80664.75	-5.556868E-11	-1.799575E+10	19.381629	0.721359	0	0
0	0	0	1.219698	6.357983	-21.270178	6.357983	77564.625	-5.533684E-11	-1.807114E+10	19.159008	0.724525	0	0
0	0	0	1.118179	6.357885	-21.40416	6.357885	74436.875	-6.369624E-11	-1.569951E+10	19.322664	0.719658	0	0
0	0	0	1.015883	6.357955	-21.539762	6.357955	71412.875	-5.348905E-11	-1.869541E+10	19.190522	0.72128	0	0
0	0	0	0.917099	6.358185	-21.671289	6.358185	68609.25	-3.640818E-11	-2.746635E+10	19.245126	0.717996	0	0
0	0	0	0.811618	6.358248	-21.811083	6.358248	65737	-3.23148E-11	-3.094558E+10	19.257558	0.717125	0	0
0	0	0	0.707363	6.358102	-21.94851	6.358102	63016.25	-3.740544E-11	-2.673408E+10	19.190615	0.716294	0	0
0	0	0	0.606333	6.358318	-22.082964	6.358318	60487.25	-2.748496E-11	-3.638353E+10	19.339769	0.713128	0	0
0	0	0	0.499831	6.358116	-22.223161	6.358116	57931	-3.372051E-11	-2.965555E+10	19.147318	0.714711	0	0
0	0	0	0.396269	6.358102	-22.360142	6.358102	55549	-3.2973E-11	-3.032784E+10	19.365281	0.709765	0	0
0	0	0	0.297077	6.357962	-22.49089	6.357962	53359.375	-3.947457E-11	-2.533276E+10	19.076244	0.713287	0	0
0	0	0	0.212586	6.358018	-22.602887	6.358018	51562.5	-3.472417E-11	-2.879839E+10	19.387534	0.706441	0	0
0	0	0	0.150474	6.357878	-22.68457	6.357878	50280.25	-4.364697E-11	-2.29111E+10	19.077048	0.710754	0	0
0	0	0	0.096692	6.357871	-22.755707	6.357871	49195.75	-4.333172E-11	-2.307778E+10	19.421056	0.703235	0	0
0	0	0	0.068597	6.357836	-22.792757	6.357836	48638.5	-4.623021E-11	-2.163088E+10	19.089799	0.708142	0	0
0	0	0	0.032089	6.358053	-22.841842	6.358053	47923.875	-3.056073E-11	-3.272173E+10	19.382832	0.701098	0	0
0	0	0	0.014406	6.357892	-22.864661	6.357892	47581.5	-4.014402E-11	-2.491031E+10	19.108537	0.705016	0	0
0	0	0	-0.000376	6.357913	-22.884296	6.357913	47297.25	-3.829083E-11	-2.611592E+10	19.329305	0.69912	0	0
0	0	0	-0.024511	6.357878	-22.916104	6.357878	46836.625	-4.065765E-11	-2.459562E+10	19.176105	0.701138	0	0
0	0	0	-0.046032	6.357836	-22.944429	6.357836	46429.75	-4.413082E-11	-2.26599E+10	19.277304	0.697339	0	0
0	0	0	-0.055751	6.358116	-22.958296	6.358116	46247.25	-2.691962E-11	-3.714762E+10	19.244152	0.697418	0	0
0	0	0	-0.062162	6.358039	-22.966503	6.358039	46127.125	-3.005303E-11	-3.327452E+10	19.199571	0.695954	0	0
0	0	0	-0.072494	6.357787	-22.979267	6.357787	45934.25	-4.909792E-11	-2.036746E+10	19.281881	0.693857	0	0
0	0	0	-0.083765	6.358004	-22.994961	6.358004	45724.875	-3.149915E-11	-3.174689E+10	19.120354	0.694569	0	0
0	0	0	-0.099528	6.357948	-23.015616	6.357948	45433.625	-3.445997E-11	-2.901917E+10	19.326885	0.690097	0	0
0	0	0	-0.110431	6.358032	-23.030345	6.358032	45233.25	-2.979379E-11	-3.356405E+10	19.079466	0.692749	0	0
0	0	0	-0.120273	6.358227	-23.044073	6.358227	45053.125	-2.270447E-11	-4.404419E+10	19.359369	0.686853	0	0
0	0	0	-0.125091	6.358192	-23.050323	6.358192	44965.125	-2.365225E-11	-4.227928E+10	19.035605	0.691166	0	0
0	0	0	-0.131013	6.357976	-23.057377	6.357976	44857.375	-3.238719E-11	-3.08764E+10	19.359953	0.683964	0	0
0	0	0	-0.133422	6.358102	-23.061019	6.358102	44813.5	-2.660058E-11	-3.759317E+10	19.023636	0.688594	0	0
0	0	0	-0.136689	6.357983	-23.064913	6.357983	44754.25	-3.192897E-11	-3.131952E+10	19.356392	0.681352	0	0
0	0	0	-0.140691	6.357885	-23.069855	6.357885	44681.625	-3.823443E-11	-2.615444E+10	19.073184	0.685388	0	0
0	0	0	-0.146163	6.357822	-23.076869	6.357822	44582.625	-4.375996E-11	-2.285194E+10	19.331718	0.679017	0	0
0	0	0	-0.15139	6.358255	-23.085348	6.358255	44488.25	-2.169189E-11	-4.610018E+10	19.093843	0.68246	0	0
0	0	0	-0.157801	6.357829	-23.092294	6.357829	44372.75	-4.285374E-11	-2.333519E+10	19.260965	0.677435	0	0
0	0	0	-0.164907	6.35778	-23.101519	6.35778	44245.125	-4.81492E-11	-2.076878E+10	19.146978	0.67874	0	0
0	0	0	-0.170542	6.357969	-23.109657	6.357969	44144.125	-3.225996E-11	-3.099818E+10	19.191041	0.67601	0	0
0	0	0	-0.178301	6.357976	-23.119948	6.357976	44005.5	-3.177213E-11	-3.147412E+10	19.221618	0.674862	0	0
0	0	0	-0.181936	6.357787	-23.124076	6.357787	43940.625	-4.696698E-11	-2.129155E+10	19.142995	0.674229	0	0
0	0	0	-0.187571	6.357829	-23.131684	6.357829	43840.375	-4.233959E-11	-2.361856E+10	19.277897	0.671261	0	0
0	0	0	-0.191655	6.357997	-23.137693	6.357997	43767.875	-3.050078E-11	-3.278605E+10	19.062343	0.673161	0	0
0	0	0	-0.194432	6.357948	-23.141191	6.357948	43718.625	-3.31592E-11	-3.015754E+10	19.299458	0.668135	0	0
0	0	0	-0.197086	6.357836	-23.144299	6.357836	43671.625	-4.150926E-11	-2.409101E+10	19.015957	0.671261	0	0
0	0	0	-0.197127	6.357997	-23.144934	6.357997	43670.875	-3.043318E-11	-3.285887E+10	19.341611	0.664772	0	0
0	0	0	-0.200925	6.357815	-23.149303	6.357815	43603.625	-4.350998E-11	-2.298323E+10	19.019403	0.668768	0	0
0	0	0	-0.201946	6.357878	-23.150881	6.357878	43585.625	-3.783554E-11	-2.643018E+10	19.346621	0.661962	0	0
0	0	0	-0.203865	6.357864	-23.15337	6.357864	43551.75	-3.893132E-11	-2.568626E+10	19.017308	0.666394	0	0
0	0	0	-0.204396	6.357766	-23.153719	6.357766	43542.375	-4.916581E-11	-2.033934E+10	19.301574	0.659627	0	0
0	0	0	-0.205703	6.357934	-23.156054	6.357934	43519.375	-3.386321E-11	-2.953057E+10	19.01081	0.663901	0	0
0	0	0	-0.206274	6.358137	-23.157542	6.358137	43509.25	-2.461047E-11	-4.063312E+10	19.260531	0.657965	0	0
0	0	0	-0.207418	6.357857	-23.158046	6.357857	43489	-3.946246E-11	-2.534054E+10	19.093609	0.660063	0	0
0	0	0	-0.208357	6.357913	-23.15949	6.357913	43472.5	-3.519439E-11	-2.841362E+10	19.19926	0.656264	0	0
0	0	0	-0.208684	6.358241	-23.161108	6.358241	43466.75	-2.154355E-11	-4.64176E+10	19.141081	0.656818	0	0
0	0	0	-0.208398	6.358157	-23.160427	6.358157	43471.75	-2.391373E-11	-4.181699E+10	19.137583	0.654799	0	0
0	0	0	-0.209582	6.35792	-23.161136	6.35792	43450.875	-3.470911E-11	-2.881088E+10	19.200594	0.652979	0	0
0	0	0	-0.211624	6.358109	-23.164519	6.358109	43415	-2.55183E-11	-3.918757E+10	19.064985	0.653375	0	0
0	0	0	-0.212318	6.358039	-23.165185	6.358039	43402.75	-2.827803E-11	-3.536315E+10	19.2701	0.64918	0	0
0	0	0	-0.213012	6.357969	-23.165852	6.357969	43390.5	-3.170922E-11	-3.153657E+10	19.026272	0.651634	0	0
0	0	0	-0.212522	6.358206	-23.166061	6.358206	43399.125	-2.24356E-11	-4.457203E+10	19.297444	0.645975	0	0
0	0	0	-0.21387	6.358067	-23.16734	6.358067	43375.5	-2.708521E-11	-3.692052E+10	18.965657	0.650051	0	0
0	0	0	-0.214115	6.358039	-23.167563	6.358039	43371.125	-2.825742E-11	-3.538893E+10	19.280684	0.643561	0	0
0	0	0	-0.213829	6.358269	-23.168017	6.358269	43376.25	-2.081184E-11	-4.804958E+10	18.946251	0.647914	0	0
0	0	0	-0.216198	6.358109	-23.170571	6.358109	43334.5	-2.547098E-11	-3.926037E+10	19.29294	0.640554	0	0
0	0	0	-0.214728	6.357906	-23.167894	6.357906	43360.375	-3.558318E-11	-2.810317E+10	18.976511	0.645065	0	0
0	0	0	-0.215789	6.358192	-23.170333	6.358192	43341.75	-2.279833E-11	-4.386286E+10	19.259329	0.638575	0	0
0	0	0	-0.215871	6.358102	-23.170114	6.358102	43340.25	-2.572608E-11	-3.887106E+10	18.989148	0.642453	0	0
0	0	0	-0.216892	6.358255	-23.172019	6.358255	43322.375	-2.112342E-11	-4.734081E+10	19.206582	0.636953	0	0
0	0	0	-0.217423	6.357976	-23.171713	6.357976	43313	-3.127215E-11	-3.197734E+10	19.039118	0.639169	0	0
0	0	0	-0.216851	6.358095	-23.171385	6.358095	43323.125	-2.597256E-11	-3.850217E+10	19.161799	0.635132	0	0
0	0	0	-0.217259	6.357976	-23.171497	6.357976	43315.875	-3.127422E-11	-3.197522E+10	19.119055	0.635449	0	0
0	0	0	-0.215871	6.358011	-23.169786	6.358011	43340.25	-2.951791E-11	-3.387774E+10	19.083809	0.634103	0	0
0	0	0	-0.216075	6.358185	-23.170686	6.358185	43336.75	-2.299708E-11	-4.348379E+10	19.169809	0.632046	0	0
0	0	0	-0.216974	6.357934	-23.170967	6.357934	43320.875	-3.370875E-11	-2.966589E+10	19.018406	0.632718	0	0
0	0	0	-0.218117	6.357843	-23.172152	6.357843	43300.875	-4.05158E-11	-2.468173E+10	19.213195	0.628761	0	0
0	0	0	-0.217872	6.358039	-23.172534	6.358039	43305.125	-2.821442E-11	-3.544287E+10	18.977275	0.630898	0	0
0	0	0	-0.217586	6.358046	-23.172181	6.358046	43310.125	-2.791491E-11	-3.582315E+10	19.265248	0.625437	0	0
0	0	0	-0.217014	6.358053	-23.17145	6.358053	43320.125	-2.762495E-11	-3.619916E+10	18.935195	0.629513	0	0
0	0	0	-0.216729	6.358011	-23.17092	6.358011	43325.25	-2.950769E-11	-3.388947E+10	19.280493	0.622469	0	0
0	0	0	-0.218893	6.357948	-23.173557	6.357948	43287.25	-3.283202E-11	-3.045807E+10	18.91944	0.627495	0	0
0	0	0	-0.218199	6.357878	-23.172386	6.357878	43299.375	-3.758705E-11	-2.660491E+10	19.262294	0.620332	0	0
0	0	0	-0.217995	6.358011	-23.172595	6.358011	43303	-2.949254E-11	-3.390688E+10	18.925113	0.625002	0	0
0	0	0	-0.219669	6.358283	-23.175795	6.358283	43273.625	-2.043614E-11	-4.893291E+10	19.243301	0.618037	0	0
0	0	0	-0.218076	6.358102	-23.173031	6.358102	43301.5	-2.570308E-11	-3.890584E+10	18.974513	0.621836	0	0
0	0	0	-0.21922	6.357941	-23.173964	6.357941	43281.5	-3.324745E-11	-3.00775E+10	19.181854	0.616652	0	0
0	0	0	-0.219097	6.358109	-23.174407	6.358109	43283.625	-2.544108E-11	-3.930651E+10	19.023095	0.618789	0	0
0	0	0	-0.220853	6.358039	-23.176479	6.358039	43252.875	-2.818038E-11	-3.548568E+10	19.105934	0.615584	0	0
0	0	0	-0.222405	6.35799	-23.178355	6.35799	43225.625	-3.047645E-11	-3.281222E+10	19.081863	0.615346	0	0
0	0	0	-0.222364	6.358227	-23.179159	6.358227	43226.25	-2.178382E-11	-4.590563E+10	19.028133	0.614238	0	0
0	0	0	-0.222936	6.357983	-23.179032	6.357983	43216.375	-3.083181E-11	-3.243404E+10	19.153301	0.611785	0	0
0	0	0	-0.221997	6.358227	-23.178673	6.358227	43232.75	-2.17871E-11	-4.589873E+10	18.957337	0.613051	0	0
0	0	0	-0.223957	6.358011	-23.180484	6.358011	43198.5	-2.942137E-11	-3.39889E+10	19.166675	0.608936	0	0
0	0	0	-0.222895	6.358116	-23.179458	6.358116	43217	-2.515577E-11	-3.975231E+10	18.902755	0.611745	0	0
0	0	0	-0.225631	6.358241	-23.183532	6.358241	43169.125	-2.139604E-11	-4.673762E+10	19.209417	0.60573	0	0
0	0	0	-0.22657	6.358053	-23.184094	6.358053	43152.75	-2.751822E-11	-3.633956E+10	18.875628	0.609965	0	0
0	0	0	-0.227836	6.358192	-23.186274	6.358192	43130.5	-2.268721E-11	-4.407769E+10	19.228981	0.602842	0	0
0	0	0	-0.226611	6.358081	-23.184249	6.358081	43152	-2.639686E-11	-3.78833E+10	18.860006	0.607788	0	0
0	0	0	-0.225876	6.358046	-23.18315	6.358046	43164.75	-2.782121E-11	-3.59438E+10	19.223485	0.600744	0	0
0	0	0	-0.226815	6.358199	-23.184948	6.358199	43148.375	-2.24996E-11	-4.444524E+10	18.887133	0.605335	0	0
0	0	0	-0.225958	6.358074	-23.183359	6.358074	43163.375	-2.667546E-11	-3.748764E+10	19.182886	0.599082	0	0
0	0	0	-0.226897	6.358123	-23.184778	6.358123	43147	-2.4874E-11	-4.020262E+10	18.926928	0.602406	0	0
0	0	0	-0.229225	6.358171	-23.188035	6.358171	43106.25	-2.328618E-11	-4.294393E+10	19.135664	0.597262	0	0
0	0	0	-0.228326	6.358213	-23.186998	6.358213	43122	-2.210213E-11	-4.524452E+10	18.98301	0.599082	0	0
0	0	0	-0.227795	6.358095	-23.185866	6.358095	43131.25	-2.585753E-11	-3.867345E+10	19.069628	0.596194	0	0
0	0	0	-0.229878	6.358151	-23.188824	6.358151	43094.875	-2.39255E-11	-4.17964E+10	19.031257	0.596352	0	0
0	0	0	-0.228694	6.358088	-23.18703	6.358088	43115.5	-2.610866E-11	-3.830147E+10	18.988588	0.595125	0	0
0	0	0	-0.229388	6.358164	-23.188226	6.358164	43103.375	-2.349592E-11	-4.256058E+10	19.079365	0.593067	0	0
0	0	0	-0.229592	6.358137	-23.188395	6.358137	43099.875	-2.437891E-11	-4.101907E+10	18.927101	0.593661	0	0
0	0	0	-0.228898	6.358144	-23.187502	6.358144	43112	-2.415829E-11	-4.139366E+10	19.130756	0.589823	0	0
0	0	0	-0.228449	6.358074	-23.186655	6.358074	43119.875	-2.664857E-11	-3.752546E+10	18.868816	0.592553	0	0
0	0	0	-0.22898	6.358102	-23.187458	6.358102	43110.5	-2.558971E-11	-3.907821E+10	19.167395	0.586934	0	0
0	0	0	-0.228857	6.358116	-23.187347	6.358116	43112.625	-2.509502E-11	-3.984855E+10	18.816868	0.591208	0	0
0	0	0	-0.226244	6.358088	-23.183788	6.358088	43158.375	-2.613462E-11	-3.826342E+10	19.189951	0.584085	0	0
0	0	0	-0.227019	6.358283	-23.185521	6.358283	43144.875	-2.037534E-11	-4.907894E+10	18.828463	0.588675	0	0
0	0	0	-0.22608	6.358032	-23.18337	6.358032	43161.25	-2.842902E-11	-3.517532E+10	19.180036	0.58171	0	0
0	0	0	-0.226938	6.358262	-23.185337	6.358262	43146.25	-2.086816E-11	-4.791989E+10	18.830016	0.586578	0	0
0	0	0	-0.22657	6.358116	-23.184321	6.358116	43152.75	-2.511837E-11	-3.981149E+10	19.142037	0.579969	0	0
0	0	0	-0.225631	6.357899	-23.182296	6.357899	43169.125	-3.59169E-11	-2.784205E+10	18.857578	0.584006	0	0
0	0	0	-0.226162	6.357955	-23.1832	6.357955	43159.875	-3.232723E-11	-3.093367E+10	19.091922	0.578584	0	0
0	0	0	-0.224406	6.358137	-23.181533	6.358137	43190.625	-2.443024E-11	-4.093288E+10	18.922382	0.580721	0	0
0	0	0	-0.224733	6.35792	-23.181183	6.35792	43184.875	-3.449662E-11	-2.898835E+10	19.027348	0.577199	0	0
0	0	0	-0.222772	6.35792	-23.178589	6.35792	43219.125	-3.452398E-11	-2.896537E+10	18.975164	0.577635	0	0
0	0	0	-0.224038	6.358213	-23.181324	6.358213	43197	-2.214057E-11	-4.516596E+10	18.941337	0.576368	0	0
0	0	0	-0.223385	6.357906	-23.179349	6.357906	43208.375	-3.545844E-11	-2.820203E+10	19.017654	0.574627	0	0
0	0	0	-0.224365	6.357843	-23.180419	6.357843	43191.25	-4.041322E-11	-2.474438E+10	18.852759	0.575339	0	0
0	0	0	-0.223017	6.358053	-23.179393	6.358053	43214.875	-2.755784E-11	-3.628732E+10	19.057364	0.571461	0	0
0	0	0	-0.223099	6.358164	-23.179905	6.358164	43213.375	-2.355588E-11	-4.245224E+10	18.806479	0.573677	0	0
0	0	0	-0.222732	6.358102	-23.179191	6.358102	43219.875	-2.565463E-11	-3.897932E+10	19.098817	0.568414	0	0
0	0	0	-0.224038	6.357997	-23.180542	6.357997	43197	-3.010295E-11	-3.321933E+10	18.776347	0.572253	0	0
0	0	0	-0.224569	6.358088	-23.181572	6.358088	43187.625	-2.615233E-11	-3.823751E+10	19.127859	0.565723	0	0
0	0	0	-0.224079	6.357941	-23.180394	6.357941	43196.25	-3.318196E-11	-3.013686E+10	18.750586	0.570591	0	0
0	0	0	-0.223916	6.358053	-23.180582	6.358053	43199.125	-2.754779E-11	-3.630055E+10	19.127181	0.563547	0	0
0	0	0	-0.225018	6.35806	-23.182066	6.35806	43179.875	-2.724628E-11	-3.670226E+10	18.763689	0.568137	0	0
0	0	0	-0.224978	6.358137	-23.182289	6.358137	43180.625	-2.442458E-11	-4.094236E+10	19.099705	0.561489	0	0
0	0	0	-0.225508	6.357801	-23.181781	6.357801	43171.25	-4.455889E-11	-2.244221E+10	18.781327	0.565723	0	0
0	0	0	-0.227387	6.358227	-23.185805	6.358227	43138.375	-2.173954E-11	-4.599914E+10	19.035668	0.560144	0	0
0	0	0	-0.22608	6.35799	-23.183218	6.35799	43161.25	-3.043107E-11	-3.286116E+10	18.802215	0.563191	0	0
0	0	0	-0.227591	6.358081	-23.185546	6.358081	43134.875	-2.638638E-11	-3.789834E+10	18.9639	0.558877	0	0
0	0	0	-0.228285	6.357927	-23.185909	6.357927	43122.625	-3.399484E-11	-2.941623E+10	18.867116	0.559906	0	0
0	0	0	-0.228775	6.35806	-23.187037	6.35806	43114.125	-2.720479E-11	-3.675823E+10	18.903778	0.55769	0	0
0	0	0	-0.231552	6.358157	-23.191064	6.358157	43065.625	-2.369032E-11	-4.221134E+10	18.933576	0.557018	0	0
0	0	0	-0.23094	6.358109	-23.190077	6.358109	43076.25	-2.531919E-11	-3.949574E+10	18.845861	0.556503	0	0
0	0	0	-0.22996	6.35813	-23.188856	6.35813	43093.375	-2.460693E-11	-4.063895E+10	18.98947	0.55401	0	0
0	0	0	-0.23045	6.358018	-23.189101	6.358018	43084.875	-2.901501E-11	-3.446492E+10	18.778959	0.555593	0	0
0	0	0	-0.228939	6.357997	-23.187026	6.357997	43111.25	-3.004319E-11	-3.328541E+10	19.037701	0.550924	0	0
0	0	0	-0.230695	6.358144	-23.189879	6.358144	43080.625	-2.414071E-11	-4.142381E+10	18.731368	0.554208	0	0
0	0	0	-0.230368	6.358046	-23.189094	6.358046	43086.25	-2.777062E-11	-3.600928E+10	19.077988	0.548035	0	0
0	0	0	-0.231716	6.358046	-23.190877	6.358046	43062.75	-2.775547E-11	-3.602893E+10	18.71327	0.552625	0	0
0	0	0	-0.230776	6.358262	-23.190416	6.358262	43079.125	-2.08357E-11	-4.799456E+10	19.061762	0.546056	0	0
0	0	0	-0.230776	6.358157	-23.190038	6.358157	43079.125	-2.369774E-11	-4.219811E+10	18.678074	0.550924	0	0
0	0	0	-0.231471	6.35822	-23.191184	6.35822	43067	-2.188718E-11	-4.568884E+10	19.040744	0.543919	0	0
0	0	0	-0.231961	6.358241	-23.191908	6.358241	43058.5	-2.134121E-11	-4.68577E+10	18.69615	0.548549	0	0
0	0	0	-0.230041	6.358241	-23.189368	6.358241	43092	-2.135781E-11	-4.682127E+10	19.020115	0.541941	0	0
0	0	0	-0.231675	6.358018	-23.190722	6.358018	43063.5	-2.900062E-11	-3.448203E+10	18.731353	0.546096	0	0
0	0	0	-0.230899	6.358283	-23.190654	6.358283	43077	-2.034329E-11	-4.915627E+10	18.963538	0.540754	0	0
0	0	0	-0.23094	6.358116	-23.190103	6.358116	43076.25	-2.507385E-11	-3.98822E+10	18.790731	0.543049	0	0
0	0	0	-0.232573	6.358067	-23.192087	6.358067	43047.75	-2.688055E-11	-3.720162E+10	18.881747	0.540002	0	0
0	0	0	-0.231552	6.358199	-23.191216	6.358199	43065.625	-2.245645E-11	-4.453064E+10	18.843253	0.540002	0	0
0	0	0	-0.229592	6.358206	-23.188647	6.358206	43099.875	-2.228089E-11	-4.48815E+10	18.829526	0.538458	0	0
0	0	0	-0.230368	6.35806	-23.189144	6.35806	43086.25	-2.71872E-11	-3.678201E+10	18.919686	0.536717	0	0
0	0	0	-0.230409	6.358269	-23.189955	6.358269	43085.625	-2.06724E-11	-4.837369E+10	18.739697	0.537904	0	0
0	0	0	-0.229715	6.358206	-23.18881	6.358206	43097.625	-2.227973E-11	-4.488384E+10	18.930658	0.534343	0	0
0	0	0	-0.228612	6.357948	-23.186417	6.357948	43117	-3.270289E-11	-3.057834E+10	18.682065	0.536678	0	0
0	0	0	-0.22706	6.35799	-23.184515	6.35799	43144.125	-3.041899E-11	-3.28742E+10	18.974684	0.531336	0	0
0	0	0	-0.225427	6.358137	-23.182884	6.358137	43172.75	-2.442013E-11	-4.094983E+10	18.64442	0.535134	0	0
0	0	0	-0.227673	6.357899	-23.184998	6.357899	43133.375	-3.588715E-11	-2.786513E+10	19.028305	0.528605	0	0
0	0	0	-0.225304	6.357927	-23.181965	6.357927	43174.875	-3.403603E-11	-2.938063E+10	18.632072	0.53367	0	0
0	0	0	-0.22706	6.358144	-23.18507	6.358144	43144.125	-2.417629E-11	-4.136284E+10	18.995067	0.526824	0	0
0	0	0	-0.227142	6.358109	-23.185052	6.358109	43142.625	-2.53582E-11	-3.943498E+10	18.601436	0.53185	0	0
0	0	0	-0.227101	6.357815	-23.183938	6.357815	43143.375	-4.305072E-11	-2.322842E+10	18.974207	0.524767	0	0
0	0	0	-0.224569	6.358018	-23.18132	6.358018	43187.625	-2.908421E-11	-3.438292E+10	18.636244	0.529238	0	0
0	0	0	-0.225386	6.358053	-23.182527	6.358053	43173.375	-2.753137E-11	-3.63222E+10	18.946752	0.523263	0	0
0	0	0	-0.224569	6.357962	-23.181118	6.357962	43187.625	-3.194965E-11	-3.129925E+10	18.676692	0.526983	0	0
0	0	0	-0.226244	6.35829	-23.184519	6.35829	43158.375	-2.022273E-11	-4.944931E+10	18.87471	0.522194	0	0
0	0	0	-0.225794	6.358018	-23.182941	6.358018	43166.25	-2.906981E-11	-3.439995E+10	18.695303	0.524292	0	0
0	0	0	-0.225835	6.358018	-23.182995	6.358018	43165.5	-2.906931E-11	-3.440055E+10	18.789246	0.521166	0	0
0	0	0	-0.226815	6.357941	-23.184014	6.357941	43148.375	-3.314518E-11	-3.01703E+10	18.749091	0.521403	0	0
0	0	0	-0.225508	6.358088	-23.182815	6.358088	43171.25	-2.614241E-11	-3.825201E+10	18.744481	0.520058	0	0
0	0	0	-0.226244	6.358227	-23.184292	6.358227	43158.375	-2.174962E-11	-4.597783E+10	18.846512	0.518277	0	0
0	0	0	-0.226611	6.358025	-23.184047	6.358025	43152	-2.873804E-11	-3.479708E+10	18.673059	0.519147	0	0
0	0	0	-0.227224	6.357997	-23.184756	6.357997	43141.25	-3.00641E-11	-3.326226E+10	18.871872	0.515665	0	0
0	0	0	-0.227959	6.358144	-23.186259	6.358144	43128.375	-2.416746E-11	-4.137795E+10	18.583504	0.518435	0	0
0	0	0	-0.227959	6.358074	-23.186007	6.358074	43128.375	-2.665383E-11	-3.751806E+10	18.915787	0.512895	0	0
0	0	0	-0.227469	6.358109	-23.185484	6.358109	43137	-2.535489E-11	-3.944012E+10	18.582996	0.516694	0	0
0	0	0	-0.228163	6.357878	-23.18557	6.357878	43124.875	-3.743557E-11	-2.671256E+10	0	0	0	0
0	0	0	-0.228367	6.358102	-23.186648	6.358102	43121.25	-2.559609E-11	-3.906847E+10	0	0	0	0
0	0	0	-0.230286	6.358088	-23.189137	6.358088	43087.75	-2.609185E-11	-3.832614E+10	0	0	0	0
0	0	0	-0.230736	6.357976	-23.189328	6.357976	43079.875	-3.110383E-11	-3.215038E+10	0	0	0	0
0	0	0	-0.232287	6.358199	-23.192189	6.358199	43052.75	-2.244973E-11	-4.454396E+10	0	0	0	0
0	0	0	-0.231226	6.358053	-23.190254	6.358053	43071.25	-2.746625E-11	-3.640832E+10	0	0	0	0
0	0	0	-0.232492	6.357976	-23.191651	6.357976	43049.25	-3.108172E-11	-3.217325E+10	0	0	0	0
0	0	0	-0.231593	6.358109	-23.190942	6.358109	43064.875	-2.53125E-11	-3.950617E+10	0	0	0	0
0	0	0	-0.232492	6.358025	-23.191828	6.358025	43049.25	-2.866961E-11	-3.488014E+10	0	0	0	0
0	0	0	-0.231961	6.358088	-23.191352	6.358088	43058.5	-2.607414E-11	-3.835218E+10	0	0	0	0
0	0	0	-0.232492	6.358171	-23.192358	6.358171	43049.25	-2.325539E-11	-4.300079E+10	0	0	0	0
0	0	0	-0.232818	6.358046	-23.192336	6.358046	43043.5	-2.774306E-11	-3.604505E+10	0	0	0	0
0	0	0	-0.23388	6.358199	-23.194296	6.358199	43025	-2.243526E-11	-4.457269E+10	0	0	0	0
0	0	0	-0.23388	6.35806	-23.193791	6.35806	43025	-2.714855E-11	-3.683438E+10	0	0	0	0
0	0	0	-0.232818	6.358074	-23.192437	6.358074	43043.5	-2.660137E-11	-3.759204E+10	0	0	0	0
0	0	0	-0.232124	6.357843	-23.190685	6.357843	43055.625	-4.028632E-11	-2.482232E+10	0	0	0	0
0	0	0	-0.231879	6.358074	-23.191194	6.358074	43059.875	-2.661149E-11	-3.757775E+10	0	0	0	0
0	0	0	-0.231185	6.357969	-23.189897	6.357969	43072	-3.147647E-11	-3.176977E+10	0	0	0	0
0	0	0	-0.230981	6.358269	-23.190712	6.358269	43075.625	-2.06676E-11	-4.838492E+10	0	0	0	0
0	0	0	-0.231797	6.357948	-23.190632	6.357948	43061.25	-3.26606E-11	-3.061793E+10	0	0	0	0
0	0	0	-0.232083	6.357955	-23.191035	6.357955	43056.375	-3.224971E-11	-3.100803E+10	0	0	0	0
0	0	0	-0.230205	6.358067	-23.188953	6.358067	43089.125	-2.690638E-11	-3.71659E+10	0	0	0	0
0	0	0	-0.230327	6.358116	-23.189292	6.358116	43087	-2.50801E-11	-3.987225E+10	0	0	0	0
0	0	0	-0.229061	6.358109	-23.187592	6.358109	43109.125	-2.533851E-11	-3.946562E+10	0	0	0	0
0	0	0	-0.228816	6.358255	-23.187797	6.358255	43113.375	-2.102152E-11	-4.757031E+10	0	0	0	0
0	0	0	-0.229551	6.358116	-23.188265	6.358116	43100.625	-2.508803E-11	-3.985964E+10	0	0	0	0
0	0	0	-0.230205	6.35822	-23.189508	6.35822	43089.125	-2.189843E-11	-4.566538E+10	0	0	0	0
0	0	0	-0.229225	6.358116	-23.187833	6.358116	43106.25	-2.509131E-11	-3.985444E+10	0	0	0	0
0	0	0	-0.228775	6.357976	-23.186734	6.357976	43114.125	-3.112856E-11	-3.212484E+10	0	0	0	0
0	0	0	-0.227673	6.357962	-23.185225	6.357962	43133.375	-3.190951E-11	-3.133862E+10	0	0	0	0
0	0	0	-0.226284	6.358144	-23.184044	6.358144	43157.75	-2.418392E-11	-4.134978E+10	0	0	0	0
0	0	0	-0.224569	6.358192	-23.181951	6.358192	43187.625	-2.271726E-11	-4.401939E+10	0	0	0	0
0	0	0	-0.225304	6.358178	-23.182873	6.358178	43174.875	-2.311538E-11	-4.326125E+10	0	0	0	0
0	0	0	-0.22755	6.357997	-23.185189	6.357997	43135.5	-3.006009E-11	-3.32667E+10	0	0	0	0
0	0	0	-0.226039	6.358046	-23.183366	6.358046	43162	-2.781944E-11	-3.594609E+10	0	0	0	0
0	0	0	-0.225304	6.357927	-23.181965	6.357927	43174.875	-3.403603E-11	-2.938063E+10	0	0	0	0
0	0	0	-0.225018	6.358039	-23.18199	6.358039	43179.875	-2.813282E-11	-3.554568E+10	0	0	0	0
0	0	0	-0.225999	6.358276	-23.184145	6.358276	43162.75	-2.05453E-11	-4.867293E+10	0	0	0	0
0	0	0	-0.226325	6.357892	-23.183189	6.357892	43157	-3.641112E-11	-2.746414E+10	0	0	0	0
0	0	0	-0.227632	6.358318	-23.186458	6.358318	43134.125	-1.959983E-11	-5.102085E+10	0	0	0	0
0	0	0	-0.227101	6.357815	-23.183938	6.357815	43143.375	-4.305072E-11	-2.322842E+10	0	0	0	0
0	0	0	-0.227305	6.358255	-23.185798	6.358255	43139.875	-2.103444E-11	-4.754108E+10	0	0	0	0
0	0	0	-0.227959	6.358011	-23.18578	6.358011	43128.375	-2.937361E-11	-3.404417E+10	0	0	0	0
0	0	0	-0.228408	6.358123	-23.186778	6.358123	43120.5	-2.485872E-11	-4.022733E+10	0	0	0	0
0	0	0	-0.22804	6.358081	-23.18614	6.358081	43127	-2.638156E-11	-3.790526E+10	0	0	0	0
0	0	0	-0.228204	6.358088	-23.186381	6.358088	43124.125	-2.611388E-11	-3.829381E+10	0	0	0	0
0	0	0	-0.229837	6.358199	-23.188946	6.358199	43095.625	-2.247209E-11	-4.449965E+10	0	0	0	0
0	0	0	-0.230368	6.358004	-23.188942	6.358004	43086.25	-2.968144E-11	-3.369109E+10	0	0	0	0
0	0	0	-0.230491	6.358137	-23.189584	6.358137	43084.125	-2.437E-11	-4.103406E+10	0	0	0	0
0	0	0	-0.231797	6.358095	-23.191162	6.358095	43061.25	-2.581557E-11	-3.873632E+10	0	0	0	0
0	0	0	-0.231185	6.358095	-23.190351	6.358095	43072	-2.582201E-11	-3.872665E+10	0	0	0	0
0	0	0	-0.232247	6.358157	-23.191983	6.358157	43053.5	-2.368365E-11	-4.222323E+10	0	0	0	0
0	0	0	-0.231634	6.357871	-23.190138	6.357871	43064.125	-3.793097E-11	-2.636368E+10	0	0	0	0
0	0	0	-0.232369	6.358262	-23.192524	6.358262	43051.375	-2.082228E-11	-4.802549E+10	0	0	0	0
0	0	0	-0.234043	6.358074	-23.194058	6.358074	43022.125	-2.658816E-11	-3.761072E+10	0	0	0	0
0	0	0	-0.233676	6.357983	-23.193243	6.357983	43028.5	-3.069777E-11	-3.257565E+10	0	0	0	0
0	0	0	-0.234084	6.358164	-23.19444	6.358164	43021.375	-2.345122E-11	-4.26417E+10	0	0	0	0
0	0	0	-0.234533	6.358109	-23.194832	6.358109	43013.625	-2.528238E-11	-3.955324E+10	0	0	0	0
0	0	0	-0.232247	6.357976	-23.191327	6.357976	43053.5	-3.108479E-11	-3.217008E+10	0	0	0	0
0	0	0	-0.233839	6.358248	-23.194418	6.358248	43025.75	-2.115047E-11	-4.728028E+10	0	0	0	0
0	0	0	-0.233717	6.358116	-23.193777	6.358116	43027.75	-2.504561E-11	-3.992715E+10	0	0	0	0
0	0	0	-0.232369	6.357927	-23.191312	6.357927	43051.375	-3.393867E-11	-2.946492E+10	0	0	0	0
0	0	0	-0.231471	6.358067	-23.190628	6.358067	43067	-2.689257E-11	-3.718499E+10	0	0	0	0
0	0	0	-0.234125	6.358381	-23.195276	6.358381	43020.75	-1.830232E-11	-5.46379E+10	0	0	0	0
0	0	0	-0.233431	6.358234	-23.193828	6.358234	43032.75	-2.150589E-11	-4.649889E+10	0	0	0	0
0	0	0	-0.231961	6.358123	-23.191479	6.358123	43058.5	-2.482298E-11	-4.028525E+10	0	0	0	0
0	0	0	-0.231593	6.358241	-23.191421	6.358241	43064.875	-2.134437E-11	-4.685076E+10	0	0	0	0
0	0	0	-0.232369	6.358332	-23.192776	6.358332	43051.375	-1.927069E-11	-5.189228E+10	0	0	0	0
0	0	0	-0.231961	6.358227	-23.191857	6.358227	43058.5	-2.169928E-11	-4.608447E+10	0	0	0	0
0	0	0	-0.230205	6.357962	-23.188575	6.357962	43089.125	-3.187678E-11	-3.13708E+10	0	0	0	0
0	0	0	-0.229429	6.358095	-23.188028	6.358095	43102.625	-2.584037E-11	-3.869913E+10	0	0	0	0
0	0	0	-0.230246	6.358157	-23.189335	6.358157	43088.375	-2.370283E-11	-4.218905E+10	0	0	0	0
0	0	0	-0.229551	6.358151	-23.188392	6.358151	43100.625	-2.39287E-11	-4.179083E+10	0	0	0	0
0	0	0	-0.227346	6.358011	-23.184969	6.358011	43139.125	-2.938093E-11	-3.403569E+10	0	0	0	0
0	0	0	-0.228612	6.357969	-23.186493	6.357969	43117	-3.150935E-11	-3.173661E+10	0	0	0	0
0	0	0	-0.22853	6.358067	-23.186738	6.358067	43118.375	-2.692465E-11	-3.714069E+10	0	0	0	0
0	0	0	-0.228326	6.358095	-23.186569	6.358095	43122	-2.585199E-11	-3.868175E+10	0	0	0	0
0	0	0	-0.225999	6.357969	-23.183035	6.357969	43162.75	-3.154279E-11	-3.170297E+10	0	0	0	0
0	0	0	-0.226815	0	-0.226815	0	43148.375	0	0	0	0	0	0
0	0	0	-0.228245	0	-0.228245	0	43123.375	0	0	0	0	0	0
