Vload_(V)	ILoad_(A)	RsLoad (ohm)	SunsVoc_Voltage_(V)	SunsVoc_Current_(A)	Model_Voltage_(V)	Model_Current_(A)	Carrier_Density_(cm-3)	Lifetime_(s)	Inverse_Lifetime_(s-1)	Efficiency_(%)	Intensity_(suns)	Dark_IV_Voltage_(V)	Dark_IV_Current_(A)
2.963862	6.370804	0	65.01698	-0.720298	65.204899	-0.720298	3.83972E+15	0.000227	4374.883409	19.425066	1.097538	0	0
2.973488	6.370937	0.824663	64.977695	-0.485915	65.105629	-0.485915	3.804117E+15	0.000233	4269.73579	19.678544	1.092156	0	0
6.886454	6.362001	6.121517	64.840321	-0.091521	64.865183	-0.091521	3.681886E+15	0.000239	4158.625405	19.480185	1.097459	0	0
12.038114	6.327441	6.272424	64.67187	0.334988	64.577432	0.334988	3.536715E+15	0.000246	4044.708839	19.631974	1.093304	0	0
16.644313	6.326278	5.558015	64.497089	0.74809	64.278226	0.74809	3.391404E+15	0.000253	3930.401974	19.552506	1.095916	0	0
21.440956	6.322147	4.842806	64.320716	1.138908	63.975276	1.138908	3.250073E+15	0.000261	3817.251004	19.569578	1.093897	0	0
26.613956	6.240811	4.50828	64.140831	1.496892	63.670408	1.496892	3.111228E+15	0.000268	3715.753234	19.614272	1.093066	0	0
31.475029	6.240053	3.73183	63.970461	1.815707	63.381	1.815707	2.984496E+15	0.000275	3621.028331	19.498245	1.093502	0	0
36.346235	6.228787	2.992405	63.802214	2.112471	63.094757	2.112471	2.863745E+15	0.000282	3528.645417	19.658751	1.089386	0	0
40.868691	6.28914	2.007917	63.629598	2.388195	62.804689	2.388195	2.744255E+15	0.000289	3444.649474	19.435621	1.092354	0	0
45.712223	6.275421	1.307327	63.466006	2.640036	62.527798	2.640036	2.634989E+15	0.000296	3361.304042	19.661711	1.086577	0	0
47.142021	6.258705	1.151871	63.300577	2.8731	62.250588	2.8731	2.528307E+15	0.000303	3284.94148	19.371238	1.0918	0	0
48.545057	6.235457	1.01224	63.138742	3.091016	61.978639	3.091016	2.427534E+15	0.000311	3208.732263	19.624343	1.085112	0	0
49.977988	6.19236	0.905802	62.972414	3.297505	61.7014	3.297505	2.327549E+15	0.000318	3136.443673	19.36774	1.090336	0	0
51.394452	6.129607	0.813604	62.808006	3.493903	61.426297	3.493903	2.232179E+15	0.000326	3061.959514	19.58311	1.084598	0	0
52.836867	6.03328	0.734207	62.644864	3.676412	61.15444	3.676412	2.140837E+15	0.000334	2990.534086	19.405937	1.089109	0	0
54.233409	5.888209	0.673792	62.481354	3.847395	60.883289	3.847395	2.05248E+15	0.000341	2921.765391	19.535159	1.085429	0	0
55.618763	5.677135	0.619262	62.320785	4.00219	60.619274	4.00219	1.968726E+15	0.000349	2859.617647	19.480243	1.087685	0	0
56.982127	5.377728	0.572894	62.16238	4.143161	60.360954	4.143161	1.888938E+15	0.000356	2803.40808	19.478775	1.086774	0	0
58.346753	4.947123	0.534126	62.007405	4.275079	60.10826	4.275079	1.813524E+15	0.000363	2747.411992	19.563019	1.085429	0	0
59.639432	4.380819	0.505048	61.851491	4.398554	59.855715	4.398554	1.740216E+15	0.00037	2694.786204	19.433994	1.087249	0	0
60.898291	3.644703	0.479885	61.698803	4.515002	59.608192	4.515002	1.670845E+15	0.000378	2641.247964	19.62769	1.083173	0	0
62.088564	2.76271	0.460235	61.542154	4.623399	59.35723	4.623399	1.60209E+15	0.000385	2593.994181	19.402431	1.087368	0	0
63.162205	1.799872	0.463208	61.388404	4.725343	59.111043	4.725343	1.536918E+15	0.000392	2546.499385	19.663848	1.081037	0	0
64.074815	0.854657	0.480434	61.236165	4.819669	58.868644	4.819669	1.474578E+15	0.000399	2502.251269	19.385099	1.0863	0	0
53.669166	5.952639	0.698807	61.08605	4.908466	58.630022	4.908466	1.415181E+15	0.000406	2458.237063	19.653187	1.078939	0	0
64.810413	0	0	60.928788	4.991127	58.383582	4.991127	1.355103E+15	0.000412	2422.333886	19.389653	1.083846	0	0
0	0	0	60.780715	5.068492	58.150335	5.068492	1.300485E+15	0.000419	2382.721067	19.611237	1.077079	0	0
0	0	0	60.632355	5.141122	57.917817	5.141122	1.247607E+15	0.000426	2345.3733	19.433318	1.080324	0	0
0	0	0	60.488161	5.208813	57.692125	5.208813	1.197933E+15	0.000433	2308.325654	19.555172	1.075457	0	0
0	0	0	60.335269	5.272539	57.455916	5.272539	1.147065E+15	0.000438	2278.652499	19.488569	1.076248	0	0
0	0	0	60.191892	5.331366	57.233845	5.331366	1.101001E+15	0.000445	2246.968856	19.46377	1.074349	0	0
0	0	0	60.04974	5.387257	57.014029	5.387257	1.056854E+15	0.000451	2215.09083	19.556253	1.071381	0	0
0	0	0	59.910895	5.439563	56.7997	5.439563	1.015161E+15	0.000458	2183.54555	19.399711	1.072924	0	0
0	0	0	59.768702	5.489046	56.581656	5.489046	9.738839E+14	0.000464	2155.261373	19.602986	1.067463	0	0
0	0	0	59.633002	5.536214	56.372802	5.536214	9.357993E+14	0.000471	2123.089464	19.364893	1.071064	0	0
0	0	0	59.4933	5.579508	56.160119	5.579508	8.978905E+14	0.000476	2098.039708	19.621938	1.064179	0	0
0	0	0	59.358417	5.620451	55.954592	5.620451	8.625079E+14	0.000483	2071.184217	19.335149	1.069323	0	0
0	0	0	59.217245	5.65934	55.741196	5.65934	8.267243E+14	0.000488	2048.927023	19.598769	1.062002	0	0
0	0	0	59.08081	5.695734	55.535066	5.695734	7.933237E+14	0.000493	2026.045365	19.359717	1.066593	0	0
0	0	0	58.946417	5.729894	55.332495	5.729894	7.615294E+14	0.000499	2003.901716	19.573381	1.060499	0	0
0	0	0	58.811819	5.762277	55.130223	5.762277	7.307592E+14	0.000504	1982.832502	19.423206	1.063665	0	0
0	0	0	58.680285	5.792503	54.932961	5.792503	7.016996E+14	0.000509	1962.439709	19.517773	1.059747	0	0
0	0	0	58.548546	5.821168	54.73596	5.821168	6.735704E+14	0.000514	1943.116798	19.483365	1.060182	0	0
0	0	0	58.419216	5.848105	54.542911	5.848105	6.468813E+14	0.00052	1924.17791	19.453788	1.05856	0	0
0	0	0	58.28907	5.873543	54.349335	5.873543	6.20926E+14	0.000524	1907.101636	19.558236	1.055671	0	0
0	0	0	58.161742	5.897278	54.160341	5.897278	5.963863E+14	0.000529	1890.842594	19.405796	1.056898	0	0
0	0	0	58.033474	5.919884	53.970476	5.919884	5.724978E+14	0.000533	1875.74686	19.616099	1.051318	0	0
0	0	0	57.909494	5.940865	53.787225	5.940865	5.501816E+14	0.000537	1861.049023	19.358783	1.055077	0	0
0	0	0	57.781921	5.961419	53.599058	5.961419	5.279923E+14	0.000541	1846.587318	19.616813	1.047598	0	0
0	0	0	57.656348	5.980568	53.414299	5.980568	5.06898E+14	0.000545	1833.496694	19.333881	1.051991	0	0
0	0	0	57.532491	5.998799	53.232246	5.998799	4.86799E+14	0.000549	1820.036233	19.612785	1.043681	0	0
0	0	0	57.406061	6.016189	53.047012	6.016189	4.669883E+14	0.000553	1808.585204	19.368129	1.047598	0	0
0	0	0	57.283837	6.032284	52.86821	6.032284	4.484967E+14	0.000556	1797.70552	19.57221	1.040752	0	0
0	0	0	57.159367	6.048049	52.68634	6.048049	4.303148E+14	0.00056	1786.433361	19.397884	1.043404	0	0
0	0	0	57.037633	6.062662	52.508837	6.062662	4.1315E+14	0.000563	1776.433881	19.489547	1.038774	0	0
0	0	0	56.912265	6.076832	52.326472	6.076832	3.960936E+14	0.000566	1767.743802	19.456034	1.038655	0	0
0	0	0	56.789837	6.090372	52.148401	6.090372	3.800291E+14	0.000569	1757.620796	19.428532	1.036716	0	0
0	0	0	56.669328	6.102962	51.973493	6.102962	3.647721E+14	0.000572	1748.947237	19.536173	1.033709	0	0
0	0	0	56.545062	6.114784	51.79384	6.114784	3.496009E+14	0.000573	1744.314836	19.36524	1.035252	0	0
0	0	0	56.432761	6.125785	51.631083	6.125785	3.363676E+14	0.000576	1735.055497	19.581274	1.029593	0	0
0	0	0	56.312334	6.136506	51.457231	6.136506	3.226665E+14	0.000578	1729.59939	19.330249	1.033313	0	0
0	0	0	56.196726	6.146475	51.290447	6.146475	3.099775E+14	0.00058	1723.81272	19.603336	1.025992	0	0
0	0	0	56.080995	6.156529	51.123284	6.156529	2.977176E+14	0.000583	1714.365043	19.333349	1.030385	0	0
0	0	0	55.963427	6.165542	50.954298	6.165542	2.857041E+14	0.000584	1711.322516	19.621942	1.022193	0	0
0	0	0	55.851534	6.174344	50.793167	6.174344	2.746718E+14	0.000587	1703.735009	19.366722	1.026744	0	0
0	0	0	55.732046	6.182891	50.62167	6.182891	2.633106E+14	0.000588	1699.940283	19.567314	1.020017	0	0
0	0	0	55.62044	6.190519	50.461668	6.190519	2.530794E+14	0.000589	1696.877509	19.406075	1.022668	0	0
0	0	0	55.506465	6.19824	50.298222	6.19824	2.429995E+14	0.000591	1691.587218	19.500628	1.01792	0	0
0	0	0	55.39249	6.205639	50.134941	6.205639	2.332815E+14	0.000593	1686.507273	19.483536	1.017168	0	0
0	0	0	55.278474	6.212369	49.972074	6.212369	2.239113E+14	0.000593	1685.500408	19.445691	1.015308	0	0
0	0	0	55.16552	6.219047	49.810621	6.219047	2.149647E+14	0.000595	1681.649068	19.550748	1.011905	0	0
0	0	0	55.050525	6.22546	49.646489	6.22546	2.0619E+14	0.000596	1679.127672	19.388427	1.012736	0	0
0	0	0	54.941818	6.231454	49.491311	6.231454	1.981955E+14	0.000597	1674.824008	19.601566	1.00676	0	0
0	0	0	54.82674	6.237456	49.327256	6.237456	1.900407E+14	0.000598	1671.46403	19.338533	1.010163	0	0
0	0	0	54.713786	6.242912	49.166533	6.242912	1.823354E+14	0.000598	1670.827016	19.617466	1.002091	0	0
0	0	0	54.60561	6.248103	49.012568	6.248103	1.752252E+14	0.000599	1668.060586	19.331282	1.006325	0	0
0	0	0	54.487511	6.252828	48.845252	6.252828	1.677539E+14	0.000597	1675.264161	19.600975	0.998173	0	0
0	0	0	54.379334	6.25764	48.691495	6.25764	1.611687E+14	0.000598	1672.595921	19.340769	1.002249	0	0
0	0	0	54.261398	6.262676	48.523986	6.262676	1.542617E+14	0.000599	1669.72383	19.554054	0.995284	0	0
0	0	0	54.151344	6.266919	48.368027	6.266919	1.480642E+14	0.000598	1671.353005	19.384172	0.997975	0	0
0	0	0	54.037491	6.271303	48.206631	6.271303	1.418964E+14	0.000599	1670.408027	19.497352	0.99291	0	0
0	0	0	53.926742	6.275301	48.049826	6.275301	1.361267E+14	0.000598	1671.245926	19.454946	0.992791	0	0
0	0	0	53.814687	6.279279	47.89118	6.279279	1.30512E+14	0.000599	1670.534687	19.434043	0.990892	0	0
0	0	0	53.705408	6.282759	47.736792	6.282759	1.252453E+14	0.000597	1674.592905	19.532703	0.987687	0	0
0	0	0	53.587595	6.286566	47.570241	6.286566	1.197906E+14	0.000597	1675.142813	19.372436	0.988755	0	0
0	0	0	53.480521	6.28964	47.419198	6.28964	1.150272E+14	0.000595	1680.864164	19.584891	0.982978	0	0
0	0	0	53.36332	6.293185	47.253648	6.293185	1.100177E+14	0.000595	1680.64118	19.342191	0.986183	0	0
0	0	0	53.25253	6.296248	47.097388	6.296248	1.054718E+14	0.000594	1683.892841	19.62911	0.978348	0	0
0	0	0	53.142721	6.29926	46.942494	6.29926	1.011416E+14	0.000593	1685.05191	19.335143	0.982899	0	0
0	0	0	53.028052	6.302229	46.780877	6.302229	9.679968E+13	0.000593	1687.567145	19.626566	0.974509	0	0
0	0	0	52.916854	6.304903	46.624317	6.304903	9.275837E+13	0.000591	1692.408575	19.365011	0.978664	0	0
0	0	0	52.802307	6.307618	46.463045	6.307618	8.876324E+13	0.00059	1695.732611	19.580852	0.97166	0	0
0	0	0	52.689149	6.310208	46.303783	6.310208	8.49777E+13	0.000589	1698.662373	19.418014	0.973639	0	0
0	0	0	52.576522	6.312546	46.145477	6.312546	8.136309E+13	0.000586	1705.670493	19.525589	0.968574	0	0
0	0	0	52.462016	6.3149	45.984523	6.3149	7.7839E+13	0.000584	1710.871727	19.479668	0.968257	0	0
0	0	0	52.346407	6.316894	45.822379	6.316894	7.442941E+13	0.00058	1725.410337	19.452147	0.965764	0	0
0	0	0	52.237986	6.31899	45.670056	6.31899	7.136221E+13	0.000578	1729.62676	19.532228	0.963073	0	0
0	0	0	52.121153	6.321287	45.505842	6.321287	6.819295E+13	0.000578	1729.744947	19.366463	0.963904	0	0
0	0	0	52.01069	6.323109	45.350922	6.323109	6.532127E+13	0.000575	1739.348945	19.576481	0.957968	0	0
0	0	0	51.895122	6.324967	45.188866	6.324967	6.244166E+13	0.000572	1748.666841	19.333147	0.960738	0	0
0	0	0	51.783597	6.326807	45.032406	6.326807	5.97791E+13	0.00057	1753.258802	19.613528	0.953141	0	0
0	0	0	51.670398	6.328367	44.8739	6.328367	5.718884E+13	0.000566	1767.666159	19.317039	0.957691	0	0
0	0	0	51.549236	6.330098	44.704155	6.330098	5.45367E+13	0.000562	1778.040044	19.605303	0.949658	0	0
0	0	0	51.428237	6.331707	44.534744	6.331707	5.200718E+13	0.000558	1790.824713	19.332348	0.954011	0	0
0	0	0	51.309199	6.333227	44.368121	6.333227	4.962985E+13	0.000554	1803.611542	19.576834	0.946532	0	0
0	0	0	51.192815	6.334857	44.205036	6.334857	4.740773E+13	0.000554	1806.279732	19.389824	0.949183	0	0
0	0	0	51.0779	6.336019	44.044483	6.336019	4.530871E+13	0.000547	1828.832536	19.534275	0.943802	0	0
0	0	0	50.951715	6.337711	43.8677	6.337711	4.310801E+13	0.000547	1828.695738	19.453955	0.944672	0	0
0	0	0	50.836474	6.338792	43.706749	6.338792	4.118943E+13	0.00054	1851.360225	19.468114	0.941467	0	0
0	0	0	50.715231	6.339787	43.53756	6.339787	3.926086E+13	0.000531	1881.971872	19.519649	0.939726	0	0
0	0	0	50.597825	6.341267	43.373123	6.341267	3.747753E+13	0.000533	1877.424287	19.406774	0.93929	0	0
0	0	0	50.479359	6.342356	43.207642	6.342356	3.575842E+13	0.000528	1895.126612	19.592981	0.934146	0	0
0	0	0	50.35497	6.34342	43.033965	6.34342	3.403646E+13	0.000522	1916.557577	19.360776	0.936797	0	0
0	0	0	50.235523	6.34464	42.866941	6.34464	3.245947E+13	0.000521	1920.101048	19.628336	0.929516	0	0
0	0	0	50.111707	6.345603	42.694142	6.345603	3.090044E+13	0.000515	1942.803505	19.336409	0.933711	0	0
0	0	0	49.986665	6.346792	42.519363	6.346792	2.940062E+13	0.000514	1945.560417	19.627824	0.925717	0	0
0	0	0	49.861093	6.34774	42.344114	6.34774	2.796644E+13	0.000509	1964.516411	19.345885	0.929635	0	0
0	0	0	49.72772	6.348288	42.158513	6.348288	2.651849E+13	0.000494	2022.635616	19.601531	0.921918	0	0
0	0	0	49.599698	6.349541	41.979474	6.349541	2.519809E+13	0.000497	2010.10816	19.392096	0.924926	0	0
0	0	0	49.468939	6.35034	41.79717	6.35034	2.391633E+13	0.000491	2038.228841	19.549215	0.919109	0	0
0	0	0	49.337649	6.35105	41.614226	6.35105	2.269405E+13	0.000482	2073.563593	19.442454	0.920177	0	0
0	0	0	49.199622	6.351817	41.421855	6.351817	2.147545E+13	0.000475	2106.140795	19.474889	0.917012	0	0
0	0	0	49.068169	6.352723	41.238418	6.352723	2.037502E+13	0.000473	2113.894326	19.502588	0.91527	0	0
0	0	0	48.92475	6.353534	41.03849	6.353534	1.923788E+13	0.000468	2138.494008	19.411377	0.914558	0	0
0	0	0	48.784191	6.353944	40.843013	6.353944	1.818432E+13	0.000453	2208.698651	19.577859	0.910047	0	0
0	0	0	48.634892	6.354757	40.634899	6.354757	1.712771E+13	0.000448	2231.854047	19.36804	0.912025	0	0
0	0	0	48.48882	6.355496	40.43134	6.355496	1.615278E+13	0.000443	2257.606544	19.622401	0.905417	0	0
0	0	0	48.332089	6.355963	40.213328	6.355963	1.516776E+13	0.000429	2330.74186	19.325017	0.909612	0	0
0	0	0	48.175644	6.356488	39.995631	6.356488	1.424391E+13	0.000418	2394.186302	19.625933	0.901381	0	0
0	0	0	48.007561	6.357001	39.761794	6.357001	1.331342E+13	0.000405	2469.741905	19.319013	0.905892	0	0
0	0	0	47.831922	6.357533	39.51744	6.357533	1.240549E+13	0.000392	2548.355225	19.610361	0.897819	0	0
0	0	0	47.650894	6.358061	39.265601	6.358061	1.153398E+13	0.00038	2631.749432	19.370249	0.901539	0	0
0	0	0	47.456103	6.358637	38.994595	6.358637	1.066402E+13	0.000368	2717.844278	19.577895	0.895049	0	0
0	0	0	47.253595	6.359155	38.712944	6.359155	9.828654E+12	0.000354	2823.291115	19.422375	0.897344	0	0
0	0	0	47.044144	6.359726	38.421577	6.359726	9.033044E+12	0.000342	2921.290507	19.507864	0.893031	0	0
0	0	0	46.825423	6.360208	38.117455	6.360208	8.270522E+12	0.000328	3051.852159	19.485276	0.892398	0	0
0	0	0	46.6056	6.360565	37.811964	6.360565	7.568694E+12	0.00031	3222.484465	19.433869	0.890538	0	0
0	0	0	46.378834	6.36116	37.496499	6.36116	6.90678E+12	0.000301	3326.157511	19.560709	0.886977	0	0
0	0	0	46.140185	6.36157	37.164788	6.36157	6.27235E+12	0.000285	3506.777014	19.3762	0.888362	0	0
0	0	0	45.888754	6.361938	36.815391	6.361938	5.666652E+12	0.000268	3727.116677	19.611239	0.882386	0	0
0	0	0	45.622336	6.362485	36.444927	6.362485	5.088343E+12	0.000257	3894.603412	19.338805	0.885829	0	0
0	0	0	45.334724	6.362874	36.045266	6.362874	4.529903E+12	0.00024	4169.768894	19.64185	0.877875	0	0
0	0	0	45.025428	6.363142	35.615681	6.363142	3.997387E+12	0.000219	4565.845878	19.342654	0.882268	0	0
0	0	0	44.692896	6.363421	35.153826	6.363421	3.494331E+12	0.000199	5033.266499	19.642553	0.874314	0	0
0	0	0	44.339863	6.36388	34.663237	6.36388	3.029227E+12	0.000184	5444.733024	19.381297	0.878192	0	0
0	0	0	43.969802	6.364412	34.148886	6.364412	2.607889E+12	0.000171	5838.507	19.596683	0.871662	0	0
0	0	0	43.586102	6.364548	33.616202	6.364548	2.232708E+12	0.00015	6674.460791	19.402321	0.874393	0	0
0	0	0	43.17549	6.36506	33.045568	6.36506	1.89072E+12	0.000138	7236.457108	19.522598	0.869367	0	0
0	0	0	42.739028	6.365281	32.439505	6.365281	1.584386E+12	0.00012	8303.806346	19.471179	0.869288	0	0
0	0	0	42.271123	6.365543	31.789724	6.365543	1.310838E+12	0.000105	9559.275122	19.452362	0.866914	0	0
0	0	0	41.773488	6.36609	31.098193	6.36609	1.071502E+12	9.543394E-5	10478.452563	19.539738	0.864381	0	0
0	0	0	41.264133	6.366155	30.391187	6.366155	8.716908E+11	7.870939E-5	12704.964891	19.394387	0.865054	0	0
0	0	0	40.737545	6.366557	29.659673	6.366557	7.041878E+11	6.960645E-5	14366.485101	19.596312	0.859909	0	0
0	0	0	40.18666	6.366632	28.89499	6.366632	5.632858E+11	5.668343E-5	17641.840385	19.331375	0.863036	0	0
0	0	0	39.620501	6.366926	28.10871	6.366926	4.477885E+11	4.847574E-5	20628.876238	19.626496	0.855319	0	0
0	0	0	39.038417	6.367103	27.300521	6.367103	3.53677E+11	4.01215E-5	24924.29193	19.322161	0.859712	0	0
0	0	0	38.437139	6.367277	26.465689	6.367277	2.771764E+11	3.298897E-5	30313.165049	19.648919	0.851362	0	0
0	0	0	37.809644	6.367671	25.594033	6.367671	2.149243E+11	2.880183E-5	34720.016652	19.33836	0.85619	0	0
0	0	0	37.15634	6.367776	24.687092	6.367776	1.649176E+11	2.286745E-5	43730.272675	19.608948	0.848671	0	0
0	0	0	36.474614	6.368082	23.740292	6.368082	1.250954E+11	1.929737E-5	51820.53109	19.366423	0.852193	0	0
0	0	0	35.753971	6.368184	22.73987	6.368184	9.340297E+10	1.49658E-5	66819.020686	19.550473	0.84602	0	0
0	0	0	34.997228	6.368486	21.688913	6.368486	6.872612E+10	1.244985E-5	80322.226915	19.438686	0.847286	0	0
0	0	0	34.21582	6.368668	20.603952	6.368668	5.006547E+10	9.841606E-6	101609.430264	19.494443	0.843764	0	0
0	0	0	33.413217	6.368638	19.490018	6.368638	3.615943E+10	7.010252E-6	142648.232395	19.513815	0.842696	0	0
0	0	0	32.582683	6.369028	18.336381	6.369028	2.582175E+10	6.103013E-6	163853.504987	19.414483	0.842023	0	0
0	0	0	31.733078	6.368827	17.157582	6.368827	1.829747E+10	3.886721E-6	257286.299859	19.557041	0.838105	0	0
0	0	0	30.878204	6.368914	15.970823	6.368914	1.293803E+10	2.873582E-6	347997.762729	19.354407	0.839688	0	0
0	0	0	30.010509	6.36923	14.765704	6.36923	9.100961E+9	2.428222E-6	411823.911545	19.623015	0.833317	0	0
0	0	0	29.132073	6.369505	13.545749	6.369505	6.374041E+9	2.059667E-6	485515.377306	19.346385	0.836918	0	0
0	0	0	28.238691	6.369498	12.305719	6.369498	4.437216E+9	1.427026E-6	700758.159058	19.635466	0.829756	0	0
0	0	0	27.336202	6.369597	11.052782	6.369597	3.077532E+9	1.070645E-6	934016.481978	19.321939	0.834109	0	0
0	0	0	26.426485	6.369485	9.79035	6.369485	2.128246E+9	6.776974E-7	1475584.767621	19.610986	0.826511	0	0
0	0	0	25.515339	6.369738	8.524976	6.369738	1.470921E+9	5.792917E-7	1726246.09967	19.337391	0.830428	0	0
0	0	0	24.615178	6.36971	7.275585	6.36971	1.021154E+9	3.919319E-7	2551463.470348	19.583512	0.823385	0	0
0	0	0	23.723103	6.369927	6.036739	6.369927	7.112403E+8	3.406376E-7	2935671.229364	19.407311	0.825917	0	0
0	0	0	22.817674	6.370193	4.779196	6.370193	4.927089E+8	3.389063E-7	2950667.887834	19.521299	0.821327	0	0
0	0	0	21.942832	6.370081	3.565171	6.370081	3.455811E+8	2.008507E-7	4978822.531162	19.470202	0.821248	0	0
0	0	0	21.084365	6.370137	2.373395	6.370137	2.440018E+8	1.537475E-7	6504171.731954	19.432653	0.819744	0	0
0	0	0	20.247174	6.370081	1.21148	6.370081	1.73773E+8	1.010062E-7	9900382.431563	19.532272	0.816697	0	0
0	0	0	19.426849	6.370109	0.072726	6.370109	1.246066E+8	7.535276E-8	1.327091E+7	19.367053	0.817607	0	0
0	0	0	18.625758	6.370355	-1.040002	6.370355	9.005059E+7	8.418023E-8	1.187927E+7	19.595333	0.812028	0	0
0	0	0	17.848352	6.370306	-2.118955	6.370306	6.570562E+7	5.537821E-8	1.805764E+7	19.334072	0.814995	0	0
0	0	0	17.093201	6.370418	-3.167523	6.370418	4.837681E+7	5.260873E-8	1.900825E+7	19.612642	0.808031	0	0
0	0	0	16.358306	6.370418	-4.187624	6.370418	3.59119E+7	3.905387E-8	2.560566E+7	19.281703	0.812661	0	0
0	0	0	15.65118	6.370404	-5.169133	6.370404	2.696057E+7	2.829303E-8	3.534439E+7	19.615344	0.804469	0	0
0	0	0	14.971659	6.370523	-6.112763	6.370523	2.046824E+7	3.058143E-8	3.269958E+7	19.315005	0.80902	0	0
0	0	0	14.309943	6.3706	-7.031546	6.3706	1.565189E+7	3.221912E-8	3.103747E+7	19.604495	0.801225	0	0
0	0	0	13.66595	6.370509	-7.925165	6.370509	1.205519E+7	1.715649E-8	5.828699E+7	19.345248	0.805261	0	0
0	0	0	13.04409	6.370551	-8.78851	6.370551	9368675.25	1.554798E-8	6.431704E+7	19.542063	0.798969	0	0
0	0	0	12.456411	6.37074	-9.604921	6.37074	7382455.375	4.852227E-8	2.060909E+7	19.395964	0.800868	0	0
0	0	0	11.888456	6.370467	-10.39235	6.370467	5864033.625	7.304941E-9	1.368936E+8	19.470738	0.796872	0	0
0	0	0	11.347575	6.370621	-11.143687	6.370621	4709332.125	1.080765E-8	9.252706E+7	19.481633	0.795922	0	0
0	0	0	10.829481	6.370859	-11.863702	6.370859	3817108	-2.903772E-8	-3.443796E+7	19.414212	0.794853	0	0
0	0	0	10.333194	6.370572	-12.551575	6.370572	3121398.75	5.64944E-9	1.770087E+8	19.542588	0.791569	0	0
0	0	0	9.855651	6.370852	-13.215467	6.370852	2571961.5	-2.240931E-8	-4.462432E+7	19.33871	0.793073	0	0
0	0	0	9.39918	6.370663	-13.848412	6.370663	2137420.25	6.368078E-9	1.570333E+8	19.58811	0.787177	0	0
0	0	0	8.962596	6.370719	-14.454642	6.370719	1790676.5	8.856467E-9	1.129118E+8	19.296496	0.790857	0	0
0	0	0	8.545532	6.371006	-15.034635	6.371006	1512102.875	-3.138574E-9	-3.18616E+8	19.613496	0.783299	0	0
0	0	0	8.148192	6.370838	-15.585567	6.370838	1287118.625	-1.581063E-8	-6.324858E+7	19.291843	0.787849	0	0
0	0	0	7.766655	6.37102	-16.115866	6.37102	1102651.875	-2.14047E-9	-4.671871E+8	19.604658	0.780093	0	0
0	0	0	7.400147	6.371132	-16.625049	6.371132	950395.625	-1.215247E-9	-8.228777E+8	19.310043	0.784248	0	0
0	0	0	7.049565	6.371125	-17.111677	6.371125	824469.625	-1.077207E-9	-9.283268E+8	19.565857	0.777521	0	0
0	0	0	6.716706	6.370887	-17.572822	6.370887	720386.375	-3.63494E-9	-2.751077E+8	19.355119	0.780449	0	0
0	0	0	6.398916	6.371013	-18.014435	6.371013	633300.25	-1.270507E-9	-7.870876E+8	19.504723	0.775226	0	0
0	0	0	6.096071	6.371132	-18.43528	6.371132	560125.625	-7.162186E-10	-1.396222E+9	19.429275	0.775978	0	0
0	0	0	5.805152	6.371167	-18.839251	6.371167	497806.875	-5.751865E-10	-1.738567E+9	19.439047	0.773366	0	0
0	0	0	5.528239	6.371125	-19.22348	6.371125	444941.25	-5.813357E-10	-1.720176E+9	19.494111	0.771229	0	0
0	0	0	5.260718	6.371006	-19.59437	6.371006	399207	-8.286073E-10	-1.206844E+9	19.35801	0.771585	0	0
0	0	0	5.0021	6.370887	-19.952898	6.370887	359468.875	-1.813814E-9	-5.513245E+8	19.532565	0.767232	0	0
0	0	0	4.750996	6.370985	-20.301846	6.370985	324673.875	-7.520225E-10	-1.329747E+9	19.296133	0.769528	0	0
0	0	0	4.50226	6.370887	-20.646735	6.370887	293528.625	-1.481091E-9	-6.751778E+8	19.586523	0.762682	0	0
0	0	0	4.277251	6.371195	-20.960295	6.371195	267936.125	-2.874237E-10	-3.479184E+9	19.264005	0.767035	0	0
0	0	0	4.060939	6.371237	-21.260732	6.371237	245439	-2.377612E-10	-4.205901E+9	19.588966	0.759397	0	0
0	0	0	3.843484	6.371188	-21.562395	6.371188	224726.75	-2.454643E-10	-4.073912E+9	19.248528	0.764304	0	0
0	0	0	3.640853	6.371153	-21.843534	6.371153	207002.625	-2.487695E-10	-4.019786E+9	19.560254	0.756627	0	0
0	0	0	3.447778	6.371377	-22.112448	6.371377	191416.5	-1.401358E-10	-7.135933E+9	19.279397	0.760663	0	0
0	0	0	3.261522	6.371125	-22.369984	6.371125	177494.125	-2.31904E-10	-4.312129E+9	19.519963	0.754015	0	0
0	0	0	3.077758	6.371111	-22.625018	6.371111	164750.625	-2.250651E-10	-4.443159E+9	19.353118	0.756311	0	0
0	0	0	2.90314	6.371195	-22.867749	6.371195	153490.25	-1.646539E-10	-6.073344E+9	19.465416	0.752076	0	0
0	0	0	2.729136	6.37116	-23.10915	6.37116	143035	-1.685167E-10	-5.93413E+9	19.413144	0.752472	0	0
0	0	0	2.565136	6.37102	-23.336234	6.37102	133833.75	-2.597982E-10	-3.849142E+9	19.395104	0.750454	0	0
0	0	0	2.404975	6.371202	-23.5593	6.371202	125419.375	-1.32176E-10	-7.565668E+9	19.48608	0.748119	0	0
0	0	0	2.255186	6.371216	-23.767285	6.371216	118029.5	-1.201629E-10	-8.322035E+9	19.332894	0.748634	0	0
0	0	0	2.104948	6.371328	-23.976294	6.371328	111054.625	-8.890343E-11	-1.124816E+10	19.540154	0.743687	0	0
0	0	0	1.962061	6.371062	-24.173551	6.371062	104803.875	-1.703469E-10	-5.870375E+9	19.274605	0.746695	0	0
0	0	0	1.821583	6.371174	-24.369013	6.371174	99001.625	-1.122273E-10	-8.910487E+9	19.580981	0.739967	0	0
0	0	0	1.686986	6.371118	-24.555622	6.371118	93743.875	-1.252096E-10	-7.986606E+9	19.244892	0.744676	0	0
0	0	0	1.550592	6.371167	-24.745157	6.371167	88700.625	-1.024883E-10	-9.757209E+9	19.58356	0.736841	0	0
0	0	0	1.425999	6.371237	-24.918398	6.371237	84331.25	-8.16932E-11	-1.224092E+10	19.256026	0.741352	0	0
0	0	0	1.300222	6.371111	-25.092471	6.371111	80138.75	-1.094772E-10	-9.134323E+9	19.554547	0.733992	0	0
0	0	0	1.177223	6.371209	-25.263618	6.371209	76240.375	-7.895946E-11	-1.266473E+10	19.290921	0.737712	0	0
0	0	0	1.053978	6.371195	-25.434641	6.371195	72524.375	-7.779923E-11	-1.28536E+10	19.49715	0.732172	0	0
0	0	0	0.936981	6.370915	-25.595882	6.370915	69164.5	-2.610841E-10	-3.830183E+9	19.333895	0.734032	0	0
0	0	0	0.820393	6.371083	-25.758422	6.371083	65971.25	-9.916245E-11	-1.008446E+10	19.409817	0.730589	0	0
0	0	0	0.704539	6.371244	-25.919915	6.371244	62944.125	-6.00054E-11	-1.666517E+10	19.395448	0.730074	0	0
0	0	0	0.589339	6.371293	-26.080034	6.371293	60071.875	-5.153069E-11	-1.940591E+10	19.349059	0.728729	0	0
0	0	0	0.477284	6.371363	-26.235876	6.371363	57403.875	-4.307753E-11	-2.321396E+10	19.469287	0.725959	0	0
0	0	0	0.363064	6.371398	-26.394578	6.371398	54806.125	-3.870539E-11	-2.58362E+10	19.290383	0.727384	0	0
0	0	0	0.252029	6.371209	-26.547915	6.371209	52393.625	-5.426223E-11	-1.842903E+10	19.508094	0.722754	0	0
0	0	0	0.140463	6.371083	-26.702252	6.371083	50076.5	-7.52708E-11	-1.328537E+10	19.2324	0.726038	0	0
0	0	0	0.03437	6.371279	-26.850351	6.371279	47968.25	-4.236037E-11	-2.360697E+10	19.556594	0.718797	0	0
0	0	0	-0.060371	6.370992	-26.980652	6.370992	46160.625	-1.029414E-10	-9.714264E+9	19.210365	0.723506	0	0
0	0	0	-0.136899	6.3713	-27.088186	6.3713	44750.375	-3.784606E-11	-2.642283E+10	19.556893	0.715789	0	0
0	0	0	-0.191252	6.371356	-27.163873	6.371356	43775	-3.326649E-11	-3.006028E+10	19.217425	0.720815	0	0
0	0	0	-0.224697	6.371461	-27.210745	6.371461	43185.5	-2.757481E-11	-3.626498E+10	19.52583	0.713771	0	0
0	0	0	-0.25169	6.371384	-27.247889	6.371384	42715.375	-3.089457E-11	-3.236815E+10	19.247533	0.717807	0	0
0	0	0	-0.261083	6.371202	-27.260155	6.371202	42553	-4.484544E-11	-2.229881E+10	19.468369	0.711832	0	0
0	0	0	-0.265085	6.371251	-27.265918	6.371251	42484.125	-3.986662E-11	-2.508364E+10	19.318966	0.71381	0	0
0	0	0	-0.269985	6.371412	-27.273404	6.371412	42399.75	-2.92544E-11	-3.418289E+10	19.421204	0.710012	0	0
0	0	0	-0.272109	6.371279	-27.275787	6.371279	42363.25	-3.741064E-11	-2.673036E+10	19.394989	0.710091	0	0
0	0	0	-0.275784	6.371412	-27.281453	6.371412	42300.25	-2.918575E-11	-3.42633E+10	19.337571	0.709101	0	0
0	0	0	-0.279418	6.371412	-27.286498	6.371412	42237.875	-2.914271E-11	-3.43139E+10	19.462495	0.706213	0	0
0	0	0	-0.279704	6.371447	-27.287044	6.371447	42233	-2.755362E-11	-3.629287E+10	19.271201	0.707558	0	0
0	0	0	-0.281338	6.371377	-27.289014	6.371377	42205	-3.089824E-11	-3.23643E+10	19.515794	0.702453	0	0
0	0	0	-0.283175	6.371475	-27.291981	6.371475	42173.625	-2.636699E-11	-3.792621E+10	19.24022	0.7055	0	0
0	0	0	-0.284196	6.371398	-27.293071	6.371398	42156.125	-2.977166E-11	-3.358899E+10	19.555947	0.698971	0	0
0	0	0	-0.284891	6.371426	-27.294154	6.371426	42144.25	-2.842379E-11	-3.51818E+10	19.214791	0.70368	0	0
0	0	0	-0.28342	6.371566	-27.292707	6.371566	42169.375	-2.32165E-11	-4.307282E+10	19.548103	0.696399	0	0
0	0	0	-0.285503	6.371384	-27.294826	6.371384	42133.875	-3.047399E-11	-3.281487E+10	19.197762	0.701306	0	0
0	0	0	-0.286238	6.371265	-27.295342	6.371265	42121.25	-3.832616E-11	-2.609184E+10	19.509121	0.693985	0	0
0	0	0	-0.286442	6.371545	-27.296813	6.371545	42117.75	-2.384509E-11	-4.193736E+10	19.255222	0.697823	0	0
0	0	0	-0.286483	6.371636	-27.297255	6.371636	42117.125	-2.123722E-11	-4.708715E+10	19.473372	0.692086	0	0
0	0	0	-0.285503	6.371419	-27.294974	6.371419	42133.875	-2.874015E-11	-3.479453E+10	19.300655	0.694341	0	0
0	0	0	-0.284972	6.371454	-27.294386	6.371454	42142.875	-2.719879E-11	-3.676634E+10	19.375723	0.690978	0	0
0	0	0	-0.284768	6.371454	-27.294102	6.371454	42146.375	-2.720105E-11	-3.676328E+10	19.355321	0.690503	0	0
0	0	0	-0.284768	6.371405	-27.293895	6.371405	42146.375	-2.941819E-11	-3.399258E+10	19.301012	0.689513	0	0
0	0	0	-0.283339	6.371363	-27.291733	6.371363	42170.875	-3.164625E-11	-3.159932E+10	19.438069	0.686387	0	0
0	0	0	-0.283584	6.371377	-27.292132	6.371377	42166.625	-3.087015E-11	-3.239376E+10	19.247108	0.687891	0	0
0	0	0	-0.283951	6.371349	-27.292523	6.371349	42160.375	-3.245086E-11	-3.081582E+10	19.487168	0.682826	0	0
0	0	0	-0.28387	6.371209	-27.291816	6.371209	42161.75	-4.366544E-11	-2.290141E+10	19.189173	0.686308	0	0
0	0	0	-0.283625	6.371244	-27.291625	6.371244	42166	-4.019736E-11	-2.487725E+10	19.496591	0.679897	0	0
0	0	0	-0.28097	6.371216	-27.287821	6.371216	42211.375	-4.297436E-11	-2.326969E+10	19.154559	0.684369	0	0
0	0	0	-0.281909	6.371594	-27.290728	6.371594	42195.25	-2.240754E-11	-4.462783E+10	19.51861	0.676653	0	0
0	0	0	-0.28048	6.371405	-27.287943	6.371405	42219.75	-2.94694E-11	-3.39335E+10	19.179396	0.681678	0	0
0	0	0	-0.28146	6.371349	-27.289066	6.371349	42203	-3.248367E-11	-3.07847E+10	19.496122	0.674476	0	0
0	0	0	-0.280848	6.37137	-27.288304	6.37137	42213.5	-3.128657E-11	-3.19626E+10	19.195366	0.678829	0	0
0	0	0	-0.27999	6.371223	-27.28649	6.371223	42228.125	-4.227345E-11	-2.365551E+10	19.423217	0.672656	0	0
0	0	0	-0.280154	6.37151	-27.287934	6.37151	42225.375	-2.509089E-11	-3.98551E+10	19.230632	0.675465	0	0
0	0	0	-0.280154	6.371384	-27.2874	6.371384	42225.375	-3.054017E-11	-3.274376E+10	19.363715	0.671271	0	0
0	0	0	-0.281297	6.371538	-27.28964	6.371538	42205.75	-2.412274E-11	-4.145466E+10	19.336979	0.671152	0	0
0	0	0	-0.281909	6.371405	-27.289927	6.371405	42195.25	-2.94523E-11	-3.395321E+10	19.297431	0.669925	0	0
0	0	0	-0.280399	6.371426	-27.287918	6.371426	42221.125	-2.847564E-11	-3.511774E+10	19.385833	0.667789	0	0
0	0	0	-0.281828	6.371489	-27.290169	6.371489	42196.625	-2.584232E-11	-3.869622E+10	19.192905	0.668976	0	0
0	0	0	-0.283788	6.371307	-27.292119	6.371307	42163.125	-3.516191E-11	-2.843987E+10	19.440871	0.66391	0	0
0	0	0	-0.2824	6.371307	-27.290191	6.371307	42186.875	-3.518171E-11	-2.842386E+10	19.16156	0.666957	0	0
0	0	0	-0.282767	6.371622	-27.292037	6.371622	42180.625	-2.163319E-11	-4.622528E+10	19.493508	0.66027	0	0
0	0	0	-0.282971	6.371559	-27.292054	6.371559	42177.125	-2.343601E-11	-4.266937E+10	19.144426	0.665018	0	0
0	0	0	-0.283012	6.371391	-27.291398	6.371391	42176.375	-3.014106E-11	-3.317733E+10	19.483074	0.657896	0	0
0	0	0	-0.28387	6.371293	-27.292173	6.371293	42161.75	-3.616708E-11	-2.764946E+10	19.120759	0.662882	0	0
0	0	0	-0.284972	6.37144	-27.294327	6.37144	42142.875	-2.779736E-11	-3.597464E+10	19.458788	0.655284	0	0
0	0	0	-0.286197	6.371552	-27.296502	6.371552	42122	-2.362437E-11	-4.232917E+10	19.165659	0.659478	0	0
0	0	0	-0.286034	6.371496	-27.296038	6.371496	42124.75	-2.553739E-11	-3.915826E+10	19.431474	0.653305	0	0
0	0	0	-0.286401	6.371482	-27.296489	6.371482	42118.5	-2.606072E-11	-3.837192E+10	19.222586	0.656154	0	0
0	0	0	-0.28779	6.371377	-27.297971	6.371377	42094.75	-3.081753E-11	-3.244907E+10	19.33756	0.651999	0	0
0	0	0	-0.288321	6.371426	-27.298916	6.371426	42085.75	-2.838433E-11	-3.52307E+10	19.272805	0.652514	0	0
0	0	0	-0.288729	6.371349	-27.299156	6.371349	42078.75	-3.238803E-11	-3.08756E+10	19.254933	0.650733	0	0
0	0	0	-0.289628	6.37144	-27.300789	6.37144	42063.375	-2.774492E-11	-3.604263E+10	19.356715	0.64828	0	0
0	0	0	-0.292078	6.37151	-27.304487	6.37151	42021.625	-2.496982E-11	-4.004834E+10	19.195887	0.649111	0	0
0	0	0	-0.291302	6.371433	-27.303083	6.371433	42034.875	-2.80346E-11	-3.567021E+10	19.406239	0.644876	0	0
0	0	0	-0.291016	6.371293	-27.302093	6.371293	42039.75	-3.606242E-11	-2.772969E+10	19.112135	0.648082	0	0
0	0	0	-0.290608	6.371335	-27.301704	6.371335	42046.75	-3.321642E-11	-3.010559E+10	19.422101	0.641711	0	0
0	0	0	-0.292404	6.371398	-27.304466	6.371398	42016.125	-2.967279E-11	-3.370091E+10	19.07724	0.646182	0	0
0	0	0	-0.292731	6.371489	-27.305305	6.371489	42010.5	-2.572833E-11	-3.886766E+10	19.466879	0.638347	0	0
0	0	0	-0.291384	6.371412	-27.303108	6.371412	42033.5	-2.90017E-11	-3.448074E+10	19.093119	0.643491	0	0
0	0	0	-0.290689	6.37137	-27.301966	6.37137	42045.375	-3.116196E-11	-3.209041E+10	19.454754	0.635973	0	0
0	0	0	-0.290853	6.371363	-27.302163	6.371363	42042.5	-3.154991E-11	-3.169581E+10	19.101532	0.640998	0	0
0	0	0	-0.292119	6.371496	-27.304484	6.371496	42021	-2.54745E-11	-3.925495E+10	19.389108	0.634192	0	0
0	0	0	-0.292282	6.37165	-27.305364	6.37165	42018.25	-2.083681E-11	-4.7992E+10	19.137471	0.637754	0	0
0	0	0	-0.291833	6.371391	-27.303642	6.371391	42025.875	-3.003351E-11	-3.329615E+10	19.325462	0.632767	0	0
0	0	0	-0.290608	6.371377	-27.301882	6.371377	42046.75	-3.078239E-11	-3.248611E+10	19.219925	0.633955	0	0
0	0	0	-0.290199	6.371384	-27.301345	6.371384	42053.625	-3.041595E-11	-3.287749E+10	19.260061	0.631382	0	0
0	0	0	-0.290036	6.371251	-27.300554	6.371251	42056.5	-3.946535E-11	-2.533869E+10	19.277314	0.630433	0	0
0	0	0	-0.290281	6.371272	-27.300983	6.371272	42052.375	-3.769137E-11	-2.653127E+10	19.165123	0.630551	0	0
0	0	0	-0.287953	6.371202	-27.297455	6.371202	42092	-4.43596E-11	-2.254303E+10	19.343143	0.626792	0	0
0	0	0	-0.288402	6.371335	-27.298643	6.371335	42084.375	-3.324614E-11	-3.007868E+10	19.117331	0.62885	0	0
0	0	0	-0.287912	6.371286	-27.297755	6.371286	42092.75	-3.66321E-11	-2.729846E+10	19.405433	0.623191	0	0
0	0	0	-0.286401	6.371307	-27.295747	6.371307	42118.5	-3.512469E-11	-2.847E+10	19.083354	0.62699	0	0
0	0	0	-0.285217	6.37116	-27.293479	6.37116	42138.75	-4.964577E-11	-2.01427E+10	19.422757	0.620302	0	0
0	0	0	-0.285952	6.371398	-27.295509	6.371398	42126.125	-2.975047E-11	-3.361291E+10	19.041825	0.625447	0	0
0	0	0	-0.285707	6.371454	-27.295406	6.371454	42130.375	-2.719073E-11	-3.677725E+10	19.408527	0.618007	0	0
0	0	0	-0.285258	6.371307	-27.294159	6.371307	42138	-3.514095E-11	-2.845683E+10	19.064078	0.622795	0	0
0	0	0	-0.28534	6.37137	-27.29454	6.37137	42136.625	-3.122959E-11	-3.202091E+10	19.392723	0.615672	0	0
0	0	0	-0.282726	6.371398	-27.291031	6.371398	42181.25	-2.97894E-11	-3.356899E+10	19.105453	0.61959	0	0
0	0	0	-0.283584	6.371433	-27.292369	6.371433	42166.625	-2.812247E-11	-3.555875E+10	19.320422	0.614248	0	0
0	0	0	-0.283339	6.371188	-27.29099	6.371188	42170.875	-4.606236E-11	-2.17097E+10	19.155773	0.616662	0	0
0	0	0	-0.283788	6.371034	-27.290961	6.371034	42163.125	-7.686855E-11	-1.300922E+10	19.250986	0.613298	0	0
0	0	0	-0.285462	6.371251	-27.294205	6.371251	42134.5	-3.953854E-11	-2.529178E+10	19.230653	0.61314	0	0
0	0	0	-0.284727	6.371377	-27.293719	6.371377	42147.125	-3.085587E-11	-3.240874E+10	19.189447	0.611794	0	0
0	0	0	-0.283461	6.371384	-27.291992	6.371384	42168.75	-3.049922E-11	-3.278773E+10	19.296427	0.60942	0	0
0	0	0	-0.283216	6.371356	-27.291533	6.371356	42172.875	-3.204896E-11	-3.120226E+10	19.105511	0.610884	0	0
0	0	0	-0.283992	6.371209	-27.291986	6.371209	42159.625	-4.366323E-11	-2.290256E+10	19.329556	0.606294	0	0
0	0	0	-0.285217	6.371188	-27.293598	6.371188	42138.75	-4.602727E-11	-2.172625E+10	19.038328	0.60946	0	0
0	0	0	-0.285952	6.371216	-27.294737	6.371216	42126.125	-4.288757E-11	-2.331678E+10	19.376476	0.603128	0	0
0	0	0	-0.287872	6.371286	-27.297698	6.371286	42093.375	-3.663265E-11	-2.729806E+10	19.015293	0.607758	0	0
0	0	0	-0.28632	6.37151	-27.296494	6.37151	42119.875	-2.50282E-11	-3.995492E+10	19.400565	0.600437	0	0
0	0	0	-0.288321	6.371573	-27.299539	6.371573	42085.75	-2.295959E-11	-4.355479E+10	19.009195	0.605661	0	0
0	0	0	-0.287912	6.371272	-27.297696	6.371272	42092.75	-3.772756E-11	-2.650582E+10	19.377335	0.5983	0	0
0	0	0	-0.290036	6.371321	-27.300851	6.371321	42056.5	-3.412353E-11	-2.930529E+10	19.029719	0.603049	0	0
0	0	0	-0.289097	6.371174	-27.298924	6.371174	42072.5	-4.769299E-11	-2.096744E+10	19.32571	0.596638	0	0
0	0	0	-0.289587	6.371517	-27.301059	6.371517	42064.125	-2.474974E-11	-4.040447E+10	19.082489	0.599844	0	0
0	0	0	-0.290526	6.371461	-27.302125	6.371461	42048.125	-2.684857E-11	-3.724592E+10	19.268906	0.594937	0	0
0	0	0	-0.291996	6.3713	-27.303483	6.3713	42023	-3.553948E-11	-2.813772E+10	19.124231	0.596718	0	0
0	0	0	-0.29171	6.371573	-27.304244	6.371573	42027.875	-2.292802E-11	-4.361476E+10	19.178423	0.594106	0	0
0	0	0	-0.293344	6.37165	-27.306838	6.37165	42000.125	-2.082782E-11	-4.801271E+10	19.189256	0.593512	0	0
0	0	0	-0.293589	6.371377	-27.30602	6.371377	41996	-3.074523E-11	-3.252537E+10	19.099378	0.593037	0	0
0	0	0	-0.293915	6.371468	-27.30686	6.371468	41990.375	-2.652912E-11	-3.769443E+10	19.266364	0.589872	0	0
0	0	0	-0.294732	6.371377	-27.307608	6.371377	41976.5	-3.073096E-11	-3.254048E+10	19.04118	0.591771	0	0
0	0	0	-0.292527	6.37137	-27.304517	6.37137	42014	-3.113871E-11	-3.211437E+10	19.331745	0.586429	0	0
0	0	0	-0.293466	6.371671	-27.307097	6.371671	41998	-2.03224E-11	-4.920677E+10	18.989286	0.590663	0	0
0	0	0	-0.29465	6.371398	-27.307583	6.371398	41977.875	-2.964577E-11	-3.373162E+10	19.333815	0.583936	0	0
0	0	0	-0.294528	6.37158	-27.308185	6.37158	41980	-2.269535E-11	-4.406189E+10	18.949481	0.588843	0	0
0	0	0	-0.294855	6.371461	-27.308134	6.371461	41974.375	-2.680148E-11	-3.731137E+10	19.34595	0.581443	0	0
0	0	0	-0.294977	6.371482	-27.308393	6.371482	41972.25	-2.597023E-11	-3.850563E+10	18.967205	0.586389	0	0
0	0	0	-0.293752	6.371468	-27.306633	6.371468	41993.125	-2.653085E-11	-3.769197E+10	19.318603	0.579543	0	0
0	0	0	-0.293548	6.371223	-27.305311	6.371223	41996.625	-4.20417E-11	-2.378591E+10	19.00514	0.583738	0	0
0	0	0	-0.293385	6.371405	-27.305856	6.371405	41999.375	-2.931558E-11	-3.411156E+10	19.266067	0.577961	0	0
0	0	0	-0.291179	6.371559	-27.303448	6.371559	42037	-2.335815E-11	-4.281161E+10	19.0409	0.581047	0	0
0	0	0	-0.290649	6.371454	-27.302265	6.371454	42046	-2.713627E-11	-3.685105E+10	19.195685	0.576853	0	0
0	0	0	-0.290199	6.371426	-27.301523	6.371426	42053.625	-2.836267E-11	-3.525761E+10	19.110335	0.577684	0	0
0	0	0	-0.289301	6.371482	-27.300514	6.371482	42069	-2.603009E-11	-3.841707E+10	19.122729	0.575507	0	0
0	0	0	-0.289342	6.371321	-27.299887	6.371321	42068.25	-3.413306E-11	-2.929711E+10	19.173652	0.57436	0	0
0	0	0	-0.290281	6.371636	-27.302527	6.371636	42052.375	-2.120457E-11	-4.715965E+10	19.011563	0.575072	0	0
0	0	0	-0.28926	6.371342	-27.299863	6.371342	42069.75	-3.28023E-11	-3.048567E+10	19.21144	0.571233	0	0
0	0	0	-0.28828	6.371426	-27.298859	6.371426	42086.5	-2.838484E-11	-3.523007E+10	18.944516	0.573647	0	0
0	0	0	-0.286075	6.371223	-27.294937	6.371223	42124.125	-4.216934E-11	-2.371391E+10	19.259314	0.567949	0	0
0	0	0	-0.286606	6.371461	-27.296683	6.371461	42115	-2.689128E-11	-3.718678E+10	18.894005	0.572223	0	0
0	0	0	-0.286851	6.37137	-27.296637	6.37137	42110.75	-3.121041E-11	-3.204059E+10	19.276142	0.565456	0	0
0	0	0	-0.286647	6.371251	-27.295849	6.371251	42114.25	-3.951954E-11	-2.530394E+10	18.882849	0.570679	0	0
0	0	0	-0.286075	6.371412	-27.295738	6.371412	42124.125	-2.906423E-11	-3.440656E+10	19.258916	0.563477	0	0
0	0	0	-0.285013	6.371335	-27.293938	6.371335	42142.25	-3.329186E-11	-3.003737E+10	18.890705	0.568305	0	0
0	0	0	-0.285095	6.37144	-27.294497	6.37144	42140.875	-2.779604E-11	-3.597635E+10	19.245326	0.56134	0	0
0	0	0	-0.284605	6.371405	-27.293668	6.371405	42149.25	-2.942019E-11	-3.399026E+10	18.926197	0.565733	0	0
0	0	0	-0.285381	6.371307	-27.294329	6.371307	42135.875	-3.513918E-11	-2.845826E+10	19.195068	0.560074	0	0
0	0	0	-0.285789	6.371524	-27.295817	6.371524	42129	-2.454697E-11	-4.073823E+10	18.98504	0.563002	0	0
0	0	0	-0.286361	6.371293	-27.29563	6.371293	42119.125	-3.613051E-11	-2.767744E+10	19.119653	0.559164	0	0
0	0	0	-0.286647	6.371433	-27.296621	6.371433	42114.25	-2.808754E-11	-3.560298E+10	19.037305	0.559639	0	0
0	0	0	-0.286279	6.371391	-27.295933	6.371391	42120.625	-3.010122E-11	-3.322125E+10	19.045134	0.557937	0	0
0	0	0	-0.285626	6.371433	-27.295204	6.371433	42131.75	-2.809921E-11	-3.558819E+10	19.133322	0.556275	0	0
0	0	0	-0.286687	6.371349	-27.296321	6.371349	42113.625	-3.241488E-11	-3.085003E+10	18.968191	0.557225	0	0
0	0	0	-0.288239	6.3713	-27.298268	6.3713	42087.125	-3.559371E-11	-2.809485E+10	19.179193	0.553505	0	0
0	0	0	-0.287586	6.371258	-27.297183	6.371258	42098.25	-3.889564E-11	-2.570982E+10	18.90671	0.556275	0	0
0	0	0	-0.288484	6.371293	-27.298578	6.371293	42082.875	-3.609942E-11	-2.770128E+10	19.221696	0.550656	0	0
0	0	0	-0.28877	6.371167	-27.298441	6.371167	42078.125	-4.861878E-11	-2.056818E+10	18.871883	0.554811	0	0
0	0	0	-0.289954	6.371496	-27.30148	6.371496	42057.875	-2.549685E-11	-3.922053E+10	19.250392	0.547846	0	0
0	0	0	-0.290608	6.371391	-27.301942	6.371391	42046.75	-3.004842E-11	-3.327962E+10	18.853509	0.55307	0	0
0	0	0	-0.291833	6.371482	-27.304028	6.371482	42025.875	-2.600341E-11	-3.845649E+10	19.251184	0.545789	0	0
0	0	0	-0.292649	6.37116	-27.303796	6.37116	42011.875	-4.949629E-11	-2.020353E+10	18.846965	0.551091	0	0
0	0	0	-0.292119	6.371293	-27.303623	6.371293	42021	-3.604634E-11	-2.774207E+10	19.187767	0.544404	0	0
0	0	0	-0.291669	6.371454	-27.303683	6.371454	42028.625	-2.712506E-11	-3.686628E+10	18.88117	0.54848	0	0
0	0	0	-0.294528	6.371391	-27.307384	6.371391	41980	-3.000072E-11	-3.333253E+10	19.144119	0.542702	0	0
0	0	0	-0.29416	6.371496	-27.307319	6.371496	41986.25	-2.545343E-11	-3.928744E+10	18.943445	0.545472	0	0
0	0	0	-0.293548	6.371468	-27.30635	6.371468	41996.625	-2.653306E-11	-3.768883E+10	19.066158	0.54199	0	0
0	0	0	-0.294201	6.371496	-27.307375	6.371496	41985.5	-2.545298E-11	-3.928814E+10	18.994934	0.542742	0	0
0	0	0	-0.292404	6.371349	-27.304258	6.371349	42016.125	-3.233983E-11	-3.092162E+10	18.972608	0.541119	0	0
0	0	0	-0.295916	6.371517	-27.309845	6.371517	41956.375	-2.468634E-11	-4.050823E+10	19.064054	0.53922	0	0
0	0	0	-0.294814	6.371678	-27.308998	6.371678	41975.125	-2.014869E-11	-4.963102E+10	18.898737	0.54017	0	0
0	0	0	-0.29461	6.371573	-27.308269	6.371573	41978.625	-2.290115E-11	-4.366593E+10	19.133406	0.535975	0	0
0	0	0	-0.296202	6.37137	-27.309619	6.37137	41951.5	-3.109238E-11	-3.216222E+10	18.818602	0.539418	0	0
0	0	0	-0.29706	6.371531	-27.311492	6.371531	41936.875	-2.41998E-11	-4.132265E+10	19.132515	0.533917	0	0
0	0	0	-0.295671	6.37151	-27.309476	6.37151	41960.5	-2.49335E-11	-4.010668E+10	18.766384	0.538231	0	0
0	0	0	-0.29412	6.37144	-27.307025	6.37144	41986.875	-2.769446E-11	-3.61083E+10	19.162225	0.531424	0	0
0	0	0	-0.29367	6.371482	-27.306579	6.371482	41994.5	-2.5984E-11	-3.848523E+10	18.785037	0.536212	0	0
0	0	0	-0.294201	6.371454	-27.307197	6.371454	41985.5	-2.709722E-11	-3.690415E+10	19.195736	0.528931	0	0
0	0	0	-0.293344	6.371426	-27.305888	6.371426	42000.125	-2.832659E-11	-3.530253E+10	18.773338	0.534629	0	0
0	0	0	-0.291506	6.371398	-27.303218	6.371398	42031.375	-2.968355E-11	-3.368869E+10	19.145542	0.527467	0	0
0	0	0	-0.292527	6.37151	-27.305111	6.37151	42014	-2.496529E-11	-4.005561E+10	18.786378	0.532176	0	0
0	0	0	-0.291139	6.371405	-27.302738	6.371405	42037.625	-2.934228E-11	-3.408052E+10	19.076562	0.526201	0	0
0	0	0	-0.291506	6.371363	-27.30307	6.371363	42031.375	-3.154156E-11	-3.17042E+10	18.855259	0.529406	0	0
0	0	0	-0.290894	6.371426	-27.302487	6.371426	42041.875	-2.835474E-11	-3.526747E+10	19.033383	0.525053	0	0
0	0	0	-0.288035	6.371601	-27.299261	6.371601	42090.625	-2.215571E-11	-4.51351E+10	18.922264	0.526438	0	0
0	0	0	-0.287953	6.371405	-27.298316	6.371405	42092	-2.938023E-11	-3.403649E+10	18.947869	0.524578	0	0
0	0	0	-0.288117	6.371216	-27.297741	6.371216	42089.25	-4.285002E-11	-2.333721E+10	18.965066	0.523787	0	0
0	0	0	-0.288443	6.3713	-27.298551	6.3713	42083.625	-3.559075E-11	-2.809719E+10	18.859075	0.523708	0	0
0	0	0	-0.286932	6.371328	-27.296573	6.371328	42109.375	-3.371015E-11	-2.966466E+10	19.049939	0.520661	0	0
0	0	0	-0.287994	6.371293	-27.297898	6.371293	42091.25	-3.61066E-11	-2.769577E+10	18.826224	0.52256	0	0
0	0	0	-0.286524	6.371608	-27.297193	6.371608	42116.375	-2.197628E-11	-4.55036E+10	19.106454	0.517772	0	0
0	0	0	-0.28534	6.37151	-27.295134	6.37151	42136.625	-2.503816E-11	-3.993904E+10	18.742857	0.52165	0	0
0	0	0	-0.285666	6.371272	-27.294578	6.371272	42131	-3.776184E-11	-2.648176E+10	19.100476	0.515595	0	0
0	0	0	-0.286728	6.3713	-27.29617	6.3713	42112.875	-3.561549E-11	-2.807767E+10	18.709355	0.520265	0	0
0	0	0	-0.286851	6.371538	-27.29735	6.371538	42110.75	-2.406844E-11	-4.154818E+10	19.120278	0.513063	0	0
0	0	0	-0.288117	6.371419	-27.298602	6.371419	42089.25	-2.870971E-11	-3.483142E+10	18.738565	0.518207	0	0
0	0	0	-0.287382	6.371447	-27.297701	6.371447	42101.75	-2.746799E-11	-3.640602E+10	19.100303	0.511717	0	0
0	0	0	-0.288566	6.371363	-27.298988	6.371363	42081.5	-3.157918E-11	-3.166643E+10	18.724375	0.516189	0	0
0	0	0	-0.2873	6.371349	-27.297172	6.371349	42103.125	-3.240679E-11	-3.085773E+10	0	0	0	0
0	0	0	-0.287627	6.371447	-27.298041	6.371447	42097.5	-2.746522E-11	-3.640969E+10	0	0	0	0
0	0	0	-0.288076	6.37123	-27.297744	6.37123	42089.875	-4.144295E-11	-2.412956E+10	0	0	0	0
0	0	0	-0.28877	6.371363	-27.299272	6.371363	42078.125	-3.157665E-11	-3.166897E+10	0	0	0	0
0	0	0	-0.290158	6.371559	-27.302031	6.371559	42054.375	-2.336781E-11	-4.279392E+10	0	0	0	0
0	0	0	-0.289178	6.371384	-27.299928	6.371384	42071.125	-3.042861E-11	-3.286381E+10	0	0	0	0
0	0	0	-0.290526	6.371286	-27.301383	6.371286	42048.125	-3.659327E-11	-2.732743E+10	0	0	0	0
0	0	0	-0.291384	6.371419	-27.303137	6.371419	42033.5	-2.867168E-11	-3.487762E+10	0	0	0	0
0	0	0	-0.2922	6.371412	-27.304241	6.371412	42019.625	-2.899212E-11	-3.449213E+10	0	0	0	0
0	0	0	-0.292527	6.371293	-27.30419	6.371293	42014	-3.604034E-11	-2.774669E+10	0	0	0	0
0	0	0	-0.294201	6.371671	-27.308118	6.371671	41985.5	-2.031636E-11	-4.922142E+10	0	0	0	0
0	0	0	-0.293834	6.371405	-27.306479	6.371405	41991.75	-2.931026E-11	-3.411775E+10	0	0	0	0
0	0	0	-0.293793	6.371524	-27.306927	6.371524	41992.5	-2.446744E-11	-4.087065E+10	0	0	0	0
0	0	0	-0.296611	6.371412	-27.310364	6.371412	41944.5	-2.894029E-11	-3.45539E+10	0	0	0	0
0	0	0	-0.295712	6.371293	-27.308612	6.371293	41959.75	-3.59938E-11	-2.778256E+10	0	0	0	0
0	0	0	-0.293956	6.371349	-27.306412	6.371349	41989.75	-3.231953E-11	-3.094104E+10	0	0	0	0
0	0	0	-0.295386	6.371447	-27.308812	6.371447	41965.375	-2.737901E-11	-3.652432E+10	0	0	0	0
0	0	0	-0.295386	6.371545	-27.309227	6.371545	41965.375	-2.375882E-11	-4.208963E+10	0	0	0	0
0	0	0	-0.295345	6.371433	-27.308695	6.371433	41966	-2.798867E-11	-3.572875E+10	0	0	0	0
0	0	0	-0.295753	6.371503	-27.309559	6.371503	41959.125	-2.518231E-11	-3.971041E+10	0	0	0	0
0	0	0	-0.296366	6.371433	-27.310113	6.371433	41948.625	-2.797708E-11	-3.574355E+10	0	0	0	0
0	0	0	-0.296202	6.371594	-27.310569	6.371594	41951.5	-2.22781E-11	-4.488713E+10	0	0	0	0
0	0	0	-0.295671	6.371363	-27.308852	6.371363	41960.5	-3.148838E-11	-3.175775E+10	0	0	0	0
0	0	0	-0.295998	6.371391	-27.309424	6.371391	41954.875	-2.998277E-11	-3.335249E+10	0	0	0	0
0	0	0	-0.295467	6.371398	-27.308717	6.371398	41964	-2.963597E-11	-3.374278E+10	0	0	0	0
0	0	0	-0.293548	6.371594	-27.306884	6.371594	41996.625	-2.230206E-11	-4.48389E+10	0	0	0	0
0	0	0	-0.29318	6.371594	-27.306374	6.371594	42002.875	-2.230538E-11	-4.483223E+10	0	0	0	0
0	0	0	-0.292772	6.371335	-27.304709	6.371335	42009.875	-3.318729E-11	-3.013202E+10	0	0	0	0
0	0	0	-0.292813	6.371608	-27.305923	6.371608	42009.125	-2.192032E-11	-4.561977E+10	0	0	0	0
0	0	0	-0.292241	6.371622	-27.305189	6.371622	42018.875	-2.155023E-11	-4.640322E+10	0	0	0	0
0	0	0	-0.289913	6.37144	-27.301186	6.37144	42058.625	-2.774179E-11	-3.60467E+10	0	0	0	0
0	0	0	-0.291384	6.371384	-27.302989	6.371384	42033.5	-3.040139E-11	-3.289323E+10	0	0	0	0
0	0	0	-0.290444	6.37151	-27.30222	6.37151	42049.5	-2.498639E-11	-4.002179E+10	0	0	0	0
0	0	0	-0.289464	6.37137	-27.300265	6.37137	42066.25	-3.117743E-11	-3.207448E+10	0	0	0	0
0	0	0	-0.290036	6.371251	-27.300554	6.371251	42056.5	-3.946535E-11	-2.533869E+10	0	0	0	0
0	0	0	-0.287708	6.371356	-27.297768	6.371356	42096.125	-3.199064E-11	-3.125915E+10	0	0	0	0
0	0	0	-0.288035	6.371489	-27.298786	6.371489	42090.625	-2.57774E-11	-3.879367E+10	0	0	0	0
0	0	0	-0.288893	6.371412	-27.29965	6.371412	42076	-2.903102E-11	-3.444591E+10	0	0	0	0
0	0	0	-0.287463	6.371447	-27.297814	6.371447	42100.375	-2.746709E-11	-3.64072E+10	0	0	0	0
0	0	0	-0.287749	6.371328	-27.297706	6.371328	42095.5	-3.369904E-11	-2.967444E+10	0	0	0	0
0	0	0	-0.286483	6.371209	-27.295444	6.371209	42117.125	-4.361922E-11	-2.292567E+10	0	0	0	0
0	0	0	-0.287055	6.371461	-27.297307	6.371461	42107.375	-2.688641E-11	-3.719352E+10	0	0	0	0
0	0	0	-0.287872	6.37144	-27.298351	6.37144	42093.375	-2.776471E-11	-3.601695E+10	0	0	0	0
0	0	0	-0.287341	6.371447	-27.297644	6.371447	42102.5	-2.746848E-11	-3.640537E+10	0	0	0	0
0	0	0	-0.287055	6.371468	-27.297336	6.371468	42107.375	-2.660303E-11	-3.75897E+10	0	0	0	0
0	0	0	-0.2873	6.371398	-27.29738	6.371398	42103.125	-2.973423E-11	-3.363128E+10	0	0	0	0
0	0	0	-0.287055	6.371307	-27.296654	6.371307	42107.375	-3.511541E-11	-2.847752E+10	0	0	0	0
0	0	0	-0.289342	6.37151	-27.300689	6.37151	42068.25	-2.499753E-11	-4.000396E+10	0	0	0	0
0	0	0	-0.288198	6.371153	-27.297588	6.371153	42087.875	-5.057993E-11	-1.977069E+10	0	0	0	0
0	0	0	-0.290526	6.371307	-27.301472	6.371307	42048.125	-3.5066E-11	-2.851765E+10	0	0	0	0
0	0	0	-0.289342	6.371419	-27.300303	6.371419	42068.25	-2.869539E-11	-3.484881E+10	0	0	0	0
0	0	0	-0.291465	6.371272	-27.302627	6.371272	42032.125	-3.767322E-11	-2.654405E+10	0	0	0	0
0	0	0	-0.291669	6.371468	-27.303742	6.371468	42028.625	-2.655328E-11	-3.766013E+10	0	0	0	0
0	0	0	-0.29269	6.37144	-27.30504	6.37144	42011.25	-2.771054E-11	-3.608735E+10	0	0	0	0
0	0	0	-0.293385	6.371286	-27.305351	6.371286	41999.375	-3.655084E-11	-2.735915E+10	0	0	0	0
0	0	0	-0.292527	6.371265	-27.304071	6.371265	42014	-3.822858E-11	-2.615844E+10	0	0	0	0
0	0	0	-0.295712	6.37151	-27.309532	6.37151	41959.75	-2.493306E-11	-4.01074E+10	0	0	0	0
0	0	0	-0.295181	6.371342	-27.308083	6.371342	41968.875	-3.272364E-11	-3.055895E+10	0	0	0	0
0	0	0	-0.295181	6.371363	-27.308172	6.371363	41968.875	-3.149466E-11	-3.175141E+10	0	0	0	0
0	0	0	-0.296447	6.371461	-27.310345	6.371461	41947.25	-2.678416E-11	-3.733549E+10	0	0	0	0
0	0	0	-0.29706	6.371447	-27.311136	6.371447	41936.875	-2.736042E-11	-3.654915E+10	0	0	0	0
0	0	0	-0.296406	6.371524	-27.310555	6.371524	41948	-2.444151E-11	-4.091401E+10	0	0	0	0
0	0	0	-0.295753	6.371377	-27.309025	6.371377	41959.125	-3.071824E-11	-3.255395E+10	0	0	0	0
0	0	0	-0.295712	6.371426	-27.309176	6.371426	41959.75	-2.829935E-11	-3.533649E+10	0	0	0	0
0	0	0	-0.297591	6.371419	-27.311754	6.371419	41927.875	-2.859963E-11	-3.496548E+10	0	0	0	0
0	0	0	-0.295467	6.371349	-27.308509	6.371349	41964	-3.229971E-11	-3.096003E+10	0	0	0	0
0	0	0	-0.296937	6.371244	-27.310105	6.371244	41939	-3.998096E-11	-2.501191E+10	0	0	0	0
0	0	0	-0.295631	6.371657	-27.310042	6.371657	41961.25	-2.063781E-11	-4.845475E+10	0	0	0	0
0	0	0	-0.295916	6.371468	-27.309638	6.371468	41956.375	-2.650763E-11	-3.772498E+10	0	0	0	0
0	0	0	-0.295712	6.371531	-27.309621	6.371531	41959.75	-2.4213E-11	-4.130012E+10	0	0	0	0
0	0	0	-0.296692	6.371454	-27.310655	6.371454	41943.125	-2.706988E-11	-3.694143E+10	0	0	0	0
0	0	0	-0.296488	6.371461	-27.310401	6.371461	41946.625	-2.678377E-11	-3.733605E+10	0	0	0	0
0	0	0	-0.295386	0	-0.295386	0	41965.375	0	0	0	0	0	0
0	0	0	-0.29416	0	-0.29416	0	41986.25	0	0	0	0	0	0
