Vload_(V)	ILoad_(A)	RsLoad (ohm)	SunsVoc_Voltage_(V)	SunsVoc_Current_(A)	Model_Voltage_(V)	Model_Current_(A)	Carrier_Density_(cm-3)	Lifetime_(s)	Inverse_Lifetime_(s-1)	Efficiency_(%)	Intensity_(suns)	Dark_IV_Voltage_(V)	Dark_IV_Current_(A)
2.797364	6.051386	0	52.031681	-0.021409	52.04203	-0.021409	7.837583E+15	0.000574	1639.830662	19.755805	1.094965	0	0
2.79763	6.051832	2.132628	52.660401	-0.379139	52.826305	-0.379139	9.782257E+15	0.000677	1318.894556	20.037	1.088238	0	0
3.168778	6.04964	4.091973	52.826401	-0.288528	52.949164	-0.288528	1.035844E+16	0.000727	1197.767975	19.757624	1.094926	0	0
6.469785	6.044389	4.599433	52.812762	0.014766	52.806465	0.014766	1.031004E+16	0.00076	1139.757558	19.892075	1.090929	0	0
10.511837	6.023806	4.861709	52.728149	0.372859	52.566834	0.372859	1.001405E+16	0.000784	1108.261749	19.827	1.092235	0	0
13.968882	6.024562	4.271875	52.625445	0.727333	52.305323	0.727333	9.664436E+15	0.000807	1083.344896	19.739163	1.09263	0	0
17.608767	6.022353	3.713774	52.507059	1.077396	52.023563	1.077396	9.274239E+15	0.000829	1062.863386	19.890399	1.088832	0	0
21.225941	6.012713	3.274408	52.387	1.396309	51.748162	1.396309	8.892124E+15	0.00085	1045.572722	19.603566	1.09362	0	0
24.825847	6.007244	2.747727	52.268329	1.685651	51.482525	1.685651	8.527487E+15	0.000869	1030.163301	19.891842	1.086101	0	0
28.376622	6.003442	2.200115	52.145778	1.954368	51.217241	1.954368	8.164147E+15	0.000886	1017.459333	19.519122	1.092551	0	0
32.000396	6.000065	1.632292	52.027352	2.196091	50.965006	2.196091	7.825411E+15	0.000903	1005.843181	19.803381	1.084597	0	0
35.601165	5.983773	1.171182	51.90815	2.420053	50.716427	2.420053	7.496374E+15	0.000918	995.662224	19.484566	1.090375	0	0
36.656848	5.963377	1.123391	51.78809	2.635975	50.466962	2.635975	7.176699E+15	0.000935	984.320331	19.649702	1.084795	0	0
37.708066	5.938501	1.06378	51.668684	2.846907	50.217051	2.846907	6.87009E+15	0.000954	970.195725	19.503253	1.087288	0	0
38.768798	5.901384	1.016067	51.538089	3.046896	49.955465	3.046896	6.54729E+15	0.000969	960.41637	19.46823	1.086299	0	0
39.849538	5.849426	0.968675	51.409331	3.229006	49.701799	3.229006	6.241457E+15	0.000984	951.866485	19.545917	1.084004	0	0
40.913882	5.785652	0.911812	51.285678	3.400668	49.456706	3.400668	5.958995E+15	0.001	941.013666	19.306761	1.088001	0	0
41.96292	5.695763	0.864376	51.167701	3.558898	49.223011	3.558898	5.699458E+15	0.001017	929.162638	19.567382	1.08155	0	0
43.017517	5.580565	0.810813	51.040781	3.711625	48.978285	3.711625	5.430776E+15	0.001033	919.545256	19.218067	1.088752	0	0
44.063918	5.431907	0.755778	50.914024	3.850859	48.738564	3.850859	5.172999E+15	0.001046	911.838959	19.535079	1.080363	0	0
45.089952	5.219397	0.716805	50.795434	3.974542	48.515733	3.974542	4.941091E+15	0.001058	904.344176	19.20219	1.087526	0	0
46.106425	4.920946	0.689271	50.674558	4.091902	48.291475	4.091902	4.713647E+15	0.00107	897.611667	19.441793	1.081076	0	0
47.089787	4.552865	0.661261	50.558419	4.199456	48.077132	4.199456	4.503362E+15	0.001082	890.776611	19.259589	1.084716	0	0
48.061976	4.061385	0.647132	50.43938	4.303181	47.859454	4.303181	4.295966E+15	0.001093	884.158633	19.332091	1.08159	0	0
48.968118	3.4956	0.638197	50.319647	4.399386	47.643631	4.399386	4.095427E+15	0.001103	878.939424	19.359121	1.080601	0	0
49.862136	2.838583	0.631973	50.203222	4.488606	47.434829	4.488606	3.907955E+15	0.001112	873.607596	19.221155	1.082184	0	0
50.699687	2.118777	0.652845	50.082836	4.57508	47.220946	4.57508	3.721677E+15	0.001121	868.729959	19.427037	1.076881	0	0
51.446724	1.404693	0.66134	49.966493	4.654361	47.015523	4.654361	3.54875E+15	0.00113	864.048511	19.123456	1.082342	0	0
52.089225	0.7413	0.620458	49.84582	4.731282	46.804449	4.731282	3.376536E+15	0.001138	859.952713	19.44864	1.07328	0	0
42.777091	5.603594	0.829588	49.725679	4.802184	46.596659	4.802184	3.212087E+15	0.001144	857.126074	19.114439	1.079374	0	0
52.622783	0	0	49.611173	4.866748	46.399449	4.866748	3.061662E+15	0.00115	854.241375	19.401185	1.071064	0	0
0	0	0	49.492339	4.929609	46.196413	4.929609	2.911862E+15	0.001155	851.944574	19.156986	1.075298	0	0
0	0	0	49.378119	4.987101	46.002217	4.987101	2.773753E+15	0.001159	849.774283	19.28987	1.070352	0	0
0	0	0	49.261816	5.04337	45.805052	5.04337	2.63886E+15	0.001165	847.142927	19.233369	1.070549	0	0
0	0	0	49.143758	5.096412	45.606764	5.096412	2.507664E+15	0.001168	845.641011	19.144544	1.070312	0	0
0	0	0	49.029701	5.145625	45.415757	5.145625	2.386228E+15	0.001172	843.832201	19.301093	1.065484	0	0
0	0	0	48.912337	5.192973	45.220695	5.192973	2.266546E+15	0.001175	842.852012	19.035464	1.069441	0	0
0	0	0	48.800159	5.235424	45.035513	5.235424	2.156997E+15	0.001176	842.65534	19.327906	1.061527	0	0
0	0	0	48.682999	5.277588	44.842946	5.277588	2.047471E+15	0.001177	842.61624	18.98056	1.068096	0	0
0	0	0	48.567635	5.315952	44.654948	5.315952	1.944346E+15	0.001176	844.004063	19.286352	1.059825	0	0
0	0	0	48.455988	5.352375	44.472918	5.352375	1.848855E+15	0.001177	844.235625	18.980799	1.065603	0	0
0	0	0	48.337725	5.387674	44.281925	5.387674	1.752177E+15	0.001174	846.421277	19.201097	1.058797	0	0
0	0	0	48.227589	5.419421	44.104365	5.419421	1.666137E+15	0.001173	848.048435	19.073639	1.060894	0	0
0	0	0	48.111491	5.451059	43.918048	5.451059	1.579466E+15	0.00117	850.274467	19.098446	1.058638	0	0
0	0	0	47.999762	5.480157	43.739286	5.480157	1.499825E+15	0.001168	852.438688	19.174119	1.056343	0	0
0	0	0	47.885909	5.507415	43.558518	5.507415	1.422336E+15	0.001163	856.378283	18.99653	1.058757	0	0
0	0	0	47.771771	5.533147	43.378109	5.533147	1.348233E+15	0.001157	861.068425	19.248808	1.05203	0	0
0	0	0	47.660655	5.557389	43.202714	5.557389	1.279411E+15	0.001152	865.255199	18.933459	1.057491	0	0
0	0	0	47.547864	5.581425	43.024736	5.581425	1.212776E+15	0.001148	868.667775	19.283852	1.047519	0	0
0	0	0	47.432909	5.604587	42.844031	5.604587	1.148079E+15	0.001143	872.658967	18.957424	1.053573	0	0
0	0	0	47.318199	5.625377	42.665244	5.625377	1.086633E+15	0.001135	879.348685	19.224532	1.045619	0	0
0	0	0	47.206348	5.645472	42.490725	5.645472	1.029593E+15	0.001128	884.497011	19.018986	1.048943	0	0
0	0	0	47.094986	5.664057	42.317846	5.664057	9.755141E+14	0.00112	890.982315	19.1191	1.044392	0	0
0	0	0	46.984401	5.68214	42.146188	5.68214	9.243818E+14	0.001114	896.540155	19.112054	1.043047	0	0
0	0	0	46.868425	5.699489	41.96724	5.699489	8.733969E+14	0.001104	904.457908	18.994643	1.043245	0	0
0	0	0	46.762005	5.71514	41.80301	5.71514	8.288939E+14	0.001097	910.764666	19.19561	1.03727	0	0
0	0	0	46.647417	5.730811	41.626939	5.730811	7.833145E+14	0.001087	918.974578	18.906932	1.041464	0	0
0	0	0	46.537118	5.745491	41.457569	5.745491	7.416362E+14	0.001079	926.287351	19.216602	1.032877	0	0
0	0	0	46.426491	5.759196	41.288366	5.759196	7.019052E+14	0.001069	934.970935	18.865741	1.039011	0	0
0	0	0	46.314885	5.7727	41.117732	5.7727	6.638334E+14	0.00106	942.997105	19.177185	1.029988	0	0
0	0	0	46.201686	5.785119	40.9456	5.785119	6.271913E+14	0.001048	953.701184	18.893878	1.034658	0	0
0	0	0	46.096082	5.796975	40.784583	5.796975	5.947207E+14	0.00104	961.056219	19.087453	1.027931	0	0
0	0	0	45.979943	5.808176	40.608993	5.808176	5.608337E+14	0.001026	974.330868	18.991234	1.028999	0	0
0	0	0	45.874462	5.819002	40.448742	5.819002	5.31638E+14	0.001018	982.139952	18.9754	1.0271	0	0
0	0	0	45.757915	5.829468	40.272893	5.829468	5.010481E+14	0.001004	995.226109	19.076916	1.023934	0	0
0	0	0	45.649657	5.839089	40.109488	5.839089	4.741317E+14	0.000993	1006.176795	18.87487	1.02615	0	0
0	0	0	45.536703	5.848298	39.939627	5.848298	4.475121E+14	0.00098	1019.832919	19.15384	1.018275	0	0
0	0	0	45.424933	5.857343	39.771462	5.857343	4.225742E+14	0.000969	1031.958133	18.829591	1.023815	0	0
0	0	0	45.312224	5.865613	39.602563	5.865613	3.98771E+14	0.000955	1046.98706	19.175745	1.014199	0	0
0	0	0	45.201271	5.873795	39.436121	5.873795	3.765931E+14	0.000943	1059.844714	18.855193	1.020016	0	0
0	0	0	45.085459	5.881852	39.262728	5.881852	3.547054E+14	0.000931	1074.22512	19.117542	1.011864	0	0
0	0	0	44.974996	5.889054	39.0977	5.889054	3.349697E+14	0.000918	1089.219796	18.929984	1.014516	0	0
0	0	0	44.859918	5.896105	38.926109	5.896105	3.15534E+14	0.000904	1106.112549	19.000581	1.010559	0	0
0	0	0	44.747127	5.902577	38.758258	5.902577	2.975414E+14	0.000889	1124.131895	19.032776	1.008066	0	0
0	0	0	44.633765	5.909203	38.589324	5.909203	2.804575E+14	0.000877	1139.519138	18.897962	1.008422	0	0
0	0	0	44.517217	5.915468	38.416094	5.915468	2.638839E+14	0.000864	1157.739585	19.121488	1.002051	0	0
0	0	0	44.407939	5.921209	38.253711	5.921209	2.492085E+14	0.000852	1174.150425	18.819948	1.006601	0	0
0	0	0	44.289063	5.927128	38.077305	5.927128	2.341438E+14	0.000838	1192.8892	19.138584	0.9975	0	0
0	0	0	44.176599	5.932276	37.910795	5.932276	2.207087E+14	0.000824	1213.079615	18.791805	1.003238	0	0
0	0	0	44.062216	5.937389	37.741489	5.937389	2.078151E+14	0.000811	1233.049781	19.111425	0.99382	0	0
0	0	0	43.944321	5.942467	37.5671	5.942467	1.952948E+14	0.000798	1253.662171	18.84855	0.997975	0	0
0	0	0	43.831939	5.94671	37.401432	5.94671	1.840472E+14	0.000782	1278.464563	19.020274	0.991762	0	0
0	0	0	43.71633	5.951341	37.230645	5.951341	1.73138E+14	0.00077	1298.902104	18.937137	0.992356	0	0
0	0	0	43.60015	5.95541	37.059577	5.95541	1.628132E+14	0.000755	1325.099446	18.89702	0.990931	0	0
0	0	0	43.482745	5.959391	36.88678	5.959391	1.529932E+14	0.00074	1351.663312	19.037714	0.98638	0	0
0	0	0	43.363625	5.963363	36.711465	5.963363	1.436242E+14	0.000726	1377.688166	18.810231	0.989032	0	0
0	0	0	43.247894	5.967152	36.541149	5.967152	1.350623E+14	0.000713	1401.94807	19.107746	0.98088	0	0
0	0	0	43.125588	5.970575	36.361748	5.970575	1.265595E+14	0.000697	1435.358209	18.78236	0.986301	0	0
0	0	0	43.008877	5.973999	36.190315	5.973999	1.189378E+14	0.000684	1462.61663	19.128768	0.976962	0	0
0	0	0	42.88796	5.977245	36.01299	5.977245	1.115184E+14	0.000669	1494.49762	18.814737	0.981988	0	0
0	0	0	42.766267	5.980252	35.83477	5.980252	1.045126E+14	0.000654	1530.00169	19.062978	0.974153	0	0
0	0	0	42.645758	5.9832	35.658267	5.9832	9.800335E+13	0.000639	1564.008788	18.886061	0.976606	0	0
0	0	0	42.520186	5.985683	35.474985	5.985683	9.16466E+13	0.000621	1611.580565	18.968112	0.972372	0	0
0	0	0	42.39837	5.988431	35.296742	5.988431	8.587001E+13	0.000607	1648.077065	18.999327	0.970433	0	0
0	0	0	42.278882	5.991329	35.121614	5.991329	8.055408E+13	0.000597	1675.961555	18.871469	0.970829	0	0
0	0	0	42.140569	5.993867	34.919816	5.993867	7.480633E+13	0.000579	1728.472979	19.095444	0.964339	0	0
0	0	0	42.01079	5.996506	34.730109	5.996506	6.978344E+13	0.000566	1767.85787	18.792457	0.96889	0	0
0	0	0	41.883339	5.998522	34.544463	5.998522	6.517629E+13	0.000548	1823.312061	19.134085	0.959274	0	0
0	0	0	41.760829	6.000882	34.365456	6.000882	6.103249E+13	0.000538	1860.167883	18.795369	0.964932	0	0
0	0	0	41.629866	6.002997	34.174559	6.002997	5.689157E+13	0.000523	1911.977724	19.147259	0.955593	0	0
0	0	0	41.495269	6.00487	33.978699	6.00487	5.292632E+13	0.000506	1975.697789	18.881554	0.960223	0	0
0	0	0	41.368145	6.006673	33.793637	6.006673	4.943374E+13	0.000492	2033.294922	19.08064	0.953734	0	0
0	0	0	41.238611	6.008813	33.604648	6.008813	4.611052E+13	0.000482	2075.514059	18.994833	0.954248	0	0
0	0	0	41.10822	6.010508	33.414954	6.010508	4.298966E+13	0.000468	2137.545924	18.991798	0.951913	0	0
0	0	0	40.973786	6.012122	33.219518	6.012122	3.999189E+13	0.000453	2207.062688	19.109889	0.947956	0	0
0	0	0	40.842986	6.01368	33.029351	6.01368	3.727498E+13	0.00044	2273.974369	18.896617	0.95033	0	0
0	0	0	40.706429	6.015224	32.830888	6.015224	3.463433E+13	0.000426	2347.125986	19.180053	0.942772	0	0
0	0	0	40.574363	6.016831	32.638775	6.016831	3.225789E+13	0.000415	2408.04244	18.834784	0.948233	0	0
0	0	0	40.432864	6.018221	32.433346	6.018221	2.989164E+13	0.000401	2494.140741	19.180899	0.938815	0	0
0	0	0	40.293448	6.019551	32.230966	6.019551	2.772945E+13	0.000387	2580.787445	18.849492	0.944276	0	0
0	0	0	40.15346	6.02069	32.027993	6.02069	2.571521E+13	0.000373	2683.336545	19.124324	0.936164	0	0
0	0	0	40.014126	6.021995	31.825713	6.021995	2.385523E+13	0.000361	2769.61912	18.930212	0.938934	0	0
0	0	0	39.87083	6.02328	31.617732	6.02328	2.208219E+13	0.00035	2861.176567	19.027452	0.934581	0	0
0	0	0	39.727167	6.024378	31.409453	6.024378	2.043654E+13	0.000337	2970.752245	19.04048	0.932721	0	0
0	0	0	39.581299	6.025706	31.197658	6.025706	1.889075E+13	0.000327	3055.906636	18.897133	0.933552	0	0
0	0	0	39.433961	6.026588	30.984343	6.026588	1.744778E+13	0.000313	3195.002603	19.123249	0.927023	0	0
0	0	0	39.284662	6.027756	30.767783	6.027756	1.609777E+13	0.000303	3299.741796	18.813281	0.931178	0	0
0	0	0	39.135486	6.028854	30.551473	6.028854	1.4853E+13	0.000293	3410.072348	19.151973	0.921918	0	0
0	0	0	38.981736	6.029806	30.328765	6.029806	1.367052E+13	0.000282	3548.496428	18.788093	0.927933	0	0
0	0	0	38.828027	6.030543	30.106406	6.030543	1.258231E+13	0.000269	3723.767831	19.125286	0.918436	0	0
0	0	0	38.669377	6.031157	29.877095	6.031157	1.154975E+13	0.000254	3937.191805	18.822343	0.923501	0	0
0	0	0	38.512401	6.032168	29.649597	6.032168	1.061139E+13	0.000246	4071.277153	19.026668	0.916576	0	0
0	0	0	38.348156	6.033053	29.411796	6.033053	9.710989E+12	0.000236	4243.901576	18.907338	0.917328	0	0
0	0	0	38.187424	6.03389	29.179101	6.03389	8.903768E+12	0.000226	4417.149736	18.916237	0.914993	0	0
0	0	0	38.016523	6.034658	28.931849	6.034658	8.118873E+12	0.000216	4631.687508	19.021939	0.911313	0	0
0	0	0	37.846887	6.035157	28.686808	6.035157	7.408166E+12	0.000203	4924.496856	18.824849	0.913449	0	0
0	0	0	37.677089	6.036048	28.440921	6.036048	6.759021E+12	0.000196	5101.231783	19.098207	0.905852	0	0
0	0	0	37.500879	6.036595	28.186308	6.036595	6.145393E+12	0.000185	5410.37973	18.743996	0.911629	0	0
0	0	0	37.326548	6.037335	27.934086	6.037335	5.593106E+12	0.000177	5647.117938	19.110864	0.901538	0	0
0	0	0	37.144253	6.038115	27.670314	6.038115	5.06857E+12	0.00017	5885.535336	18.769549	0.907158	0	0
0	0	0	36.958855	6.038718	27.402331	6.038718	4.585501E+12	0.000161	6210.037325	19.072913	0.898689	0	0
0	0	0	36.774028	6.039095	27.135516	6.039095	4.149729E+12	0.00015	6658.093189	18.843534	0.902369	0	0
0	0	0	36.584873	6.039604	26.862243	6.039604	3.746576E+12	0.000141	7069.346904	18.971316	0.897304	0	0
0	0	0	36.390001	6.040143	26.580671	6.040143	3.372139E+12	0.000133	7494.435441	18.931633	0.89675	0	0
0	0	0	36.193373	6.040513	26.296833	6.040513	3.032231E+12	0.000124	8060.700857	18.845459	0.896275	0	0
0	0	0	35.991436	6.041061	26.005042	6.041061	2.718762E+12	0.000117	8537.052494	19.041799	0.890537	0	0
0	0	0	35.7866	6.041707	25.708895	6.041707	2.433872E+12	0.000112	8939.694078	18.76756	0.894059	0	0
0	0	0	35.576087	6.042006	25.405135	6.042006	2.172153E+12	0.000103	9707.628838	19.091631	0.885551	0	0
0	0	0	35.360633	6.042468	25.09397	6.042468	1.9334E+12	9.64436E-5	10368.754465	18.723097	0.891725	0	0
0	0	0	35.142484	6.042961	24.778855	6.042961	1.718379E+12	9.073763E-5	11020.785785	19.076581	0.882227	0	0
0	0	0	34.921844	6.043512	24.460035	6.043512	1.525212E+12	8.617455E-5	11604.354021	18.746933	0.88749	0	0
0	0	0	34.696345	6.043909	24.134466	6.043909	1.350204E+12	8.033308E-5	12448.172468	19.020338	0.879457	0	0
0	0	0	34.46525	6.044057	23.801261	6.044057	1.191665E+12	7.233729E-5	13824.129374	18.843997	0.881871	0	0
0	0	0	34.233258	6.044482	23.466265	6.044482	1.051229E+12	6.773924E-5	14762.49143	18.910367	0.878191	0	0
0	0	0	33.997385	6.04464	23.126145	6.04464	9.253978E+11	6.102456E-5	16386.846034	18.951165	0.876173	0	0
0	0	0	33.758042	6.045235	22.780225	6.045235	8.131003E+11	5.880225E-5	17006.152243	18.790309	0.877043	0	0
0	0	0	33.513676	6.045289	22.428037	6.045289	7.124917E+11	5.19889E-5	19234.876834	19.022861	0.870395	0	0
0	0	0	33.262817	6.045789	22.065668	6.045789	6.221436E+11	4.944962E-5	20222.601284	18.708043	0.874946	0	0
0	0	0	33.013224	6.046354	21.704983	6.046354	5.436231E+11	4.805637E-5	20808.894909	19.069289	0.865647	0	0
0	0	0	32.752727	6.046186	21.329949	6.046186	4.722207E+11	4.040144E-5	24751.591057	18.702555	0.871543	0	0
0	0	0	32.491536	6.046523	20.95296	6.046523	4.100423E+11	3.751021E-5	26659.409786	19.042941	0.862837	0	0
0	0	0	32.230999	6.046639	20.577325	6.046639	3.561764E+11	3.3377E-5	29960.747424	18.758035	0.867269	0	0
0	0	0	31.966623	6.047212	20.195263	6.047212	3.087452E+11	3.290616E-5	30389.446012	18.948162	0.860898	0	0
0	0	0	31.705473	6.047279	19.818825	6.047279	2.680971E+11	2.903804E-5	34437.585488	18.847575	0.861808	0	0
0	0	0	31.441138	6.047471	19.437544	6.047471	2.323999E+11	2.640874E-5	37866.257932	18.838446	0.859474	0	0
0	0	0	31.177619	6.047689	19.057381	6.047689	2.015447E+11	2.425438E-5	41229.671753	18.973583	0.855358	0	0
0	0	0	30.903238	6.047741	18.661894	6.047741	1.737626E+11	2.120679E-5	47154.714606	18.74093	0.858247	0	0
0	0	0	30.637147	6.048164	18.277591	6.048164	1.50483E+11	2.077745E-5	48129.097814	19.018458	0.850847	0	0
0	0	0	30.366645	6.04834	17.887425	6.04834	1.300118E+11	1.899189E-5	52654.063541	18.663235	0.856387	0	0
0	0	0	30.09353	6.048503	17.493515	6.048503	1.121668E+11	1.731058E-5	57768.134114	19.04008	0.846573	0	0
0	0	0	29.821518	6.048699	17.101118	6.048699	9.682882E+10	1.603134E-5	62377.798174	18.680095	0.852469	0	0
0	0	0	29.547627	6.048788	16.706232	6.048788	8.350334E+10	1.429766E-5	69941.512401	19.012527	0.843407	0	0
0	0	0	29.272592	6.04879	16.309882	6.04879	7.196719E+10	1.233232E-5	81087.744597	18.751934	0.847721	0	0
0	0	0	28.994536	6.049257	15.908169	6.049257	6.192352E+10	1.294177E-5	77269.16278	18.89583	0.842339	0	0
0	0	0	28.715418	6.049252	15.50594	6.049252	5.325096E+10	1.110286E-5	90066.873952	18.84175	0.842062	0	0
0	0	0	28.43144	6.049154	15.096913	6.049154	4.567287E+10	9.103129E-6	109852.343171	18.759127	0.84131	0	0
0	0	0	28.152935	6.049587	14.694592	6.049587	3.928925E+10	9.718573E-6	102895.765698	18.938296	0.836324	0	0
0	0	0	27.871244	6.049795	14.288172	6.049795	3.373971E+10	9.432809E-6	106012.955056	18.681354	0.839688	0	0
0	0	0	27.586368	6.049815	13.877575	6.049815	2.892418E+10	8.19388E-6	122042.306709	19.020019	0.831298	0	0
0	0	0	27.303003	6.049849	13.469125	6.049849	2.481622E+10	7.185808E-6	139163.185336	18.638798	0.837551	0	0
0	0	0	27.018494	6.049863	13.059071	6.049863	2.127853E+10	6.217965E-6	160824.328172	19.005251	0.828291	0	0
0	0	0	26.730923	6.050489	12.643179	6.050489	1.821497E+10	9.038746E-6	110634.818262	18.660672	0.83391	0	0
0	0	0	26.44278	6.050337	12.228265	6.050337	1.558767E+10	6.610517E-6	151274.092773	18.946215	0.826075	0	0
0	0	0	26.153371	6.050364	11.811107	6.050364	1.33302E+10	5.802764E-6	172331.659508	18.757873	0.828726	0	0
0	0	0	25.864411	6.050484	11.394373	6.050484	1.140243E+10	5.624677E-6	177787.981062	18.841915	0.824967	0	0
0	0	0	25.573696	6.050651	10.974991	6.050651	9.744197E+9	5.896028E-6	169605.713566	18.865571	0.823147	0	0
0	0	0	25.281632	6.050544	10.554323	6.050544	8.321053E+9	4.39962E-6	227292.379547	18.712896	0.824136	0	0
0	0	0	24.993612	6.050664	10.138932	6.050664	7.121306E+9	4.391384E-6	227718.648259	18.948977	0.817844	0	0
0	0	0	24.704693	6.050891	9.721977	6.050891	6.091581E+9	5.474065E-6	182679.615302	18.638229	0.822316	0	0
0	0	0	24.410833	6.050705	9.298921	6.050705	5.196852E+9	3.394157E-6	294623.932671	18.995626	0.813531	0	0
0	0	0	24.116932	6.051091	8.874373	6.051091	4.433443E+9	6.681695E-6	149662.617198	18.626312	0.819308	0	0
0	0	0	23.821234	6.051024	8.448369	6.051024	3.778506E+9	4.648912E-6	215104.077756	18.974711	0.810523	0	0
0	0	0	23.527333	6.050885	8.025144	6.050885	3.223449E+9	2.861383E-6	349481.316181	18.642862	0.815865	0	0
0	0	0	23.220936	6.051131	7.582919	6.051131	2.731416E+9	4.76656E-6	209794.914898	18.882617	0.808861	0	0
0	0	0	22.916663	6.051018	7.144679	6.051018	2.317146E+9	2.801704E-6	356925.670622	18.722986	0.810602	0	0
0	0	0	22.612185	6.051138	6.705539	6.051138	1.965491E+9	3.524033E-6	283765.768289	18.774681	0.807318	0	0
0	0	0	22.31563	6.05157	6.276982	6.05157	1.674359E+9	-4.041086E-6	-247458.259158	18.842536	0.804904	0	0
0	0	0	22.018911	6.051191	5.85034	6.051191	1.426224E+9	3.257099E-6	307021.676487	18.659106	0.806843	0	0
0	0	0	21.715291	6.051437	5.412083	6.051437	1.210338E+9	-1.048112E-5	-95409.673631	18.914086	0.800512	0	0
0	0	0	21.408854	6.051251	4.970929	6.051251	1.025568E+9	3.383324E-6	295567.357331	18.584199	0.805142	0	0
0	0	0	21.103968	6.051444	4.530981	6.051444	8.697332E+8	-6.66037E-6	-150141.804543	18.962951	0.795684	0	0
0	0	0	20.796305	6.051504	4.08739	6.051504	7.364714E+8	-2.776833E-6	-360122.545991	18.583701	0.801818	0	0
0	0	0	20.487335	6.05147	3.642172	6.05147	6.231877E+8	-3.271239E-6	-305694.59386	18.94259	0.792993	0	0
0	0	0	20.176446	6.051477	3.194077	6.051477	5.267825E+8	-2.563405E-6	-390106.183364	18.633839	0.798058	0	0
0	0	0	19.86176	6.05161	2.74015	6.05161	4.443776E+8	-8.806534E-7	-1135520.518526	18.84026	0.791766	0	0
0	0	0	19.543642	6.051683	2.281444	6.051683	3.741689E+8	-5.59199E-7	-1788272.225135	18.726053	0.792795	0	0
0	0	0	19.223198	6.051544	1.819992	6.051544	3.146565E+8	-8.860327E-7	-1128626.552439	18.719193	0.790975	0	0
0	0	0	18.897322	6.051524	1.350372	6.051524	2.638339E+8	-8.50269E-7	-1176098.396895	18.833148	0.787334	0	0
0	0	0	18.572957	6.051617	0.882599	6.051617	2.214008E+8	-4.260515E-7	-2347133.839813	18.615305	0.789827	0	0
0	0	0	18.242221	6.05157	0.406052	6.05157	1.851536E+8	-4.461499E-7	-2241398.999949	18.92066	0.782467	0	0
0	0	0	17.912139	6.051663	-0.069966	6.051663	1.548955E+8	-2.480867E-7	-4030848.330814	18.547622	0.787928	0	0
0	0	0	17.577932	6.051517	-0.551216	6.051517	1.292935E+8	-4.376819E-7	-2284764.386215	18.924746	0.778787	0	0
0	0	0	17.240336	6.05167	-1.038248	6.05167	1.077257E+8	-1.684962E-7	-5934853.528505	18.534832	0.78496	0	0
0	0	0	16.896615	6.051916	-1.534399	6.051916	8.945889E+7	-7.501113E-8	-1.333136E+7	18.890211	0.776096	0	0
0	0	0	16.54832	6.051856	-2.036216	6.051856	7.410611E+7	-7.004103E-8	-1.427735E+7	18.607092	0.780528	0	0
0	0	0	16.198023	6.051916	-2.541284	6.051916	6.132178E+7	-5.141759E-8	-1.94486E+7	18.801232	0.774592	0	0
0	0	0	15.846543	6.051637	-3.047003	6.051637	5.071045E+7	-8.981663E-8	-1.11338E+7	18.701141	0.775502	0	0
0	0	0	15.494286	6.05177	-3.555124	6.05177	4.191776E+7	-4.853473E-8	-2.06038E+7	18.653099	0.774038	0	0
0	0	0	15.136149	6.051797	-4.07139	6.051797	3.453966E+7	-3.740158E-8	-2.673684E+7	18.78887	0.7702	0	0
0	0	0	14.774991	6.05173	-4.591715	6.05173	2.841375E+7	-3.671246E-8	-2.723871E+7	18.549748	0.77297	0	0
0	0	0	14.407257	6.051624	-5.121383	6.051624	2.32914E+7	-4.35591E-8	-2.295731E+7	18.867313	0.765332	0	0
0	0	0	14.038993	6.051683	-5.652352	6.051683	1.908701E+7	-2.851839E-8	-3.506509E+7	18.501525	0.770833	0	0
0	0	0	13.662153	6.051803	-6.19588	6.051803	1.556923E+7	-1.659046E-8	-6.027562E+7	18.880176	0.761731	0	0
0	0	0	13.284496	6.051777	-6.740108	6.051777	1.269417E+7	-1.444762E-8	-6.921556E+7	18.491468	0.768063	0	0
0	0	0	12.911699	6.05167	-7.277065	6.05167	1.037726E+7	-1.623002E-8	-6.161423E+7	18.813847	0.759713	0	0
0	0	0	12.540698	6.05183	-7.81232	6.05183	8491464	-8.506257E-9	-1.175605E+8	18.565551	0.763433	0	0
0	0	0	12.166676	6.05189	-8.351602	6.05189	6937023.5	-6.123573E-9	-1.633034E+8	18.729901	0.758447	0	0
0	0	0	11.793185	6.051983	-8.890235	6.051983	5668763.5	-4.223541E-9	-2.367682E+8	18.688818	0.75813	0	0
0	0	0	11.423491	6.051783	-9.422392	6.051783	4641893.5	-5.194647E-9	-1.925059E+8	18.608685	0.757814	0	0
0	0	0	11.056207	6.052142	-9.953004	6.052142	3805990	-2.237427E-9	-4.469421E+8	18.756774	0.753619	0	0
0	0	0	10.690923	6.051989	-10.47896	6.051989	3123991.5	-2.301898E-9	-4.344241E+8	18.489155	0.757141	0	0
0	0	0	10.3276	6.05179	-11.001919	6.05179	2566919.5	-2.825305E-9	-3.539441E+8	18.826398	0.749147	0	0
0	0	0	9.965747	6.051856	-11.523693	6.051856	2110862	-1.994999E-9	-5.012534E+8	18.444683	0.754885	0	0
0	0	0	9.604793	6.051816	-12.043795	6.051816	1736674	-1.79342E-9	-5.575938E+8	18.832763	0.745586	0	0
0	0	0	9.249841	6.051883	-12.555627	6.051883	1433462	-1.282293E-9	-7.798528E+8	18.443515	0.752155	0	0
0	0	0	8.897911	6.052036	-13.06342	6.052036	1185123	-8.107232E-10	-1.233467E+9	18.77588	0.743687	0	0
0	0	0	8.55125	6.051963	-13.562801	6.051963	982601.5	-7.574051E-10	-1.320297E+9	18.489885	0.748119	0	0
0	0	0	8.209121	6.051969	-14.05594	6.051969	816687	-6.223424E-10	-1.606833E+9	18.670368	0.742579	0	0
0	0	0	7.869932	6.051936	-14.544693	6.051936	679867.5	-5.493816E-10	-1.820228E+9	18.619505	0.742499	0	0
0	0	0	7.533969	6.051743	-15.028199	6.051743	566957	-7.052794E-10	-1.417878E+9	18.55554	0.741827	0	0
0	0	0	7.196741	6.052043	-15.515368	6.052043	472475	-3.199396E-10	-3.12559E+9	18.712244	0.737632	0	0
0	0	0	6.868986	6.052029	-15.987716	6.052029	395759.5	-2.735305E-10	-3.6559E+9	18.429656	0.741273	0	0
0	0	0	6.543274	6.052116	-16.457499	6.052116	331866.5	-2.022039E-10	-4.945503E+9	18.751095	0.733556	0	0
0	0	0	6.222584	6.051883	-16.918826	6.051883	279045.5	-2.49618E-10	-4.006121E+9	18.374213	0.739334	0	0
0	0	0	5.90267	6.05189	-17.379944	6.05189	234730.5	-2.072048E-10	-4.826143E+9	18.783697	0.730113	0	0
0	0	0	5.585288	6.052129	-17.838315	6.052129	197723	-1.183153E-10	-8.45199E+9	18.404463	0.736128	0	0
0	0	0	5.270316	6.05185	-18.291205	6.05185	166767	-1.598725E-10	-6.254983E+9	18.727213	0.728174	0	0
0	0	0	4.954608	6.052003	-18.746834	6.052003	140602	-1.01368E-10	-9.865044E+9	18.472663	0.73225	0	0
0	0	0	4.625751	6.052236	-19.221737	6.052236	117702.5	-6.161139E-11	-1.623077E+10	18.596863	0.727818	0	0
0	0	0	4.312616	6.052003	-19.672146	6.052003	99373.5	-7.164404E-11	-1.39579E+10	18.568623	0.727185	0	0
0	0	0	3.999889	6.052029	-20.122989	6.052029	83917.5	-5.799985E-11	-1.724142E+10	18.499218	0.726473	0	0
0	0	0	3.683896	6.052136	-20.578861	6.052136	70740	-4.195466E-11	-2.383526E+10	18.688808	0.722001	0	0
0	0	0	3.375539	6.052076	-21.023062	6.052076	59879	-3.859355E-11	-2.591106E+10	18.399456	0.726156	0	0
0	0	0	3.065466	6.052043	-21.46984	6.052043	50638	-3.428986E-11	-2.916314E+10	18.734709	0.718242	0	0
0	0	0	2.75078	6.052116	-21.923702	6.052116	42716.5	-2.602686E-11	-3.842185E+10	18.331103	0.724455	0	0
0	0	0	2.439115	6.052076	-22.372747	6.052076	36093.5	-2.326319E-11	-4.298637E+10	18.722459	0.715393	0	0
0	0	0	2.131289	6.052222	-22.817026	6.052222	30560.5	-1.62513E-11	-6.153354E+10	18.347396	0.721408	0	0
0	0	0	1.827628	6.052089	-23.25415	6.052089	25934	-1.639903E-11	-6.09792E+10	18.684767	0.713216	0	0
0	0	0	1.533972	6.052162	-23.677707	6.052162	22127.5	-1.267385E-11	-7.890264E+10	18.424702	0.717173	0	0
0	0	0	1.266533	6.052149	-24.063117	6.052149	19149	-1.115901E-11	-8.961367E+10	18.565106	0.712583	0	0
0	0	0	1.026781	6.052162	-24.408733	6.052162	16821	-9.634472E-12	-1.03794E+11	18.508346	0.712623	0	0
0	0	0	0.824436	6.052162	-24.700378	6.052162	15078	-8.636143E-12	-1.157924E+11	18.425953	0.712029	0	0
0	0	0	0.651657	6.052063	-24.948988	6.052063	13733.5	-9.025564E-12	-1.107964E+11	18.605305	0.707795	0	0
0	0	0	0.506646	6.052156	-25.158389	6.052156	12698	-7.335792E-12	-1.363179E+11	18.341187	0.711	0	0
0	0	0	0.382707	6.052009	-25.336403	6.052009	11875.5	-8.470411E-12	-1.18058E+11	18.676557	0.703521	0	0
0	0	0	0.279472	6.052043	-25.485339	6.052043	11230.5	-7.604807E-12	-1.314958E+11	18.279617	0.709655	0	0
0	0	0	0.191632	6.051996	-25.611745	6.051996	10710	-7.805599E-12	-1.281132E+11	18.67781	0.700316	0	0
0	0	0	0.120903	6.052036	-25.713858	6.052036	10308	-7.051531E-12	-1.418132E+11	18.272529	0.706766	0	0
0	0	0	0.062262	6.052076	-25.798549	6.052076	9986.5	-6.436556E-12	-1.553626E+11	18.612139	0.698733	0	0
0	0	0	0.01334	6.051996	-25.86872	6.051996	9726	-7.088446E-12	-1.410746E+11	18.359163	0.702413	0	0
0	0	0	-0.018962	6.05193	-25.914992	6.05193	9557.5	-7.817603E-12	-1.279164E+11	18.52605	0.697546	0	0
0	0	0	-0.055674	6.052176	-25.96896	6.052176	9370	-5.276423E-12	-1.895223E+11	18.459897	0.697902	0	0
0	0	0	-0.082667	6.052182	-26.007894	6.052182	9234	-5.15642E-12	-1.93933E+11	18.380241	0.697585	0	0
0	0	0	-0.095694	6.052029	-26.026014	6.052029	9169	-6.337184E-12	-1.577988E+11	18.550243	0.693233	0	0
0	0	0	-0.115132	6.052109	-26.054373	6.052109	9073.5	-5.57925E-12	-1.792356E+11	18.266929	0.696834	0	0
0	0	0	-0.136571	6.052029	-26.084932	6.052029	8968.5	-6.198608E-12	-1.613266E+11	18.627253	0.68888	0	0
0	0	0	-0.15066	6.052096	-26.105523	6.052096	8900.5	-5.5754E-12	-1.793593E+11	18.232524	0.694895	0	0
0	0	0	-0.158337	6.052069	-26.116474	6.052069	8864	-5.768672E-12	-1.733501E+11	18.628415	0.68603	0	0
0	0	0	-0.163483	6.052096	-26.124005	6.052096	8839	-5.536876E-12	-1.806073E+11	18.214566	0.692402	0	0
0	0	0	-0.169404	6.052196	-26.132967	6.052196	8811	-4.839391E-12	-2.066376E+11	18.559992	0.684091	0	0
0	0	0	-0.176428	6.052129	-26.142805	6.052129	8777.5	-5.252362E-12	-1.903905E+11	18.250381	0.688761	0	0
0	0	0	-0.184718	6.052063	-26.154468	6.052063	8738.5	-5.742883E-12	-1.741286E+11	18.452884	0.683023	0	0
0	0	0	-0.193334	6.051843	-26.165945	6.051843	8698	-8.459676E-12	-1.182078E+11	18.357692	0.683933	0	0
0	0	0	-0.200154	6.052349	-26.177944	6.052349	8665.5	-4.003273E-12	-2.497956E+11	18.338814	0.682627	0	0
0	0	0	-0.206279	6.051863	-26.184689	6.051863	8637	-8.049162E-12	-1.242365E+11	18.456969	0.679382	0	0
0	0	0	-0.21167	6.052036	-26.193201	6.052036	8612	-5.891326E-12	-1.697411E+11	18.203228	0.682192	0	0
0	0	0	-0.215713	6.05193	-26.198571	6.05193	8593	-7.028686E-12	-1.422741E+11	18.495975	0.675544	0	0
0	0	0	-0.219388	6.052009	-26.204211	6.052009	8576	-6.116984E-12	-1.634792E+11	18.131664	0.680807	0	0
0	0	0	-0.222165	6.052016	-26.208242	6.052016	8563	-6.043257E-12	-1.654737E+11	18.544167	0.671706	0	0
0	0	0	-0.225677	6.052089	-26.213618	6.052089	8547	-5.404586E-12	-1.85028E+11	18.126195	0.678354	0	0
0	0	0	-0.226902	6.052136	-26.215583	6.052136	8541.5	-5.065814E-12	-1.974016E+11	18.496716	0.669846	0	0
0	0	0	-0.228576	6.052016	-26.217482	6.052016	8533.5	-6.022438E-12	-1.660457E+11	18.159392	0.67499	0	0
0	0	0	-0.228739	6.051996	-26.217632	6.051996	8533	-6.218971E-12	-1.607983E+11	18.383891	0.669173	0	0
0	0	0	-0.230087	6.052016	-26.21966	6.052016	8526.5	-6.017498E-12	-1.66182E+11	18.265208	0.670241	0	0
0	0	0	-0.231761	6.05193	-26.221702	6.05193	8519	-6.968157E-12	-1.4351E+11	18.273472	0.668342	0	0
0	0	0	-0.232537	6.051983	-26.223049	6.051983	8515.5	-6.344501E-12	-1.576168E+11	18.383458	0.665414	0	0
0	0	0	-0.232333	6.052016	-26.222897	6.052016	8516.5	-6.01044E-12	-1.663772E+11	18.141134	0.668104	0	0
0	0	0	-0.23364	6.052016	-26.224781	6.052016	8510	-6.005853E-12	-1.665042E+11	18.438839	0.661417	0	0
0	0	0	-0.234702	6.052009	-26.226283	6.052009	8505.5	-6.066699E-12	-1.648343E+11	18.063045	0.666719	0	0
0	0	0	-0.234742	6.052043	-26.226484	6.052043	8505	-5.759217E-12	-1.736347E+11	18.46576	0.658014	0	0
0	0	0	-0.235069	6.052136	-26.227355	6.052136	8503.5	-5.043277E-12	-1.982838E+11	18.041721	0.664622	0	0
0	0	0	-0.235723	6.052262	-26.22884	6.052262	8501	-4.31476E-12	-2.317626E+11	18.453203	0.65556	0	0
0	0	0	-0.236376	6.052129	-26.22921	6.052129	8498	-5.085112E-12	-1.966525E+11	18.075943	0.661298	0	0
0	0	0	-0.236539	6.052076	-26.229217	6.052076	8497	-5.476535E-12	-1.825972E+11	18.347763	0.654729	0	0
0	0	0	-0.237029	6.052089	-26.22998	6.052089	8494.5	-5.371389E-12	-1.861716E+11	18.151209	0.657301	0	0
0	0	0	-0.237805	6.052096	-26.231127	6.052096	8491	-5.318883E-12	-1.880094E+11	18.215034	0.654334	0	0
0	0	0	-0.237601	6.052149	-26.231061	6.052149	8492	-4.948683E-12	-2.02074E+11	18.263847	0.652513	0	0
0	0	0	-0.236131	6.051983	-26.228228	6.051983	8498.5	-6.331836E-12	-1.579321E+11	18.110975	0.6537	0	0
0	0	0	-0.237315	6.051936	-26.229735	6.051936	8493.5	-6.863354E-12	-1.457014E+11	18.35417	0.648042	0	0
0	0	0	-0.237683	6.052076	-26.230865	6.052076	8491.5	-5.47299E-12	-1.827155E+11	18.003945	0.652948	0	0
0	0	0	-0.236662	6.052216	-26.229993	6.052216	8496.5	-4.554439E-12	-2.19566E+11	18.39937	0.64452	0	0
0	0	0	-0.237274	6.052142	-26.230562	6.052142	8493.5	-4.993066E-12	-2.002777E+11	17.965591	0.651366	0	0
0	0	0	-0.237029	6.051963	-26.229437	6.051963	8494.5	-6.547695E-12	-1.527255E+11	18.379235	0.642383	0	0
0	0	0	-0.237111	6.052236	-26.230727	6.052236	8494.5	-4.446447E-12	-2.248987E+11	18.001849	0.648002	0	0
0	0	0	-0.237233	6.052129	-26.230446	6.052129	8493.5	-5.082419E-12	-1.967567E+11	18.298877	0.64084	0	0
0	0	0	-0.237724	6.052096	-26.231009	6.052096	8491.5	-5.319197E-12	-1.879983E+11	18.055155	0.644401	0	0
0	0	0	-0.236703	6.052036	-26.229281	6.052036	8496.5	-5.812314E-12	-1.720485E+11	18.156365	0.640642	0	0
0	0	0	-0.237683	6.052083	-26.230893	6.052083	8491.5	-5.420747E-12	-1.844764E+11	18.138675	0.640048	0	0
0	0	0	-0.237233	6.051996	-26.229875	6.051996	8493.5	-6.190183E-12	-1.615461E+11	18.039376	0.640127	0	0
0	0	0	-0.23707	6.052016	-26.229725	6.052016	8494.5	-5.994914E-12	-1.668081E+11	18.248101	0.63526	0	0
0	0	0	-0.238704	6.051936	-26.231736	6.051936	8487	-6.858102E-12	-1.458129E+11	17.935752	0.639573	0	0
0	0	0	-0.237478	6.051989	-26.230199	6.051989	8492.5	-6.25765E-12	-1.598044E+11	18.284247	0.631817	0	0
0	0	0	-0.23903	6.052029	-26.232607	6.052029	8485.5	-5.864781E-12	-1.705094E+11	17.856554	0.638347	0	0
0	0	0	-0.238908	6.052076	-26.232631	6.052076	8486	-5.469445E-12	-1.828339E+11	18.283921	0.629324	0	0
0	0	0	-0.238581	6.052103	-26.232274	6.052103	8487.5	-5.267353E-12	-1.898487E+11	17.867934	0.635735	0	0
0	0	0	-0.238908	6.052103	-26.232745	6.052103	8486	-5.266422E-12	-1.898822E+11	18.237396	0.627425	0	0
0	0	0	-0.239316	6.05189	-26.232419	6.05189	8484.5	-7.489563E-12	-1.335191E+11	17.929091	0.632055	0	0
0	0	0	-0.239194	6.051983	-26.232643	6.051983	8485	-6.321777E-12	-1.581834E+11	18.128093	0.626673	0	0
0	0	0	-0.239153	6.052043	-26.232841	6.052043	8485	-5.745674E-12	-1.74044E+11	18.001073	0.628256	0	0
0	0	0	-0.239153	6.052109	-26.233127	6.052109	8485	-5.217384E-12	-1.916669E+11	17.972663	0.62691	0	0
0	0	0	-0.239398	6.052149	-26.233651	6.052149	8483.5	-4.94373E-12	-2.022764E+11	18.085599	0.623863	0	0
0	0	0	-0.240174	6.052309	-26.235455	6.052309	8480	-4.086973E-12	-2.446799E+11	17.879406	0.62604	0	0
0	0	0	-0.240174	6.052069	-26.234427	6.052069	8480	-5.518766E-12	-1.811999E+11	18.167331	0.619866	0	0
0	0	0	-0.240215	6.052109	-26.234657	6.052109	8480	-5.21431E-12	-1.917799E+11	17.789642	0.625288	0	0
0	0	0	-0.239071	6.052329	-26.233952	6.052329	8485.5	-4.003077E-12	-2.498078E+11	18.217787	0.616582	0	0
0	0	0	-0.24001	6.051916	-26.233534	6.051916	8481	-7.111023E-12	-1.406267E+11	17.755236	0.623745	0	0
0	0	0	-0.239234	6.052036	-26.23293	6.052036	8484.5	-5.804105E-12	-1.722919E+11	18.166548	0.614722	0	0
0	0	0	-0.239888	6.052142	-26.234329	6.052142	8481.5	-4.986011E-12	-2.005611E+11	17.814752	0.619946	0	0
0	0	0	-0.240051	6.052109	-26.234422	6.052109	8481	-5.214925E-12	-1.917573E+11	18.085459	0.613575	0	0
0	0	0	-0.239888	6.052275	-26.2349	6.052275	8481.5	-4.240495E-12	-2.358215E+11	17.897714	0.616265	0	0
0	0	0	-0.2405	6.052009	-26.23464	6.052009	8478.5	-6.047441E-12	-1.653592E+11	17.946986	0.613812	0	0
0	0	0	-0.239643	6.052242	-26.234404	6.052242	8483	-4.405941E-12	-2.269663E+11	17.99582	0.612071	0	0
0	0	0	-0.239561	6.051983	-26.233172	6.051983	8483	-6.320287E-12	-1.582207E+11	17.82734	0.613535	0	0
0	0	0	-0.241195	6.052056	-26.235841	6.052056	8475.5	-5.625322E-12	-1.777676E+11	18.092288	0.607758	0	0
0	0	0	-0.240582	6.052089	-26.235101	6.052089	8478.5	-5.361271E-12	-1.865229E+11	17.747435	0.612744	0	0
0	0	0	-0.240092	6.052076	-26.234338	6.052076	8481	-5.466222E-12	-1.829417E+11	18.137804	0.604552	0	0
0	0	0	-0.241235	6.052103	-26.2361	6.052103	8475.5	-5.259905E-12	-1.901175E+11	17.685303	0.6112	0	0
0	0	0	-0.24193	6.052196	-26.2375	6.052196	8472	-4.653198E-12	-2.14906E+11	18.100329	0.602415	0	0
0	0	0	-0.242379	6.052036	-26.237462	6.052036	8470	-5.794186E-12	-1.725868E+11	17.678956	0.608826	0	0
0	0	0	-0.242991	6.051976	-26.238088	6.051976	8467	-6.379439E-12	-1.567536E+11	18.033523	0.600872	0	0
0	0	0	-0.242256	6.052329	-26.238543	6.052329	8471	-3.996236E-12	-2.502354E+11	17.755744	0.604869	0	0
0	0	0	-0.242379	6.052302	-26.238605	6.052302	8470	-4.111786E-12	-2.432033E+11	17.924293	0.600397	0	0
0	0	0	-0.242951	6.051936	-26.237858	6.051936	8467.5	-6.842344E-12	-1.461487E+11	17.838208	0.600991	0	0
0	0	0	-0.242624	6.051969	-26.23753	6.051969	8469	-6.453654E-12	-1.54951E+11	17.781829	0.600437	0	0
0	0	0	-0.24193	6.052182	-26.237443	6.052182	8472	-4.730906E-12	-2.11376E+11	17.929057	0.596954	0	0
0	0	0	-0.242011	6.051883	-26.236275	6.051883	8472	-7.578563E-12	-1.319511E+11	17.668246	0.599922	0	0
0	0	0	-0.241889	6.052222	-26.237556	6.052222	8472.5	-4.505461E-12	-2.219529E+11	18.013026	0.592997	0	0
0	0	0	-0.241971	6.052056	-26.236959	6.052056	8472	-5.622999E-12	-1.778411E+11	17.602133	0.598893	0	0
0	0	0	-0.240745	6.052029	-26.235079	6.052029	8477.5	-5.859251E-12	-1.706703E+11	18.029245	0.590148	0	0
0	0	0	-0.24001	6.051989	-26.233848	6.051989	8481	-6.249176E-12	-1.600211E+11	17.566157	0.597231	0	0
0	0	0	-0.241235	6.051989	-26.235614	6.051989	8475.5	-6.245124E-12	-1.601249E+11	17.982194	0.588565	0	0
0	0	0	-0.240582	6.052049	-26.23493	6.052049	8478.5	-5.683721E-12	-1.759411E+11	17.629572	0.593749	0	0
0	0	0	-0.240541	6.052103	-26.235099	6.052103	8478.5	-5.261767E-12	-1.900502E+11	17.901077	0.587536	0	0
0	0	0	-0.242093	6.05189	-26.236422	6.05189	8471.5	-7.478087E-12	-1.33724E+11	17.701715	0.58999	0	0
0	0	0	-0.240623	6.052109	-26.235246	6.052109	8478	-5.21308E-12	-1.918252E+11	17.769463	0.587418	0	0
0	0	0	-0.240827	6.052156	-26.23574	6.052156	8477	-4.897268E-12	-2.041955E+11	17.793801	0.585993	0	0
0	0	0	-0.241154	6.052222	-26.236496	6.052222	8476	-4.507322E-12	-2.218612E+11	17.615169	0.587457	0	0
0	0	0	-0.24099	6.052176	-26.236061	6.052176	8476.5	-4.773276E-12	-2.094997E+11	17.86869	0.582115	0	0
0	0	0	-0.241235	6.052335	-26.2371	6.052335	8475.5	-3.970352E-12	-2.518669E+11	17.534363	0.586507	0	0
0	0	0	-0.242991	6.052229	-26.239174	6.052229	8467	-4.467016E-12	-2.238631E+11	17.925931	0.578712	0	0
0	0	0	-0.242583	6.052142	-26.238214	6.052142	8469.5	-4.978957E-12	-2.008453E+11	17.454069	0.585558	0	0
0	0	0	-0.242624	6.052103	-26.238101	6.052103	8469	-5.255872E-12	-1.902634E+11	17.914113	0.576338	0	0
0	0	0	-0.243441	6.052162	-26.239535	6.052162	8465	-4.848452E-12	-2.062514E+11	17.461685	0.583183	0	0
0	0	0	-0.24193	6.05189	-26.236186	6.05189	8472	-7.478529E-12	-1.337161E+11	17.826825	0.57519	0	0
0	0	0	-0.242093	6.051896	-26.23645	6.051896	8471.5	-7.380666E-12	-1.354891E+11	17.506916	0.579741	0	0
0	0	0	-0.243277	6.052043	-26.238786	6.052043	8466	-5.732808E-12	-1.744346E+11	17.730028	0.574517	0	0
0	0	0	-0.243318	6.05191	-26.238273	6.05191	8466	-7.188574E-12	-1.391096E+11	17.600107	0.575744	0	0
0	0	0	-0.243032	6.052056	-26.23849	6.052056	8467	-5.61968E-12	-1.779461E+11	17.59121	0.574399	0	0
0	0	0	-0.242501	6.052056	-26.237724	6.052056	8469.5	-5.621339E-12	-1.778935E+11	17.688954	0.571906	0	0
0	0	0	-0.243196	6.052109	-26.238954	6.052109	8466.5	-5.206009E-12	-1.920857E+11	17.450734	0.574478	0	0
0	0	0	-0.243645	6.052103	-26.239573	6.052103	8464.5	-5.253079E-12	-1.903646E+11	17.770399	0.567869	0	0
0	0	0	-0.241971	6.052096	-26.237131	6.052096	8472	-5.306982E-12	-1.88431E+11	17.392356	0.573211	0	0
0	0	0	-0.244339	6.052209	-26.24103	6.052209	8461.5	-4.572327E-12	-2.18707E+11	17.811252	0.56498	0	0
0	0	0	-0.24291	6.052329	-26.239484	6.052329	8468	-3.994821E-12	-2.503241E+11	17.357474	0.571708	0	0
0	0	0	-0.243931	6.052009	-26.239585	6.052009	8463	-6.036385E-12	-1.656621E+11	17.767912	0.563121	0	0
0	0	0	-0.242991	6.052116	-26.238688	6.052116	8467	-5.158883E-12	-1.938404E+11	17.356741	0.569175	0	0
0	0	0	-0.241971	6.052189	-26.237531	6.052189	8472	-4.69173E-12	-2.13141E+11	17.682398	0.561933	0	0
0	0	0	-0.243277	6.052149	-26.239243	6.052149	8466	-4.933532E-12	-2.026946E+11	17.423996	0.565455	0	0
0	0	0	-0.242379	6.052222	-26.238262	6.052222	8470	-4.504132E-12	-2.220184E+11	17.558532	0.561577	0	0
0	0	0	-0.245074	6.052003	-26.241204	6.052003	8458	-6.097856E-12	-1.639921E+11	17.508682	0.561656	0	0
0	0	0	-0.244135	6.052109	-26.240307	6.052109	8462	-5.203242E-12	-1.921879E+11	17.427688	0.561656	0	0
0	0	0	-0.24389	6.052109	-26.239954	6.052109	8463.5	-5.204164E-12	-1.921538E+11	17.609188	0.557581	0	0
0	0	0	-0.244666	6.052435	-26.242473	6.052435	8459.5	-3.586064E-12	-2.788573E+11	17.315956	0.561182	0	0
0	0	0	-0.245319	6.052389	-26.243214	6.052389	8456.5	-3.751239E-12	-2.665786E+11	17.678082	0.554019	0	0
0	0	0	-0.244788	6.052109	-26.241249	6.052109	8459.5	-5.201705E-12	-1.922447E+11	17.252448	0.560113	0	0
0	0	0	-0.246054	6.052156	-26.243274	6.052156	8453.5	-4.883692E-12	-2.047631E+11	17.677712	0.551566	0	0
0	0	0	-0.246299	6.052202	-26.243827	6.052202	8452	-4.604397E-12	-2.171837E+11	17.20862	0.558372	0	0
0	0	0	-0.246218	6.052182	-26.243623	6.052182	8452.5	-4.720017E-12	-2.118636E+11	17.607601	0.550101	0	0
0	0	0	-0.246667	6.052063	-26.243757	6.052063	8450.5	-5.553612E-12	-1.80063E+11	17.228605	0.555483	0	0
0	0	0	-0.245278	6.052043	-26.24167	6.052043	8457	-5.726713E-12	-1.746202E+11	17.518796	0.549112	0	0
0	0	0	-0.245687	6.052063	-26.242344	6.052063	8455	-5.556569E-12	-1.799672E+11	17.317814	0.551486	0	0
0	0	0	-0.246258	6.051996	-26.242882	6.051996	8452.5	-6.160301E-12	-1.623297E+11	17.402438	0.548598	0	0
0	0	0	-0.24634	6.05189	-26.242543	6.05189	8452	-7.460874E-12	-1.340326E+11	17.404104	0.548004	0	0
0	0	0	-0.245278	6.052229	-26.24247	6.052229	8457	-4.46174E-12	-2.241278E+11	17.267904	0.548519	0	0
0	0	0	-0.243808	6.052016	-26.239437	6.052016	8463.5	-5.973036E-12	-1.67419E+11	17.471741	0.544047	0	0
0	0	0	-0.243318	6.052295	-26.23993	6.052295	8466	-4.139895E-12	-2.41552E+11	17.162272	0.548044	0	0
0	0	0	-0.243849	6.052156	-26.240095	6.052156	8463.5	-4.889469E-12	-2.045212E+11	17.53599	0.540486	0	0
0	0	0	-0.244788	6.052063	-26.241049	6.052063	8459.5	-5.559526E-12	-1.798714E+11	17.090796	0.546659	0	0
0	0	0	-0.245932	6.052063	-26.242697	6.052063	8454	-5.555912E-12	-1.799885E+11	17.541488	0.538111	0	0
0	0	0	-0.244543	6.052142	-26.241039	6.052142	8460	-4.973372E-12	-2.010708E+11	17.066591	0.544997	0	0
0	0	0	-0.243277	6.052162	-26.2393	6.052162	8466	-4.849024E-12	-2.062271E+11	17.486012	0.536568	0	0
0	0	0	-0.241807	6.052103	-26.236924	6.052103	8473	-5.258354E-12	-1.901736E+11	17.12437	0.541831	0	0
0	0	0	-0.243686	6.051996	-26.239174	6.051996	8464.5	-6.169047E-12	-1.620996E+11	17.379479	0.536053	0	0
0	0	0	-0.242379	6.052176	-26.238062	6.052176	8470	-4.769616E-12	-2.096605E+11	17.203655	0.538151	0	0
0	0	0	-0.244625	6.052269	-26.241699	6.052269	8460	-4.261606E-12	-2.346533E+11	17.242352	0.535935	0	0
0	0	0	-0.244911	6.052122	-26.241483	6.052122	8458.5	-5.107173E-12	-1.95803E+11	17.290303	0.534471	0	0
0	0	0	-0.243931	6.052063	-26.239813	6.052063	8463	-5.561826E-12	-1.797971E+11	17.10855	0.535974	0	0
0	0	0	-0.243726	6.052262	-26.240376	6.052262	8464	-4.29598E-12	-2.327758E+11	17.348791	0.530751	0	0
0	0	0	-0.244625	6.052049	-26.240757	6.052049	8460	-5.67132E-12	-1.763258E+11	17.01022	0.535025	0	0
0	0	0	-0.24536	6.052156	-26.242273	6.052156	8456.5	-4.885425E-12	-2.046905E+11	17.399963	0.527229	0	0
0	0	0	-0.246748	6.052182	-26.244389	6.052182	8450	-4.718621E-12	-2.119263E+11	16.935611	0.533956	0	0
0	0	0	-0.246054	6.051996	-26.242588	6.051996	8453.5	-6.16103E-12	-1.623105E+11	17.388893	0.52525	0	0
0	0	0	-0.245564	6.052009	-26.241939	6.052009	8455.5	-6.031036E-12	-1.65809E+11	16.901539	0.532057	0	0
0	0	0	-0.244911	6.052003	-26.240969	6.052003	8458.5	-6.098216E-12	-1.639824E+11	17.308705	0.523826	0	0
0	0	0	-0.244911	6.052089	-26.24134	6.052089	8458.5	-5.348624E-12	-1.86964E+11	16.940196	0.529168	0	0
0	0	0	-0.246218	6.052142	-26.243452	6.052142	8452.5	-4.968963E-12	-2.012492E+11	17.211062	0.523153	0	0
0	0	0	-0.246953	6.052116	-26.244397	6.052116	8449.5	-5.14822E-12	-1.942419E+11	17.011453	0.525448	0	0
0	0	0	-0.247606	6.051803	-26.243996	6.051803	8446.5	-9.000446E-12	-1.111056E+11	17.072889	0.523034	0	0
0	0	0	-0.246177	6.052189	-26.243593	6.052189	8453	-4.681208E-12	-2.136201E+11	17.087257	0.522005	0	0
0	0	0	-0.245891	6.052083	-26.242724	6.052083	8454	-5.396808E-12	-1.852947E+11	16.956339	0.52248	0	0
0	0	0	-0.245809	6.052016	-26.242321	6.052016	8454.5	-5.966684E-12	-1.675973E+11	17.181502	0.51793	0	0
0	0	0	-0.246748	6.052096	-26.244017	6.052096	8450	-5.2932E-12	-1.889216E+11	16.852189	0.522045	0	0
0	0	0	-0.24585	6.052029	-26.242437	6.052029	8454.5	-5.843355E-12	-1.711346E+11	17.239039	0.514883	0	0
0	0	0	-0.245727	6.052122	-26.24266	6.052122	8455	-5.10506E-12	-1.958841E+11	16.787852	0.521372	0	0
0	0	0	-0.245523	6.052003	-26.241851	6.052003	8456	-6.096414E-12	-1.640309E+11	17.233322	0.512864	0	0
0	0	0	-0.245523	6.052236	-26.242851	6.052236	8456	-4.426294E-12	-2.259226E+11	16.772349	0.519433	0	0
0	0	0	-0.245564	6.052156	-26.242567	6.052156	8455.5	-4.884847E-12	-2.047147E+11	17.180593	0.511084	0	0
0	0	0	-0.246503	6.052189	-26.244064	6.052189	8451.5	-4.680378E-12	-2.13658E+11	16.816025	0.516347	0	0
0	0	0	-0.247688	6.052063	-26.245228	6.052063	8446	-5.550654E-12	-1.801589E+11	17.088188	0.51053	0	0
0	0	0	-0.249158	6.052043	-26.247261	6.052043	8439.5	-5.714863E-12	-1.749823E+11	16.883359	0.513023	0	0
0	0	0	-0.247361	6.052289	-26.245729	6.052289	8447.5	-4.161276E-12	-2.403109E+11	0	0	0	0
0	0	0	-0.247402	6.052156	-26.245216	6.052156	8447	-4.879936E-12	-2.049207E+11	0	0	0	0
0	0	0	-0.249199	6.052462	-26.24912	6.052462	8439	-3.488912E-12	-2.866223E+11	0	0	0	0
0	0	0	-0.24781	6.052122	-26.245662	6.052122	8445.5	-5.099324E-12	-1.961044E+11	0	0	0	0
0	0	0	-0.250383	6.052468	-26.250856	6.052468	8433.5	-3.465216E-12	-2.885823E+11	0	0	0	0
0	0	0	-0.250914	6.052209	-26.250507	6.052209	8431	-4.555845E-12	-2.194982E+11	0	0	0	0
0	0	0	-0.247728	6.051996	-26.245001	6.051996	8446	-6.155564E-12	-1.624546E+11	0	0	0	0
0	0	0	-0.247769	6.052069	-26.245374	6.052069	8445.5	-5.496313E-12	-1.819401E+11	0	0	0	0
0	0	0	-0.24683	6.052289	-26.244964	6.052289	8450	-4.162508E-12	-2.402398E+11	0	0	0	0
0	0	0	-0.247402	6.052036	-26.244702	6.052036	8447	-5.778452E-12	-1.730567E+11	0	0	0	0
0	0	0	-0.248954	6.052236	-26.247796	6.052236	8440	-4.417919E-12	-2.263509E+11	0	0	0	0
0	0	0	-0.246054	6.052023	-26.242702	6.052023	8453.5	-5.903677E-12	-1.69386E+11	0	0	0	0
0	0	0	-0.24585	6.051989	-26.242265	6.051989	8454.5	-6.22965E-12	-1.605227E+11	0	0	0	0
0	0	0	-0.245727	6.052142	-26.242746	6.052142	8455	-4.970433E-12	-2.011897E+11	0	0	0	0
0	0	0	-0.244707	6.052043	-26.240846	6.052043	8459.5	-5.728406E-12	-1.745686E+11	0	0	0	0
0	0	0	-0.245033	6.052136	-26.241717	6.052136	8458	-5.016292E-12	-1.993504E+11	0	0	0	0
0	0	0	-0.245727	6.052069	-26.242431	6.052069	8455	-5.502496E-12	-1.817357E+11	0	0	0	0
0	0	0	-0.246544	6.052149	-26.243951	6.052149	8451	-4.92479E-12	-2.030543E+11	0	0	0	0
0	0	0	-0.246626	6.052229	-26.244412	6.052229	8451	-4.458575E-12	-2.242869E+11	0	0	0	0
0	0	0	-0.245809	6.052083	-26.242606	6.052083	8454.5	-5.397127E-12	-1.852838E+11	0	0	0	0
0	0	0	-0.245809	6.052149	-26.242892	6.052149	8454.5	-4.92683E-12	-2.029703E+11	0	0	0	0
0	0	0	-0.246218	6.052009	-26.242881	6.052009	8452.5	-6.028896E-12	-1.658679E+11	0	0	0	0
0	0	0	-0.247973	6.052096	-26.245783	6.052096	8444.5	-5.289755E-12	-1.890447E+11	0	0	0	0
0	0	0	-0.247851	6.052162	-26.245892	6.052162	8445	-4.836996E-12	-2.067399E+11	0	0	0	0
0	0	0	-0.247565	6.052056	-26.245023	6.052056	8446.5	-5.606074E-12	-1.78378E+11	0	0	0	0
0	0	0	-0.24879	6.052202	-26.247417	6.052202	8441	-4.598405E-12	-2.174667E+11	0	0	0	0
0	0	0	-0.246463	6.052136	-26.243777	6.052136	8451.5	-5.012437E-12	-1.995038E+11	0	0	0	0
0	0	0	-0.248259	6.052103	-26.246224	6.052103	8443.5	-5.240046E-12	-1.90838E+11	0	0	0	0
0	0	0	-0.248055	6.052043	-26.245672	6.052043	8444.5	-5.718249E-12	-1.748787E+11	0	0	0	0
0	0	0	-0.2483	6.052189	-26.246654	6.052189	8443	-4.67567E-12	-2.138731E+11	0	0	0	0
0	0	0	-0.247402	6.05191	-26.244159	6.05191	8447	-7.172441E-12	-1.394225E+11	0	0	0	0
0	0	0	-0.247279	6.052043	-26.244554	6.052043	8448	-5.720619E-12	-1.748063E+11	0	0	0	0
0	0	0	-0.2483	6.052289	-26.247082	6.052289	8443	-4.15906E-12	-2.40439E+11	0	0	0	0
0	0	0	-0.248668	6.052269	-26.247526	6.052269	8441.5	-4.252287E-12	-2.351676E+11	0	0	0	0
0	0	0	-0.247361	6.052136	-26.245072	6.052136	8447.5	-5.010065E-12	-1.995982E+11	0	0	0	0
0	0	0	-0.247647	6.052182	-26.245684	6.052182	8446	-4.716388E-12	-2.120267E+11	0	0	0	0
0	0	0	-0.247524	6.052083	-26.245078	6.052083	8446.5	-5.39202E-12	-1.854593E+11	0	0	0	0
0	0	0	-0.247973	6.052289	-26.246612	6.052289	8444.5	-4.159799E-12	-2.403963E+11	0	0	0	0
0	0	0	-0.247524	6.052036	-26.244878	6.052036	8446.5	-5.77811E-12	-1.73067E+11	0	0	0	0
0	0	0	-0.247728	6.052109	-26.245487	6.052109	8446	-5.193404E-12	-1.92552E+11	0	0	0	0
0	0	0	-0.248464	6.052122	-26.246604	6.052122	8442	-5.097211E-12	-1.961857E+11	0	0	0	0
0	0	0	-0.249158	6.052162	-26.247776	6.052162	8439.5	-4.833846E-12	-2.068746E+11	0	0	0	0
0	0	0	-0.248464	6.052169	-26.246804	6.052169	8442	-4.794218E-12	-2.085846E+11	0	0	0	0
0	0	0	-0.247933	6.052156	-26.245981	6.052156	8445	-4.878781E-12	-2.049692E+11	0	0	0	0
0	0	0	-0.248259	6.052149	-26.246424	6.052149	8443.5	-4.92042E-12	-2.032347E+11	0	0	0	0
0	0	0	-0.25071	6.052275	-26.250498	6.052275	8432	-4.215747E-12	-2.372059E+11	0	0	0	0
0	0	0	-0.249974	6.052016	-26.248324	6.052016	8435.5	-5.953275E-12	-1.679748E+11	0	0	0	0
0	0	0	-0.250097	6.052116	-26.248929	6.052116	8435	-5.139385E-12	-1.945758E+11	0	0	0	0
0	0	0	-0.249811	6.051923	-26.247689	6.051923	8436.5	-6.986122E-12	-1.431409E+11	0	0	0	0
0	0	0	-0.249199	6.052282	-26.248349	6.052282	8439	-4.187937E-12	-2.38781E+11	0	0	0	0
0	0	0	-0.250424	6.052016	-26.248972	6.052016	8433.5	-5.951864E-12	-1.680146E+11	0	0	0	0
0	0	0	-0.248545	6.052216	-26.247121	6.052216	8442	-4.525225E-12	-2.209835E+11	0	0	0	0
0	0	0	-0.251118	6.052202	-26.250772	6.052202	8430	-4.592412E-12	-2.177505E+11	0	0	0	0
0	0	0	-0.25124	6.052216	-26.251006	6.052216	8429.5	-4.518524E-12	-2.213112E+11	0	0	0	0
0	0	0	-0.249199	6.051983	-26.247063	6.051983	8439	-6.287505E-12	-1.590456E+11	0	0	0	0
0	0	0	-0.248709	6.052023	-26.246528	6.052023	8441.5	-5.895297E-12	-1.696267E+11	0	0	0	0
0	0	0	-0.248219	6.052069	-26.246022	6.052069	8443.5	-5.495011E-12	-1.819832E+11	0	0	0	0
0	0	0	-0.248464	6.052103	-26.246518	6.052103	8442	-5.239115E-12	-1.908719E+11	0	0	0	0
0	0	0	-0.248586	6.052275	-26.247437	6.052275	8442	-4.220747E-12	-2.369249E+11	0	0	0	0
0	0	0	-0.248749	6.052089	-26.246873	6.052089	8441	-5.337559E-12	-1.873516E+11	0	0	0	0
0	0	0	-0.248464	6.051943	-26.245832	6.051943	8442	-6.740294E-12	-1.483615E+11	0	0	0	0
0	0	0	-0.24732	6.052209	-26.245327	6.052209	8447.5	-4.564762E-12	-2.190695E+11	0	0	0	0
0	0	0	-0.247647	6.052142	-26.245512	6.052142	8446	-4.965142E-12	-2.014041E+11	0	0	0	0
0	0	0	-0.247443	6.052242	-26.245646	6.052242	8447	-4.387243E-12	-2.279336E+11	0	0	0	0
0	0	0	-0.247402	6.052196	-26.245388	6.052196	8447	-4.639467E-12	-2.15542E+11	0	0	0	0
0	0	0	-0.246054	6.052322	-26.243988	6.052322	8453.5	-4.016312E-12	-2.489846E+11	0	0	0	0
0	0	0	-0.246258	0	-0.246258	0	8452.5	0	0	0	0	0	0
0	0	0	-0.247402	0	-0.247402	0	8447	0	0	0	0	0	0
