Vload_(V)	ILoad_(A)	RsLoad (ohm)	SunsVoc_Voltage_(V)	SunsVoc_Current_(A)	Model_Voltage_(V)	Model_Current_(A)	Carrier_Density_(cm-3)	Lifetime_(s)	Inverse_Lifetime_(s-1)	Efficiency_(%)	Intensity_(suns)	Dark_IV_Voltage_(V)	Dark_IV_Current_(A)
2.848675	6.046923	0	52.06456	-0.15494	52.148725	-0.15494	7.930551E+15	0.000569	1653.563856	19.611789	1.098626	0	0
2.798634	6.048071	-0.506574	52.71717	-0.594387	53.01533	-0.594387	9.976179E+15	0.000668	1331.306419	19.944549	1.090751	0	0
3.100583	6.047836	-0.553792	52.877576	-0.44842	53.097932	-0.44842	1.054174E+16	0.000722	1200.629368	19.611875	1.097953	0	0
6.348845	6.044045	3.926049	52.854177	-0.124618	52.9156	-0.124618	1.045759E+16	0.000754	1145.103451	19.809692	1.092057	0	0
10.497078	6.021973	4.815536	52.767481	0.267429	52.634188	0.267429	1.015074E+16	0.000781	1108.881785	19.674728	1.094629	0	0
13.916042	6.021915	4.249238	52.655017	0.649215	52.326782	0.649215	9.764032E+15	0.000805	1084.458428	19.618448	1.093996	0	0
17.645275	6.018026	3.714156	52.538265	0.991404	52.029649	0.991404	9.375783E+15	0.000825	1066.209927	19.731033	1.090236	0	0
21.191514	6.011275	3.241663	52.417429	1.307072	51.736803	1.307072	8.9877E+15	0.000844	1051.425087	19.440075	1.095143	0	0
24.807131	6.006372	2.709902	52.296798	1.606623	51.447838	1.606623	8.613802E+15	0.000863	1035.634382	19.720596	1.087585	0	0
28.378963	6.008284	2.089191	52.174043	1.890938	51.160057	1.890938	8.246778E+15	0.000883	1019.978533	19.331687	1.094787	0	0
32.016341	6.001706	1.567588	52.053575	2.143231	50.88785	2.143231	7.899388E+15	0.0009	1007.312998	19.626441	1.086437	0	0
35.59116	5.984229	1.138026	51.92984	2.378867	50.617194	2.378867	7.555374E+15	0.000916	996.611077	19.322532	1.092175	0	0
36.672183	5.96343	1.098133	51.810026	2.601139	50.354872	2.601139	7.234242E+15	0.000934	983.872263	19.451539	1.088099	0	0
37.729961	5.936503	1.051928	51.689027	2.81556	50.092212	2.81556	6.921543E+15	0.000953	969.954751	19.370339	1.089326	0	0
38.788817	5.900093	1.005078	51.557942	3.022905	49.818284	3.022905	6.595533E+15	0.00097	958.474236	19.258413	1.090672	0	0
39.857367	5.8471	0.964192	51.42902	3.205857	49.55774	3.205857	6.287441E+15	0.000984	950.156337	19.428101	1.086596	0	0
40.908291	5.775979	0.922731	51.305694	3.373557	49.310015	3.373557	6.003985E+15	0.000999	941.106662	19.133061	1.092215	0	0
41.965727	5.68766	0.869207	51.185022	3.529406	49.07001	3.529406	5.736965E+15	0.001014	931.830818	19.454966	1.08438	0	0
43.039319	5.554659	0.829486	51.065657	3.677665	48.833827	3.677665	5.482592E+15	0.001029	921.547432	19.090585	1.092175	0	0
44.063731	5.389678	0.787001	50.938614	3.817604	48.590957	3.817604	5.222196E+15	0.001042	914.375157	19.394794	1.08434	0	0
45.088384	5.175935	0.742761	50.817983	3.945836	48.361139	3.945836	4.984509E+15	0.001055	906.331566	19.140056	1.08992	0	0
46.124413	4.870711	0.710268	50.697474	4.066091	48.134532	4.066091	4.756085E+15	0.001068	898.696047	19.260274	1.085963	0	0
47.098357	4.484595	0.688633	50.580436	4.175675	47.917281	4.175675	4.542617E+15	0.00108	891.758354	19.265661	1.085448	0	0
48.033398	4.016887	0.672056	50.457641	4.283053	47.692489	4.283053	4.327255E+15	0.001091	885.233973	19.138326	1.086833	0	0
48.971736	3.45213	0.654833	50.339868	4.380265	47.479084	4.380265	4.128737E+15	0.001102	879.149635	19.364154	1.081095	0	0
49.853629	2.814091	0.644865	50.22038	4.472219	47.26549	4.472219	3.935126E+15	0.001112	873.858759	19.038711	1.086873	0	0
50.696584	2.102137	0.661692	50.096482	4.561947	47.046291	4.561947	3.742412E+15	0.001121	868.740234	19.376785	1.078246	0	0
51.443101	1.396883	0.672653	49.979526	4.643539	46.840176	4.643539	3.567782E+15	0.001131	863.109498	19.030735	1.084498	0	0
52.087691	0.743511	0.64348	49.855791	4.722999	46.625483	4.722999	3.390495E+15	0.001139	858.710327	19.311362	1.076149	0	0
42.656115	5.608279	0.84188	49.732342	4.795451	46.414759	4.795451	3.221028E+15	0.001145	856.188511	19.100986	1.079671	0	0
52.669125	0	0	49.616938	4.861151	46.218156	4.861151	3.06909E+15	0.001151	852.891221	19.161261	1.076347	0	0
0	0	0	49.496878	4.924805	46.015916	4.924805	2.917468E+15	0.001157	850.489096	19.197005	1.074091	0	0
0	0	0	49.383516	4.98155	45.82646	4.98155	2.780152E+15	0.001161	848.609179	19.006528	1.076505	0	0
0	0	0	49.26513	5.038372	45.629495	5.038372	2.642626E+15	0.001166	846.341841	19.252175	1.069422	0	0
0	0	0	49.148869	5.090119	45.438184	5.090119	2.513226E+15	0.001168	845.336512	18.905987	1.075595	0	0
0	0	0	49.035751	5.139204	45.252242	5.139204	2.392541E+15	0.001173	843.369882	19.249178	1.065939	0	0
0	0	0	48.916345	5.186865	45.058283	5.186865	2.270547E+15	0.001174	842.951062	18.906454	1.072785	0	0
0	0	0	48.807761	5.228845	44.882295	5.228845	2.164274E+15	0.001177	841.941858	19.169124	1.06495	0	0
0	0	0	48.687252	5.271808	44.689052	5.271808	2.051361E+15	0.001177	842.421799	18.989389	1.068393	0	0
0	0	0	48.572991	5.310335	44.506908	5.310335	1.949032E+15	0.001177	843.26026	19.018432	1.065702	0	0
0	0	0	48.459955	5.347383	44.32699	5.347383	1.852178E+15	0.001178	843.332975	19.104445	1.062892	0	0
0	0	0	48.342142	5.382837	44.141365	5.382837	1.755706E+15	0.001176	845.16746	18.901946	1.065662	0	0
0	0	0	48.229841	5.41588	43.964523	5.41588	1.667859E+15	0.001176	845.916073	19.184327	1.05846	0	0
0	0	0	48.113865	5.446779	43.783961	5.446779	1.581199E+15	0.001172	849.069851	18.851701	1.064554	0	0
0	0	0	48.000013	5.476031	43.607128	5.476031	1.5E+15	0.001169	851.833331	19.192714	1.055334	0	0
0	0	0	47.886446	5.502909	43.432178	5.502909	1.422693E+15	0.001163	856.228241	18.872718	1.061191	0	0
0	0	0	47.774554	5.528521	43.260138	5.528521	1.349999E+15	0.001158	860.201853	19.098107	1.054068	0	0
0	0	0	47.659027	5.553501	43.083332	5.553501	1.278427E+15	0.001153	864.916066	18.974415	1.055334	0	0
0	0	0	47.546318	5.577158	42.911077	5.577158	1.211885E+15	0.001148	868.948272	18.965078	1.053197	0	0
0	0	0	47.429117	5.60114	42.732116	5.60114	1.145999E+15	0.001144	872.261938	19.078876	1.04928	0	0
0	0	0	47.314448	5.622018	42.55886	5.622018	1.084675E+15	0.001136	878.658433	18.834442	1.052683	0	0
0	0	0	47.200228	5.642642	42.386127	5.642642	1.026553E+15	0.00113	883.557877	19.140242	1.044175	0	0
0	0	0	47.085886	5.661577	42.21438	5.661577	9.71211E+14	0.001121	890.360222	18.786753	1.05019	0	0
0	0	0	46.976852	5.679318	42.050624	5.679318	9.209824E+14	0.001114	895.858897	19.139405	1.040139	0	0
0	0	0	46.858222	5.69685	41.873724	5.69685	8.690371E+14	0.001104	904.295362	18.831207	1.045718	0	0
0	0	0	46.750822	5.712455	41.713577	5.712455	8.243405E+14	0.001096	910.967428	19.041367	1.038556	0	0
0	0	0	46.63358	5.728571	41.539327	5.728571	7.779697E+14	0.001087	918.886649	18.926253	1.04002	0	0
0	0	0	46.521892	5.743425	41.373555	5.743425	7.360469E+14	0.001079	926.018894	18.893916	1.038516	0	0
0	0	0	46.407672	5.75771	41.204626	5.75771	6.953463E+14	0.00107	934.190007	19.03233	1.034203	0	0
0	0	0	46.292513	5.771414	41.034732	5.771414	6.56437E+14	0.00106	942.767049	18.785346	1.037408	0	0
0	0	0	46.180947	5.783771	40.870793	5.783771	6.206866E+14	0.001049	952.43265	19.111091	1.028781	0	0
0	0	0	46.070443	5.795077	40.709104	5.795077	5.870785E+14	0.001037	963.766914	18.758943	1.035113	0	0
0	0	0	45.955529	5.806843	40.540786	5.806843	5.53945E+14	0.001026	973.763408	19.106509	1.025932	0	0
0	0	0	45.844454	5.817448	40.378648	5.817448	5.235974E+14	0.001015	984.757706	18.819428	1.030997	0	0
0	0	0	45.730724	5.828236	40.212545	5.828236	4.941547E+14	0.001005	994.431108	19.003347	1.024666	0	0
0	0	0	45.613441	5.837968	40.04242	5.837968	4.654373E+14	0.000991	1008.853663	18.9339	1.024864	0	0
0	0	0	45.50306	5.847134	39.882166	5.847134	4.398621E+14	0.000979	1020.729006	18.877713	1.023954	0	0
0	0	0	45.384756	5.856238	39.710965	5.856238	4.139378E+14	0.000966	1035.268904	19.062668	1.018532	0	0
0	0	0	45.276784	5.864323	39.554814	5.864323	3.915548E+14	0.000954	1048.080762	18.783075	1.022766	0	0
0	0	0	45.158031	5.872688	39.383461	5.872688	3.682739E+14	0.00094	1063.320428	19.119879	1.013546	0	0
0	0	0	45.043934	5.880884	39.218549	5.880884	3.471589E+14	0.00093	1074.960734	18.761791	1.01968	0	0
0	0	0	44.927917	5.887976	39.05198	5.887976	3.268832E+14	0.000915	1092.903032	19.096684	1.009906	0	0
0	0	0	44.810553	5.895124	38.883396	5.895124	3.075337E+14	0.000901	1109.446209	18.823574	1.014377	0	0
0	0	0	44.699927	5.901755	38.7245	5.901755	2.903094E+14	0.00089	1123.947264	18.994044	1.007927	0	0
0	0	0	44.581051	5.908044	38.554505	5.908044	2.728402E+14	0.000874	1144.1189	18.939804	1.007927	0	0
0	0	0	44.466913	5.914195	38.39108	5.914195	2.570271E+14	0.000861	1160.737204	18.860174	1.007056	0	0
0	0	0	44.351305	5.919867	38.226036	5.919867	2.419176E+14	0.000847	1180.548533	19.033895	1.001754	0	0
0	0	0	44.23394	5.925551	38.058477	5.925551	2.274622E+14	0.000834	1199.417368	18.76213	1.005394	0	0
0	0	0	44.118699	5.931019	37.893985	5.931019	2.140876E+14	0.000822	1216.944555	19.109038	0.996095	0	0
0	0	0	44.000355	5.935879	37.725778	5.935879	2.011509E+14	0.000806	1240.912258	18.747845	1.001991	0	0
0	0	0	43.884134	5.940513	37.560666	5.940513	1.891901E+14	0.000791	1264.31952	19.067209	0.993009	0	0
0	0	0	43.769955	5.944877	37.398589	5.944877	1.781172E+14	0.000776	1287.839973	18.796365	0.99752	0	0
0	0	0	43.651611	5.94941	37.230523	5.94941	1.673098E+14	0.000763	1310.131206	18.945642	0.992019	0	0
0	0	0	43.533144	5.953566	37.062629	5.953566	1.571354E+14	0.000749	1335.521196	18.912342	0.991149	0	0
0	0	0	43.411655	5.957599	36.890638	5.957599	1.47332E+14	0.000734	1362.861789	18.831898	0.990634	0	0
0	0	0	43.293065	5.961362	36.722882	5.961362	1.383427E+14	0.000719	1390.266813	19.048187	0.98454	0	0
0	0	0	43.172597	5.965048	36.552564	5.965048	1.297634E+14	0.000705	1418.349685	18.748686	0.98917	0	0
0	0	0	43.049924	5.968566	36.379332	5.968566	1.215653E+14	0.00069	1448.95321	19.091719	0.979871	0	0
0	0	0	42.930273	5.972145	36.210148	5.972145	1.140613E+14	0.000679	1473.727789	18.731356	0.986163	0	0
0	0	0	42.804741	5.975304	36.033266	5.975304	1.066792E+14	0.000663	1509.15189	19.056074	0.976626	0	0
0	0	0	42.679005	5.978044	35.856531	5.978044	9.97581E+13	0.000644	1552.126792	18.80806	0.980464	0	0
0	0	0	42.556006	5.980889	35.683408	5.980889	9.341715E+13	0.000629	1589.020505	18.960321	0.974885	0	0
0	0	0	42.42929	5.983647	35.505209	5.983647	8.730121E+13	0.000614	1629.306545	18.931818	0.974172	0	0
0	0	0	42.305187	5.986595	35.330355	5.986595	8.169569E+13	0.000602	1660.008578	18.835791	0.973856	0	0
0	0	0	42.169161	5.989008	35.139607	5.989008	7.59602E+13	0.000583	1713.942625	19.042175	0.968039	0	0
0	0	0	42.035748	5.991692	34.952107	5.991692	7.07227E+13	0.00057	1755.540528	18.737035	0.972392	0	0
0	0	0	41.903845	5.994037	34.767054	5.994037	6.589666E+13	0.000554	1804.119857	19.089594	0.962855	0	0
0	0	0	41.77374	5.996379	34.584449	5.996379	6.145656E+13	0.000541	1848.801755	18.747564	0.968276	0	0
0	0	0	41.641348	5.998434	34.39899	5.998434	5.724316E+13	0.000525	1904.1827	19.066925	0.959373	0	0
0	0	0	41.502381	6.000515	34.204376	6.000515	5.312879E+13	0.000509	1963.587588	18.807539	0.963409	0	0
0	0	0	41.369907	6.002632	34.018658	6.002632	4.948055E+13	0.000497	2012.186297	18.937448	0.958225	0	0
0	0	0	41.234575	6.004339	33.829457	6.004339	4.601061E+13	0.000481	2080.529435	18.922758	0.957038	0	0
0	0	0	41.100263	6.006276	33.641354	6.006276	4.280617E+13	0.000468	2134.586998	18.799072	0.957552	0	0
0	0	0	40.959458	6.00835	33.444067	6.00835	3.968493E+13	0.000458	2185.003248	19.036761	0.950627	0	0
0	0	0	40.822084	6.00983	33.252234	6.00983	3.685817E+13	0.000442	2262.278607	18.731449	0.955376	0	0
0	0	0	40.680259	6.011267	33.054275	6.011267	3.414996E+13	0.000426	2347.099828	19.087306	0.945839	0	0
0	0	0	40.541986	6.012938	32.860905	6.012938	3.170051E+13	0.000415	2409.993592	18.706262	0.952368	0	0
0	0	0	40.392402	6.014295	32.652261	6.014295	2.924737E+13	0.000399	2507.827217	19.031525	0.942911	0	0
0	0	0	40.246656	6.015751	32.448774	6.015751	2.703925E+13	0.000386	2591.586066	18.783453	0.946868	0	0
0	0	0	40.100338	6.017085	32.244628	6.017085	2.498961E+13	0.000373	2684.123474	18.935379	0.941328	0	0
0	0	0	39.955409	6.018544	32.042214	6.018544	2.311216E+13	0.000362	2760.249632	18.921398	0.940536	0	0
0	0	0	39.804273	6.019804	31.831448	6.019804	2.130397E+13	0.000349	2861.524588	18.816113	0.940497	0	0
0	0	0	39.654852	6.020997	31.623121	6.020997	1.965505E+13	0.000337	2965.221883	19.038729	0.934403	0	0
0	0	0	39.499714	6.021893	31.407259	6.021893	1.807763E+13	0.000321	3112.535029	18.728718	0.938795	0	0
0	0	0	39.34674	6.023209	31.193805	6.023209	1.664596E+13	0.000312	3202.454715	19.083401	0.929338	0	0
0	0	0	39.188335	6.024116	30.973367	6.024116	1.528259E+13	0.000298	3354.685562	18.732895	0.935234	0	0
0	0	0	39.030379	6.025295	30.753161	6.025295	1.403409E+13	0.000289	3464.401105	19.063919	0.926093	0	0
0	0	0	38.867237	6.026027	30.526369	6.026027	1.28514E+13	0.000274	3655.086449	18.809725	0.929971	0	0
0	0	0	38.702869	6.027071	30.297433	6.027071	1.176044E+13	0.000264	3794.674662	18.939805	0.924787	0	0
0	0	0	38.536419	6.027886	30.065915	6.027886	1.074987E+13	0.000251	3981.012148	18.919385	0.92356	0	0
0	0	0	38.361884	6.028629	29.823288	6.028629	9.783227E+12	0.000238	4203.569844	18.806252	0.9236	0	0
0	0	0	38.190084	6.029567	29.584153	6.029567	8.916569E+12	0.000229	4375.486675	19.03812	0.916991	0	0
0	0	0	38.009219	6.030371	29.332642	6.030371	8.086916E+12	0.000217	4600.916014	18.718877	0.921819	0	0
0	0	0	37.827537	6.031107	29.080081	6.031107	7.331151E+12	0.000206	4849.56084	19.084304	0.911886	0	0
0	0	0	37.640996	6.031931	28.820646	6.031931	6.628535E+12	0.000197	5084.128595	18.69162	0.918732	0	0
0	0	0	37.452739	6.032352	28.559412	6.032352	5.987655E+12	0.000183	5470.271599	19.038015	0.909077	0	0
0	0	0	37.260439	6.033335	28.291737	6.033335	5.396895E+12	0.000177	5659.912792	18.742455	0.913865	0	0
0	0	0	37.064832	6.033899	28.020084	6.033899	4.8557E+12	0.000166	6029.664133	18.922151	0.907652	0	0
0	0	0	36.863549	6.034486	27.740523	6.034486	4.355367E+12	0.000156	6418.882282	18.887879	0.907098	0	0
0	0	0	36.661775	6.034949	27.460459	6.034949	3.905528E+12	0.000145	6892.099996	18.805802	0.906702	0	0
0	0	0	36.45457	6.035621	27.172541	6.035621	3.491866E+12	0.000137	7275.819865	19.012903	0.901004	0	0
0	0	0	36.240382	6.036113	26.875216	6.036113	3.110242E+12	0.000128	7813.128805	18.705211	0.905397	0	0
0	0	0	36.023785	6.036873	26.574121	6.036873	2.766706E+12	0.000122	8165.472899	19.055482	0.896453	0	0
0	0	0	35.802083	6.037267	26.266516	6.037267	2.454323E+12	0.000113	8844.358744	18.686911	0.90235	0	0
0	0	0	35.57299	6.037692	25.948614	6.037692	2.16852E+12	0.000105	9568.841362	19.045957	0.892575	0	0
0	0	0	35.341814	6.038273	25.627565	6.038273	1.913836E+12	9.84297E-5	10159.535264	18.770349	0.897047	0	0
0	0	0	35.105452	6.038593	25.299742	6.038593	1.684328E+12	8.994805E-5	11117.527864	18.941061	0.891349	0	0
0	0	0	34.866966	6.038942	24.96892	6.038942	1.480638E+12	8.252635E-5	12117.341367	18.885192	0.891032	0	0
0	0	0	34.625826	6.039441	24.634164	6.039441	1.29971E+12	7.727218E-5	12941.267299	18.806336	0.890715	0	0
0	0	0	34.380929	6.039611	24.294738	6.039611	1.138574E+12	6.92708E-5	14436.096281	19.0056	0.884819	0	0
0	0	0	34.133704	6.040164	23.951439	6.040164	9.961578E+11	6.556739E-5	15251.483505	18.718429	0.888816	0	0
0	0	0	33.881783	6.040497	23.601993	6.040497	8.693441E+11	6.018104E-5	16616.528642	19.070516	0.879398	0	0
0	0	0	33.628107	6.040879	23.250019	6.040879	7.579528E+11	5.578947E-5	17924.530166	18.685277	0.886125	0	0
0	0	0	33.369693	6.040949	22.892016	6.040949	6.591432E+11	4.908014E-5	20374.838679	19.044529	0.876272	0	0
0	0	0	33.106542	6.041501	22.526602	6.041501	5.71748E+11	4.691462E-5	21315.315959	18.723234	0.881614	0	0
0	0	0	32.845065	6.041668	22.164173	6.041668	4.963887E+11	4.201974E-5	23798.340914	18.92892	0.874847	0	0
0	0	0	32.567989	6.042033	21.779777	6.042033	4.273429E+11	3.887656E-5	25722.441885	18.850644	0.875282	0	0
0	0	0	32.302592	6.042203	21.411898	6.042203	3.702306E+11	3.489214E-5	28659.751019	18.814476	0.8737	0	0
0	0	0	32.027271	6.04269	21.029689	6.04269	3.190348E+11	3.353222E-5	29822.060566	18.964897	0.869347	0	0
0	0	0	31.761793	6.042837	20.661721	6.042837	2.763847E+11	3.009422E-5	33228.974734	18.694775	0.872908	0	0
0	0	0	31.492026	6.04303	20.287724	6.04303	2.388817E+11	2.729911E-5	36631.233306	19.04098	0.864202	0	0
0	0	0	31.222831	6.043229	19.914501	6.043229	2.065312E+11	2.487133E-5	40206.941123	18.656187	0.870455	0	0
0	0	0	30.948328	6.04332	19.534121	6.04332	1.7805E+11	2.19868E-5	45481.829108	19.042498	0.860641	0	0
0	0	0	30.676111	6.04367	19.156412	6.04367	1.536862E+11	2.102058E-5	47572.424192	18.721849	0.865785	0	0
0	0	0	30.404834	6.043774	18.780467	6.043774	1.327236E+11	1.874969E-5	53334.206709	18.94227	0.859137	0	0
0	0	0	30.134128	6.04391	18.405246	6.04391	1.146556E+11	1.692935E-5	59069.023709	18.830366	0.860127	0	0
0	0	0	29.860114	6.044192	18.025153	6.044192	9.887032E+10	1.610617E-5	62088.005139	18.811068	0.858662	0	0
0	0	0	29.586754	6.044394	17.646114	6.044394	8.528837E+10	1.500234E-5	66656.251381	18.949698	0.854072	0	0
0	0	0	29.312169	6.044489	17.265583	6.044489	7.352346E+10	1.343867E-5	74412.146526	18.708335	0.857356	0	0
0	0	0	29.037584	6.044697	16.884823	6.044697	6.338142E+10	1.266705E-5	78944.959629	19.051924	0.848611	0	0
0	0	0	28.759895	6.045011	16.49954	6.045011	5.454681E+10	1.269218E-5	78788.641356	18.664883	0.854982	0	0
0	0	0	28.479879	6.045112	16.111458	6.045112	4.688459E+10	1.151874E-5	86815.079993	19.054039	0.844971	0	0
0	0	0	28.203007	6.045319	15.72751	6.045319	4.036724E+10	1.119955E-5	89289.322164	18.681503	0.851342	0	0
0	0	0	27.926134	6.045214	15.344204	6.045214	3.475586E+10	9.048462E-6	110516.024872	18.958985	0.843309	0	0
0	0	0	27.647629	6.045541	14.957733	6.045541	2.989809E+10	9.623163E-6	103915.940031	18.795734	0.845525	0	0
0	0	0	27.372145	6.045189	14.576871	6.045189	2.576132E+10	6.610347E-6	151277.995742	18.849301	0.842121	0	0
0	0	0	27.095518	6.045688	14.192623	6.045688	2.218322E+10	7.993936E-6	125094.824542	18.935355	0.839391	0	0
0	0	0	26.819994	6.045755	13.810814	6.045755	1.911347E+10	7.283229E-6	137301.72905	18.720649	0.841726	0	0
0	0	0	26.543285	6.046048	13.426872	6.046048	1.645799E+10	8.3724E-6	119440.063028	19.027613	0.83397	0	0
0	0	0	26.265065	6.04579	13.042033	6.04579	1.415986E+10	5.558336E-6	179909.968245	18.647994	0.839628	0	0
0	0	0	25.986478	6.04591	12.65586	6.04591	1.218022E+10	5.347611E-6	186999.384092	19.037056	0.829933	0	0
0	0	0	25.710831	6.046056	12.273696	6.046056	1.049401E+10	5.386345E-6	185654.637923	18.682597	0.835632	0	0
0	0	0	25.435756	6.046096	11.892557	6.046096	9.044028E+9	4.867589E-6	205440.529817	18.977403	0.827757	0	0
0	0	0	25.161824	6.046316	11.512596	6.046316	7.799214E+9	5.71615E-6	174942.915716	18.757082	0.830764	0	0
0	0	0	24.890873	6.046143	11.137648	6.046143	6.736583E+9	3.844023E-6	260144.107672	18.831892	0.827203	0	0
0	0	0	24.617554	6.046423	10.75839	6.046423	5.811288E+9	5.167734E-6	193508.429071	18.877902	0.82471	0	0
0	0	0	24.343826	6.046363	10.37934	6.046363	5.011979E+9	3.981897E-6	251136.58904	18.69589	0.826332	0	0
0	0	0	24.069568	6.046316	9.999525	6.046316	4.32137E+9	3.170454E-6	315412.1932	18.98366	0.819011	0	0
0	0	0	23.794983	6.046489	9.618745	6.046489	3.725263E+9	3.823616E-6	261532.521131	18.620329	0.824551	0	0
0	0	0	23.524114	6.046602	9.243248	6.046602	3.217843E+9	4.468934E-6	223766.999394	19.01681	0.814659	0	0
0	0	0	23.243199	6.046809	8.853609	6.046809	2.764486E+9	1.077188E-5	92834.344524	18.613705	0.821544	0	0
0	0	0	22.962733	6.046656	8.465446	6.046656	2.375578E+9	3.958431E-6	252625.32324	18.953805	0.81264	0	0
0	0	0	22.688638	6.046663	8.085729	6.046663	2.048424E+9	3.501282E-6	285609.681018	18.692603	0.816598	0	0
0	0	0	22.419076	6.046762	7.712064	6.046762	1.770658E+9	4.907526E-6	203768.650874	18.846452	0.811255	0	0
0	0	0	22.153188	6.046809	7.343617	6.046809	1.5336E+9	5.988027E-6	166999.926915	18.851049	0.810345	0	0
0	0	0	21.890364	6.046902	6.979296	6.046902	1.330481E+9	2.840603E-5	35203.790401	18.722468	0.810781	0	0
0	0	0	21.625539	6.046736	6.612845	6.046736	1.153017E+9	2.743225E-6	364534.439022	18.94784	0.804766	0	0
0	0	0	21.363246	6.046909	6.249058	6.046909	1.000592E+9	3.150516E-5	31740.829777	18.615245	0.809633	0	0
0	0	0	21.108548	6.046869	5.896324	6.046869	8.718892E+8	7.184272E-6	139192.941927	18.996466	0.800452	0	0
0	0	0	20.853197	6.047035	5.542164	6.047035	7.59473E+8	-3.010986E-6	-332117.11429	18.60521	0.806546	0	0
0	0	0	20.599969	6.046836	5.191872	6.046836	6.62311E+8	3.379325E-6	295917.094223	18.979963	0.797287	0	0
0	0	0	20.348456	6.046982	4.843076	6.046982	5.78115E+8	-4.354344E-6	-229655.695711	18.672566	0.802075	0	0
0	0	0	20.098986	6.046902	4.497687	6.046902	5.051796E+8	1.08617E-5	92066.606157	18.853182	0.796653	0	0
0	0	0	19.848902	6.046909	4.151227	6.046909	4.412997E+8	1.398961E-5	71481.611332	18.776594	0.796772	0	0
0	0	0	19.599717	6.047062	3.80563	6.047062	3.856847E+8	-1.235604E-6	-809320.498894	18.707882	0.79602	0	0
0	0	0	19.350492	6.047155	3.460129	6.047155	3.370711E+8	-6.465364E-7	-1546703.344811	18.882906	0.791113	0	0
0	0	0	19.096488	6.047155	3.108252	6.047155	2.938252E+8	-5.635684E-7	-1774407.380427	18.612131	0.794556	0	0
0	0	0	18.84371	6.047148	2.75809	6.047148	2.562973E+8	-5.060788E-7	-1975976.938931	18.972106	0.786127	0	0
0	0	0	18.594688	6.046949	2.413648	6.046949	2.240171E+8	-3.849842E-6	-259750.919491	18.553535	0.792775	0	0
0	0	0	18.341052	6.047175	2.061675	6.047175	1.953147E+8	-3.449399E-7	-2899055.411518	18.95402	0.783001	0	0
0	0	0	18.08905	6.047181	1.712552	6.047181	1.704402E+8	-2.932662E-7	-3409871.150078	18.586769	0.788937	0	0
0	0	0	17.836026	6.047042	1.362413	6.047042	1.486516E+8	-5.559052E-7	-1798867.732622	18.86448	0.781379	0	0
0	0	0	17.580062	6.047155	1.007512	6.047155	1.294425E+8	-2.48247E-7	-4028245.255406	18.707196	0.783357	0	0
0	0	0	17.322833	6.046909	0.651844	6.046909	1.126385E+8	3.584639E-6	278968.112058	18.734475	0.780746	0	0
0	0	0	17.065031	6.047195	0.293917	6.047195	9.79857E+7	-1.603458E-7	-6236521.824966	18.822813	0.777659	0	0
0	0	0	16.802248	6.047328	-0.070494	6.047328	8.500978E+7	-9.342397E-8	-1.070389E+7	18.60278	0.780073	0	0
0	0	0	16.540444	6.047268	-0.433011	6.047268	7.37913E+7	-9.515791E-8	-1.050885E+7	18.905163	0.772752	0	0
0	0	0	16.275456	6.047294	-0.800183	6.047294	6.394309E+7	-7.655715E-8	-1.306214E+7	18.549398	0.778094	0	0
0	0	0	16.010998	6.047394	-1.166828	6.047394	5.542513E+7	-5.23191E-8	-1.911348E+7	18.960301	0.76832	0	0
0	0	0	15.743233	6.047361	-1.537679	6.047361	4.795604E+7	-4.870315E-8	-2.053255E+7	18.556393	0.77477	0	0
0	0	0	15.477591	6.047228	-1.9053	6.047228	4.154114E+7	-6.057133E-8	-1.650946E+7	18.874896	0.766737	0	0
0	0	0	15.207824	6.047248	-2.279073	6.047248	3.590419E+7	-4.914006E-8	-2.034999E+7	18.638024	0.769942	0	0
0	0	0	14.936506	6.047387	-2.655344	6.047387	3.100613E+7	-2.968701E-8	-3.368477E+7	18.732801	0.766144	0	0
0	0	0	14.660818	6.047454	-3.03746	6.047454	2.67131E+7	-2.237547E-8	-4.46918E+7	18.749971	0.764244	0	0
0	0	0	14.383578	6.047228	-3.420866	6.047228	2.299516E+7	-3.3529E-8	-2.982493E+7	18.612657	0.765154	0	0
0	0	0	14.10834	6.047095	-3.801768	6.047095	1.981612E+7	-5.120578E-8	-1.952905E+7	18.866405	0.758664	0	0
0	0	0	13.821299	6.047082	-4.199371	6.047082	1.696797E+7	-4.751508E-8	-2.104595E+7	18.50441	0.763888	0	0
0	0	0	13.537199	6.047547	-4.594335	6.047547	1.45523E+7	-1.037191E-8	-9.64143E+7	18.903384	0.754549	0	0
0	0	0	13.249873	6.047294	-4.99162	6.047294	1.245879E+7	-1.491617E-8	-6.704132E+7	18.474297	0.761395	0	0
0	0	0	12.964548	6.047294	-5.38689	6.047294	1.0678E+7	-1.278413E-8	-7.8222E+7	18.861045	0.751819	0	0
0	0	0	12.681918	6.047208	-5.778163	6.047208	9165089	-1.429791E-8	-6.994027E+7	18.551553	0.756646	0	0
0	0	0	12.397205	6.047268	-6.172766	6.047268	7857683.5	-1.013257E-8	-9.869163E+7	18.763542	0.750394	0	0
0	0	0	12.107429	6.047461	-6.574798	6.047461	6718364.5	-5.557848E-9	-1.799257E+8	18.666606	0.751265	0	0
0	0	0	11.820715	6.04752	-6.972181	6.04752	5753758.5	-4.283348E-9	-2.334622E+8	18.599981	0.750552	0	0
0	0	0	11.533103	6.047308	-7.369958	6.047308	4925255.5	-5.693009E-9	-1.75654E+8	18.777429	0.745962	0	0
0	0	0	11.244674	6.047613	-7.770489	6.047613	4214190.5	-2.714499E-9	-3.683921E+8	18.486618	0.749761	0	0
0	0	0	10.958614	6.047467	-8.166321	6.047467	3610403	-2.950278E-9	-3.389511E+8	18.854603	0.741174	0	0
0	0	0	10.670226	6.047421	-8.565689	6.047421	3089233	-2.760323E-9	-3.622764E+8	18.45537	0.747347	0	0
0	0	0	10.381919	6.047215	-8.964432	6.047215	2643412	-4.029876E-9	-2.481466E+8	18.852571	0.738166	0	0
0	0	0	10.092102	6.047215	-9.365924	6.047215	2260082	-3.44549E-9	-2.902345E+8	18.480668	0.743944	0	0
0	0	0	9.799753	6.047348	-9.771353	6.047348	1929697.5	-2.021061E-9	-4.947897E+8	18.751381	0.736821	0	0
0	0	0	9.508384	6.047421	-10.175235	6.047421	1648482.5	-1.472968E-9	-6.789012E+8	18.572066	0.738997	0	0
0	0	0	9.217301	6.047467	-10.578637	6.047467	1408466.5	-1.150942E-9	-8.688535E+8	18.612287	0.736148	0	0
0	0	0	8.926177	6.047401	-10.981725	6.047401	1203370.5	-1.120112E-9	-8.927682E+8	18.722492	0.732943	0	0
0	0	0	8.635175	6.047574	-11.385432	6.047574	1028207.5	-7.028923E-10	-1.422693E+9	18.488097	0.735594	0	0
0	0	0	8.343929	6.0475	-11.788667	6.0475	878425	-6.765122E-10	-1.47817E+9	18.806688	0.728511	0	0
0	0	0	8.050844	6.04766	-12.195224	6.04766	749716.5	-4.52435E-10	-2.210262E+9	18.413498	0.734447	0	0
0	0	0	7.757148	6.047328	-12.60098	6.047328	639654.5	-7.029411E-10	-1.422594E+9	18.83481	0.724791	0	0
0	0	0	7.46243	6.047447	-13.009667	6.047447	545450	-4.626671E-10	-2.161381E+9	18.419854	0.731281	0	0
0	0	0	7.166936	6.047441	-13.419004	6.047441	464923.5	-3.994245E-10	-2.503602E+9	18.778197	0.722931	0	0
0	0	0	6.87132	6.04754	-13.828874	6.04754	396259.5	-2.854662E-10	-3.503042E+9	18.508093	0.726928	0	0
0	0	0	6.575827	6.047673	-14.238693	6.047673	337758.5	-2.002179E-10	-4.994557E+9	18.652035	0.722219	0	0
0	0	0	6.279476	6.047334	-14.648072	6.047334	287761	-3.111229E-10	-3.214164E+9	18.618085	0.721942	0	0
0	0	0	5.984023	6.047753	-15.05883	6.047753	245283.5	-1.314306E-10	-7.608578E+9	18.508888	0.72214	0	0
0	0	0	5.685181	6.047374	-15.471509	6.047374	208693.5	-2.056979E-10	-4.861499E+9	18.745037	0.71656	0	0
0	0	0	5.383235	6.047534	-15.890366	6.047534	177264	-1.290909E-10	-7.746479E+9	18.413628	0.721111	0	0
0	0	0	5.076879	6.047726	-16.315458	6.047726	150209.5	-8.31499E-11	-1.202647E+10	18.805287	0.712326	0	0
0	0	0	4.762029	6.047427	-16.750574	6.047427	126701	-1.117195E-10	-8.950991E+9	18.38014	0.719014	0	0
0	0	0	4.439501	6.047633	-17.198122	6.047633	106429	-6.663047E-11	-1.500815E+10	18.786875	0.709793	0	0
0	0	0	4.126612	6.047574	-17.63137	6.047574	89867.5	-6.143425E-11	-1.627756E+10	18.422376	0.715531	0	0
0	0	0	3.797877	6.047574	-18.086782	6.047574	75236	-5.143202E-11	-1.944314E+10	18.680381	0.708725	0	0
0	0	0	3.473594	6.047593	-18.536101	6.047593	63138.5	-4.187875E-11	-2.387846E+10	18.547948	0.709872	0	0
0	0	0	3.139387	6.047633	-18.99924	6.047633	52702.5	-3.29947E-11	-3.03079E+10	18.547313	0.708329	0	0
0	0	0	2.793215	6.04772	-19.479129	6.04772	43708	-2.439677E-11	-4.098903E+10	18.666495	0.705045	0	0
0	0	0	2.431648	6.047613	-19.979635	6.047613	35948	-2.315527E-11	-4.318672E+10	18.422826	0.708171	0	0
0	0	0	2.049213	6.047427	-20.508747	6.047427	29234	-2.577728E-11	-3.879385E+10	18.750916	0.700731	0	0
0	0	0	1.67221	6.047673	-21.031949	6.047673	23844	-1.413435E-11	-7.074964E+10	18.345134	0.706905	0	0
0	0	0	1.354011	6.047401	-21.471738	6.047401	20076	-1.868697E-11	-5.351322E+10	18.78307	0.697012	0	0
0	0	0	1.08792	6.047294	-21.839962	6.047294	17386	-2.08151E-11	-4.804205E+10	18.357264	0.703699	0	0
0	0	0	0.864054	6.0477	-22.151634	6.0477	15404.5	-8.819088E-12	-1.133904E+11	18.718594	0.695548	0	0
0	0	0	0.676777	6.047673	-22.410977	6.047673	13921.5	-8.252446E-12	-1.211762E+11	18.444555	0.699742	0	0
0	0	0	0.522987	6.047574	-22.62365	6.047574	12811	-8.757718E-12	-1.14185E+11	18.592256	0.69531	0	0
0	0	0	0.39137	6.047274	-22.804838	6.047274	11931	-1.509426E-11	-6.625036E+10	18.574555	0.694716	0	0
0	0	0	0.283562	6.047474	-22.954955	6.047474	11255.5	-9.086589E-12	-1.100523E+11	18.465899	0.694677	0	0
0	0	0	0.192415	6.047447	-23.081122	6.047447	10714.5	-9.08836E-12	-1.100309E+11	18.708529	0.689414	0	0
0	0	0	0.116622	6.047653	-23.186915	6.047653	10284.5	-6.262909E-12	-1.596702E+11	18.363329	0.694242	0	0
0	0	0	0.055285	6.047467	-23.27117	6.047467	9949	-8.129917E-12	-1.230025E+11	18.775387	0.685694	0	0
0	0	0	0.004975	6.047414	-23.340663	6.047414	9682	-8.768216E-12	-1.140483E+11	18.319573	0.692738	0	0
0	0	0	-0.028307	6.047407	-23.386743	6.047407	9509.5	-8.730131E-12	-1.145458E+11	18.73597	0.683478	0	0
0	0	0	-0.065591	6.0476	-23.439139	6.0476	9319.5	-6.120812E-12	-1.63377E+11	18.363383	0.688741	0	0
0	0	0	-0.091767	6.047593	-23.475377	6.047593	9188.5	-6.094584E-12	-1.640801E+11	18.628528	0.68237	0	0
0	0	0	-0.106713	6.047447	-23.495517	6.047447	9115	-7.731616E-12	-1.293391E+11	18.482837	0.683874	0	0
0	0	0	-0.129296	6.047527	-23.52711	6.047527	9004	-6.629217E-12	-1.508474E+11	18.490031	0.682212	0	0
0	0	0	-0.149714	6.0477	-23.556065	6.0477	8905.5	-5.098406E-12	-1.961397E+11	18.602516	0.679125	0	0
0	0	0	-0.161843	6.04748	-23.572019	6.04748	8847	-7.057074E-12	-1.417018E+11	18.362907	0.681816	0	0
0	0	0	-0.168622	6.04754	-23.581641	6.04754	8815	-6.350343E-12	-1.574718E+11	18.694676	0.674614	0	0
0	0	0	-0.17393	6.04752	-23.588919	6.04752	8789.5	-6.543274E-12	-1.528287E+11	18.284783	0.68055	0	0
0	0	0	-0.180954	6.047474	-23.598469	6.047474	8756	-7.068737E-12	-1.41468E+11	18.732507	0.670894	0	0
0	0	0	-0.190183	6.047613	-23.611795	6.047613	8712.5	-5.612002E-12	-1.781895E+11	18.275327	0.678294	0	0
0	0	0	-0.199045	6.047667	-23.624277	6.047667	8671	-5.185966E-12	-1.928281E+11	18.654373	0.669509	0	0
0	0	0	-0.207702	6.047434	-23.63537	6.047434	8630.5	-7.511043E-12	-1.331373E+11	18.336511	0.674456	0	0
0	0	0	-0.214645	6.047427	-23.644961	6.047427	8598	-7.581345E-12	-1.319027E+11	18.528313	0.669034	0	0
0	0	0	-0.220688	6.047301	-23.652845	6.047301	8570	-1.007997E-11	-9.920666E+10	18.482273	0.668916	0	0
0	0	0	-0.225262	6.047494	-23.659928	6.047494	8549	-6.660591E-12	-1.501368E+11	18.390744	0.668916	0	0
0	0	0	-0.227916	6.047447	-23.663425	6.047447	8536.5	-7.240915E-12	-1.381041E+11	18.607776	0.664167	0	0
0	0	0	-0.232368	6.04764	-23.670338	6.04764	8516	-5.282078E-12	-1.893194E+11	18.275625	0.668718	0	0
0	0	0	-0.235022	6.04774	-23.674402	6.04774	8504	-4.630863E-12	-2.159425E+11	18.669878	0.66021	0	0
0	0	0	-0.237391	6.047554	-23.676962	6.047554	8493	-5.98943E-12	-1.669608E+11	18.226071	0.666858	0	0
0	0	0	-0.238452	6.047726	-23.679102	6.047726	8488	-4.698613E-12	-2.128288E+11	18.641269	0.657598	0	0
0	0	0	-0.239432	6.047487	-23.679533	6.047487	8483.5	-6.68741E-12	-1.495347E+11	18.261671	0.663534	0	0
0	0	0	-0.240127	6.047527	-23.680649	6.047527	8480.5	-6.243788E-12	-1.601592E+11	18.558271	0.656728	0	0
0	0	0	-0.240862	6.04752	-23.681641	6.04752	8477	-6.310635E-12	-1.584626E+11	18.375716	0.659339	0	0
0	0	0	-0.242128	6.047653	-23.68391	6.047653	8471.5	-5.158854E-12	-1.938415E+11	18.425138	0.656767	0	0
0	0	0	-0.24274	6.047593	-23.684527	6.047593	8468.5	-5.617019E-12	-1.780304E+11	18.487527	0.65463	0	0
0	0	0	-0.243148	6.047574	-23.685016	6.047574	8466.5	-5.787777E-12	-1.727779E+11	18.283103	0.656569	0	0
0	0	0	-0.244047	6.047494	-23.685951	6.047494	8462.5	-6.593198E-12	-1.516715E+11	18.597878	0.649803	0	0
0	0	0	-0.245272	6.047587	-23.688009	6.047587	8457	-5.665542E-12	-1.765056E+11	18.205765	0.655501	0	0
0	0	0	-0.245558	6.047527	-23.688173	6.047527	8456	-6.22575E-12	-1.606232E+11	18.622098	0.646676	0	0
0	0	0	-0.246375	6.04752	-23.689279	6.04752	8452	-6.292024E-12	-1.589314E+11	18.153103	0.654037	0	0
0	0	0	-0.247518	6.047554	-23.690992	6.047554	8446.5	-5.956638E-12	-1.678799E+11	18.57725	0.644737	0	0
0	0	0	-0.248253	6.047853	-23.693169	6.047853	8443.5	-4.0392E-12	-2.475738E+11	18.226055	0.650159	0	0
0	0	0	-0.249274	6.047886	-23.694713	6.047886	8438.5	-3.897512E-12	-2.565739E+11	18.472167	0.643867	0	0
0	0	0	-0.247926	6.04768	-23.692047	6.04768	8445	-4.962112E-12	-2.015271E+11	18.353682	0.645252	0	0
0	0	0	-0.248335	6.0476	-23.692303	6.0476	8443	-5.545149E-12	-1.803378E+11	18.329012	0.643906	0	0
0	0	0	-0.24956	6.047554	-23.69382	6.047554	8437	-5.949938E-12	-1.68069E+11	18.476861	0.640345	0	0
0	0	0	-0.24956	6.04776	-23.694619	6.04776	8437	-4.484902E-12	-2.229703E+11	18.175253	0.644183	0	0
0	0	0	-0.249437	6.047361	-23.692903	6.047361	8438	-8.569287E-12	-1.166958E+11	18.549592	0.636032	0	0
0	0	0	-0.249437	6.0476	-23.693831	6.0476	8438	-5.541865E-12	-1.804447E+11	18.124898	0.642363	0	0
0	0	0	-0.249111	6.047527	-23.693095	6.047527	8439.5	-6.213602E-12	-1.609372E+11	18.564641	0.633301	0	0
0	0	0	-0.249233	6.047547	-23.693342	6.047547	8439	-6.014728E-12	-1.662586E+11	18.129602	0.639989	0	0
0	0	0	-0.249029	6.047341	-23.69226	6.047341	8440	-8.980125E-12	-1.11357E+11	18.469216	0.632391	0	0
0	0	0	-0.249805	6.04756	-23.694185	6.04756	8436.5	-5.887546E-12	-1.698501E+11	18.191833	0.63615	0	0
0	0	0	-0.249437	6.047534	-23.693573	6.047534	8438	-6.144897E-12	-1.627367E+11	18.334676	0.631797	0	0
0	0	0	-0.248743	6.047494	-23.692457	6.047494	8441	-6.576447E-12	-1.520578E+11	18.318659	0.631006	0	0
0	0	0	-0.249151	6.047454	-23.692868	6.047454	8439.5	-7.069042E-12	-1.414619E+11	18.192222	0.6316	0	0
0	0	0	-0.248253	6.047381	-23.69134	6.047381	8443.5	-8.201511E-12	-1.219287E+11	18.431043	0.626336	0	0
0	0	0	-0.249846	6.047773	-23.695067	6.047773	8436	-4.414247E-12	-2.265392E+11	18.051028	0.631481	0	0
0	0	0	-0.249356	6.0477	-23.694104	6.0477	8438.5	-4.831048E-12	-2.069944E+11	18.453138	0.622854	0	0
0	0	0	-0.249887	6.047607	-23.694479	6.047607	8436	-5.486707E-12	-1.822587E+11	17.996361	0.629819	0	0
0	0	0	-0.250907	6.047487	-23.69543	6.047487	8431.5	-6.64642E-12	-1.504569E+11	18.458566	0.620084	0	0
0	0	0	-0.250254	6.0475	-23.694576	6.0475	8434.5	-6.495763E-12	-1.539465E+11	18.040982	0.626574	0	0
0	0	0	-0.250907	6.04768	-23.696177	6.04768	8431.5	-4.954179E-12	-2.018498E+11	18.361269	0.619134	0	0
0	0	0	-0.251642	6.047753	-23.697479	6.047753	8428	-4.515987E-12	-2.214355E+11	18.137817	0.6223	0	0
0	0	0	-0.251887	6.047407	-23.696478	6.047407	8426.5	-7.73589E-12	-1.292676E+11	18.195482	0.61953	0	0
0	0	0	-0.250907	6.047401	-23.695095	6.047401	8431.5	-7.848137E-12	-1.274188E+11	18.231814	0.617947	0	0
0	0	0	-0.250948	6.047587	-23.695873	6.047587	8431	-5.648124E-12	-1.770499E+11	18.059078	0.619055	0	0
0	0	0	-0.251071	6.047574	-23.695991	6.047574	8430.5	-5.763168E-12	-1.735157E+11	18.367072	0.612803	0	0
0	0	0	-0.252827	6.047633	-23.698655	6.047633	8422.5	-5.272953E-12	-1.89647E+11	17.975157	0.618462	0	0
0	0	0	-0.252786	6.047514	-23.698135	6.047514	8422.5	-6.340593E-12	-1.57714E+11	18.402456	0.609835	0	0
0	0	0	-0.25152	6.047447	-23.696123	6.047447	8428.5	-7.149306E-12	-1.398737E+11	17.93784	0.616879	0	0
0	0	0	-0.252092	6.047746	-23.698075	6.047746	8426	-4.551355E-12	-2.197148E+11	18.349857	0.608094	0	0
0	0	0	-0.251234	6.047726	-23.69681	6.047726	8429.5	-4.66623E-12	-2.143058E+11	17.967898	0.613317	0	0
0	0	0	-0.253235	6.047507	-23.698731	6.047507	8420.5	-6.411204E-12	-1.559769E+11	18.238779	0.606946	0	0
0	0	0	-0.25348	6.047374	-23.698556	6.047374	8419.5	-8.298644E-12	-1.205016E+11	18.087676	0.608687	0	0
0	0	0	-0.253194	6.047866	-23.700066	6.047866	8421	-3.971658E-12	-2.51784E+11	18.092801	0.607105	0	0
0	0	0	-0.253113	6.047733	-23.699438	6.047733	8421	-4.623284E-12	-2.162965E+11	18.191683	0.604493	0	0
0	0	0	-0.252418	6.047574	-23.697858	6.047574	8424.5	-5.759066E-12	-1.736393E+11	17.949626	0.607105	0	0
0	0	0	-0.2525	6.047607	-23.6981	6.047607	8424	-5.478903E-12	-1.825183E+11	18.284053	0.600021	0	0
0	0	0	-0.252296	6.047507	-23.69743	6.047507	8425	-6.41463E-12	-1.558936E+11	17.857773	0.606234	0	0
0	0	0	-0.252949	6.047394	-23.697897	6.047394	8422	-7.949862E-12	-1.257883E+11	18.323326	0.596776	0	0
0	0	0	-0.253194	6.047673	-23.699319	6.047673	8421	-4.991836E-12	-2.003271E+11	17.841682	0.604176	0	0
0	0	0	-0.253848	6.047554	-23.69976	6.047554	8418	-5.936539E-12	-1.684483E+11	18.236834	0.595668	0	0
0	0	0	-0.254134	6.047494	-23.699925	6.047494	8416.5	-6.557359E-12	-1.525004E+11	17.873654	0.601129	0	0
0	0	0	-0.253766	6.04766	-23.70006	6.04766	8418	-5.08005E-12	-1.968485E+11	18.111722	0.595154	0	0
0	0	0	-0.254705	6.047806	-23.701928	6.047806	8414	-4.237094E-12	-2.360108E+11	18.013397	0.596183	0	0
0	0	0	-0.255114	6.047394	-23.700896	6.047394	8412	-7.940423E-12	-1.259379E+11	17.997829	0.595154	0	0
0	0	0	-0.254093	6.047839	-23.701208	6.047839	8416.5	-4.084678E-12	-2.448173E+11	18.159018	0.591632	0	0
0	0	0	-0.254909	6.047593	-23.701386	6.047593	8413	-5.580207E-12	-1.792048E+11	17.862528	0.595273	0	0
0	0	0	-0.255481	6.047607	-23.70223	6.047607	8410.5	-5.470122E-12	-1.828113E+11	18.215325	0.58811	0	0
0	0	0	-0.255154	6.047819	-23.702602	6.047819	8412	-4.173284E-12	-2.396195E+11	17.768226	0.594402	0	0
0	0	0	-0.256502	6.047613	-23.70367	6.047613	8406	-5.414576E-12	-1.846867E+11	18.232616	0.585221	0	0
0	0	0	-0.25495	6.047447	-23.700876	6.047447	8413	-7.136159E-12	-1.401314E+11	17.788929	0.59183	0	0
0	0	0	-0.254501	6.047454	-23.700279	6.047454	8415	-7.04852E-12	-1.418738E+11	18.171379	0.583876	0	0
0	0	0	-0.255808	6.047773	-23.703326	6.047773	8409	-4.400119E-12	-2.272666E+11	17.853216	0.588427	0	0
0	0	0	-0.256175	6.04758	-23.703088	6.04758	8407	-5.688992E-12	-1.75778E+11	18.034338	0.583876	0	0
0	0	0	-0.254583	6.047474	-23.70047	6.047474	8414.5	-6.793043E-12	-1.472094E+11	17.947456	0.584153	0	0
0	0	0	-0.255808	6.047467	-23.702141	6.047467	8409	-6.871492E-12	-1.455288E+11	17.889191	0.583757	0	0
0	0	0	-0.25446	6.0477	-23.701176	6.0477	8415	-4.817594E-12	-2.075725E+11	18.084702	0.579365	0	0
0	0	0	-0.25446	6.04754	-23.700557	6.04754	8415	-6.062183E-12	-1.649571E+11	17.7544	0.583797	0	0
0	0	0	-0.253276	6.047507	-23.698788	6.047507	8420.5	-6.411204E-12	-1.559769E+11	18.138185	0.57612	0	0
0	0	0	-0.253113	6.047367	-23.698021	6.047367	8421	-8.42419E-12	-1.187058E+11	17.666385	0.582926	0	0
0	0	0	-0.254256	6.047454	-23.69994	6.047454	8416	-7.049358E-12	-1.418569E+11	18.131946	0.573548	0	0
0	0	0	-0.253929	6.047547	-23.699848	6.047547	8417.5	-5.999404E-12	-1.666832E+11	17.665234	0.580394	0	0
0	0	0	-0.255522	6.047813	-23.703085	6.047813	8410	-4.203451E-12	-2.378997E+11	18.068251	0.572084	0	0
0	0	0	-0.254174	6.047667	-23.700651	6.047667	8416.5	-5.033755E-12	-1.986589E+11	17.776078	0.576397	0	0
0	0	0	-0.25446	6.04772	-23.701253	6.04772	8415	-4.697054E-12	-2.128994E+11	17.964071	0.571886	0	0
0	0	0	-0.253603	6.047813	-23.700426	6.047813	8419	-4.20795E-12	-2.376454E+11	17.878796	0.572638	0	0
0	0	0	-0.254583	6.047361	-23.700031	6.047361	8414.5	-8.545422E-12	-1.170217E+11	17.774501	0.572519	0	0
0	0	0	-0.255195	6.04768	-23.702117	6.04768	8411.5	-4.942428E-12	-2.023297E+11	17.972457	0.568285	0	0
0	0	0	-0.255399	6.047527	-23.701807	6.047527	8411	-6.192619E-12	-1.614826E+11	17.677099	0.571767	0	0
0	0	0	-0.256339	6.047613	-23.703443	6.047613	8406.5	-5.414898E-12	-1.846757E+11	18.066349	0.564407	0	0
0	0	0	-0.255522	6.047667	-23.702518	6.047667	8410	-5.029867E-12	-1.988124E+11	17.608485	0.570896	0	0
0	0	0	-0.256829	6.047673	-23.704354	6.047673	8404.5	-4.982055E-12	-2.007204E+11	18.050634	0.562072	0	0
0	0	0	-0.255195	6.04778	-23.702504	6.04778	8411.5	-4.367281E-12	-2.289754E+11	17.587013	0.568641	0	0
0	0	0	-0.256665	6.047633	-23.703973	6.047633	8405	-5.261997E-12	-1.900419E+11	17.955303	0.560964	0	0
0	0	0	-0.254991	6.04758	-23.701448	6.04758	8412.5	-5.692714E-12	-1.756631E+11	17.667738	0.564921	0	0
0	0	0	-0.255767	6.047547	-23.702394	6.047547	8409	-5.993346E-12	-1.668517E+11	17.859452	0.56037	0	0
0	0	0	-0.2574	6.047494	-23.70445	6.047494	8401.5	-6.545672E-12	-1.527727E+11	17.794574	0.560766	0	0
0	0	0	-0.257564	6.047647	-23.705269	6.047647	8401	-5.1629E-12	-1.936896E+11	17.677231	0.561003	0	0
0	0	0	-0.257441	6.047853	-23.705899	6.047853	8401.5	-4.019108E-12	-2.488114E+11	17.87688	0.556413	0	0
0	0	0	-0.255726	6.047554	-23.702363	6.047554	8409.5	-5.930544E-12	-1.686186E+11	17.53708	0.560766	0	0
0	0	0	-0.255522	6.047567	-23.702131	6.047567	8410	-5.808484E-12	-1.72162E+11	17.940535	0.552654	0	0
0	0	0	-0.255971	6.047673	-23.703166	6.047673	8408	-4.98413E-12	-2.006368E+11	17.46802	0.5595	0	0
0	0	0	-0.257564	6.04758	-23.705012	6.04758	8401	-5.684932E-12	-1.759036E+11	17.959415	0.55028	0	0
0	0	0	-0.257768	6.04754	-23.70514	6.04754	8400	-6.051377E-12	-1.652517E+11	17.458022	0.55764	0	0
0	0	0	-0.25736	6.047574	-23.704703	6.047574	8402	-5.743685E-12	-1.741043E+11	17.864153	0.549211	0	0
0	0	0	-0.257564	6.047514	-23.704754	6.047514	8401	-6.324407E-12	-1.581176E+11	17.532183	0.554078	0	0
0	0	0	-0.256012	6.047613	-23.702991	6.047613	8408	-5.415864E-12	-1.846427E+11	17.747865	0.548855	0	0
0	0	0	-0.257155	6.04758	-23.704446	6.04758	8403	-5.686286E-12	-1.758617E+11	17.662356	0.549488	0	0
0	0	0	-0.256747	6.0476	-23.703958	6.0476	8404.5	-5.519863E-12	-1.811639E+11	17.603159	0.549092	0	0
0	0	0	-0.258095	6.047726	-23.706314	6.047726	8398.5	-4.649069E-12	-2.150968E+11	17.773936	0.545531	0	0
0	0	0	-0.259442	6.047647	-23.707872	6.047647	8392.5	-5.157676E-12	-1.938858E+11	17.455996	0.54933	0	0
0	0	0	-0.259156	6.04754	-23.707063	6.04754	8393.5	-6.046694E-12	-1.653796E+11	17.827308	0.542049	0	0
0	0	0	-0.260749	6.04772	-23.709966	6.04772	8386.5	-4.681146E-12	-2.136229E+11	17.382382	0.548301	0	0
0	0	0	-0.259891	6.047687	-23.708649	6.047687	8390.5	-4.887181E-12	-2.046169E+11	17.8653	0.539081	0	0
0	0	0	-0.259932	6.047633	-23.708499	6.047633	8390	-5.252606E-12	-1.903817E+11	17.389059	0.546204	0	0
0	0	0	-0.259401	6.047487	-23.707197	6.047487	8392.5	-6.615677E-12	-1.511561E+11	17.807055	0.537854	0	0
0	0	0	-0.258299	6.04778	-23.706803	6.04778	8397.5	-4.360012E-12	-2.293572E+11	17.440117	0.54288	0	0
0	0	0	-0.259156	6.047773	-23.707965	6.047773	8393.5	-4.392008E-12	-2.276863E+11	17.630532	0.538091	0	0
0	0	0	-0.25981	6.04756	-23.708046	6.04756	8391	-5.855793E-12	-1.707711E+11	17.537212	0.538566	0	0
0	0	0	-0.258217	6.047613	-23.706046	6.047613	8398	-5.409423E-12	-1.848626E+11	17.494094	0.537933	0	0
0	0	0	-0.258585	6.047434	-23.705859	6.047434	8396.5	-7.307395E-12	-1.368477E+11	17.657922	0.534332	0	0
0	0	0	-0.257482	6.04766	-23.705208	6.04766	8401.5	-5.070093E-12	-1.972351E+11	17.345699	0.538289	0	0
0	0	0	-0.257033	6.047926	-23.705616	6.047926	8403.5	-3.727019E-12	-2.68311E+11	17.72912	0.530771	0	0
0	0	0	-0.257441	6.047454	-23.704352	6.047454	8401.5	-7.037212E-12	-1.421017E+11	17.251526	0.537617	0	0
0	0	0	-0.257196	6.047693	-23.704941	6.047693	8402.5	-4.851943E-12	-2.06103E+11	17.712057	0.528475	0	0
0	0	0	-0.257115	6.047514	-23.704132	6.047514	8403	-6.325913E-12	-1.5808E+11	17.238563	0.53544	0	0
0	0	0	-0.258135	6.047407	-23.705134	6.047407	8398.5	-7.710185E-12	-1.296986E+11	17.68788	0.526536	0	0
0	0	0	-0.258748	6.047706	-23.707142	6.047706	8395.5	-4.765663E-12	-2.098344E+11	17.30405	0.532314	0	0
0	0	0	-0.257278	6.047992	-23.706213	6.047992	8402	-3.494759E-12	-2.861428E+11	17.545128	0.526893	0	0
0	0	0	-0.255685	6.04756	-23.702332	6.04756	8409.5	-5.868704E-12	-1.703954E+11	17.386459	0.528555	0	0
0	0	0	-0.2574	6.047673	-23.705146	6.047673	8401.5	-4.980277E-12	-2.00792E+11	17.407696	0.526655	0	0
0	0	0	-0.257237	6.047653	-23.704843	6.047653	8402.5	-5.116835E-12	-1.954333E+11	17.518232	0.524558	0	0
0	0	0	-0.25691	6.047706	-23.704596	6.047706	8404	-4.770488E-12	-2.096221E+11	17.291658	0.526497	0	0
0	0	0	-0.259075	6.047474	-23.706693	6.047474	8394	-6.776494E-12	-1.475689E+11	17.630509	0.520403	0	0
0	0	0	-0.259524	6.047753	-23.708397	6.047753	8392	-4.496697E-12	-2.223854E+11	17.195768	0.526339	0	0
0	0	0	-0.258381	6.047527	-23.705937	6.047527	8397	-6.182311E-12	-1.617518E+11	17.64035	0.51791	0	0
0	0	0	-0.260096	6.047647	-23.708777	6.047647	8389.5	-5.155833E-12	-1.939551E+11	17.133742	0.525191	0	0
0	0	0	-0.258381	6.04756	-23.706066	6.04756	8397	-5.85998E-12	-1.70649E+11	17.606397	0.515931	0	0
0	0	0	-0.258054	6.047441	-23.705149	6.047441	8398.5	-7.215308E-12	-1.385942E+11	17.199618	0.521907	0	0
0	0	0	-0.25932	6.047567	-23.707393	6.047567	8393	-5.796743E-12	-1.725107E+11	17.513725	0.515694	0	0
0	0	0	-0.259401	6.04766	-23.707867	6.04766	8392.5	-5.064661E-12	-1.974466E+11	17.284132	0.518266	0	0
0	0	0	-0.259891	6.04772	-23.708778	6.04772	8390.5	-4.683379E-12	-2.135211E+11	17.318583	0.516129	0	0
0	0	0	-0.260627	6.04752	-23.709023	6.04752	8387	-6.243636E-12	-1.601631E+11	17.362328	0.514388	0	0
0	0	0	-0.259116	6.047587	-23.707187	6.047587	8394	-5.623337E-12	-1.778304E+11	0	0	0	0
0	0	0	-0.258503	6.047607	-23.706416	6.047607	8396.5	-5.461017E-12	-1.831161E+11	0	0	0	0
0	0	0	-0.259156	6.04776	-23.707914	6.04776	8393.5	-4.461778E-12	-2.241259E+11	0	0	0	0
0	0	0	-0.259116	6.047713	-23.707677	6.047713	8394	-4.724738E-12	-2.11652E+11	0	0	0	0
0	0	0	-0.258626	6.047813	-23.707385	6.047813	8396	-4.196454E-12	-2.382964E+11	0	0	0	0
0	0	0	-0.261443	6.047534	-23.710206	6.047534	8383.5	-6.105208E-12	-1.637946E+11	0	0	0	0
0	0	0	-0.261321	6.047706	-23.710706	6.047706	8384	-4.759135E-12	-2.101222E+11	0	0	0	0
0	0	0	-0.258993	6.047906	-23.708255	6.047906	8394.5	-3.798545E-12	-2.632587E+11	0	0	0	0
0	0	0	-0.259565	6.04776	-23.70848	6.04776	8392	-4.460981E-12	-2.24166E+11	0	0	0	0
0	0	0	-0.258217	6.047833	-23.706896	6.047833	8398	-4.105471E-12	-2.435774E+11	0	0	0	0
0	0	0	-0.25981	6.047514	-23.707865	6.047514	8391	-6.316879E-12	-1.58306E+11	0	0	0	0
0	0	0	-0.259932	6.047547	-23.708164	6.047547	8390	-5.979804E-12	-1.672296E+11	0	0	0	0
0	0	0	-0.260463	6.047667	-23.709363	6.047667	8388	-5.016709E-12	-1.993339E+11	0	0	0	0
0	0	0	-0.262219	6.04754	-23.711306	6.04754	8380	-6.036968E-12	-1.656461E+11	0	0	0	0
0	0	0	-0.262546	6.04778	-23.712687	6.04778	8378.5	-4.350147E-12	-2.298773E+11	0	0	0	0
0	0	0	-0.260136	6.047687	-23.708988	6.047687	8389.5	-4.886598E-12	-2.046413E+11	0	0	0	0
0	0	0	-0.261729	6.047932	-23.712148	6.047932	8382	-3.69301E-12	-2.707818E+11	0	0	0	0
0	0	0	-0.262628	6.047826	-23.71298	6.047826	8378	-4.125832E-12	-2.423754E+11	0	0	0	0
0	0	0	-0.262423	6.04758	-23.711744	6.04758	8379	-5.670045E-12	-1.763654E+11	0	0	0	0
0	0	0	-0.262178	6.047733	-23.711997	6.047733	8380	-4.600774E-12	-2.173547E+11	0	0	0	0
0	0	0	-0.263934	6.047886	-23.715023	6.047886	8372	-3.866798E-12	-2.586119E+11	0	0	0	0
0	0	0	-0.261076	6.0478	-23.710727	6.0478	8385	-4.254503E-12	-2.350451E+11	0	0	0	0
0	0	0	-0.261729	6.047627	-23.710963	6.047627	8382	-5.29715E-12	-1.887807E+11	0	0	0	0
0	0	0	-0.26128	6.0477	-23.710624	6.0477	8384	-4.799847E-12	-2.0834E+11	0	0	0	0
0	0	0	-0.259565	6.047387	-23.707036	6.047387	8392	-8.034871E-12	-1.244575E+11	0	0	0	0
0	0	0	-0.260749	6.047547	-23.709295	6.047547	8386.5	-5.97731E-12	-1.672993E+11	0	0	0	0
0	0	0	-0.259606	6.047693	-23.708278	6.047693	8391.5	-4.845591E-12	-2.063732E+11	0	0	0	0
0	0	0	-0.259565	6.047587	-23.70781	6.047587	8392	-5.621997E-12	-1.778727E+11	0	0	0	0
0	0	0	-0.259891	6.047706	-23.708726	6.047706	8390.5	-4.762825E-12	-2.099594E+11	0	0	0	0
0	0	0	-0.259932	6.047627	-23.708473	6.047627	8390	-5.302206E-12	-1.886007E+11	0	0	0	0
0	0	0	-0.257931	6.047593	-23.705572	6.047593	8399.5	-5.571253E-12	-1.794928E+11	0	0	0	0
0	0	0	-0.258503	6.04756	-23.706236	6.04756	8396.5	-5.859631E-12	-1.706592E+11	0	0	0	0
0	0	0	-0.259483	6.04772	-23.708212	6.04772	8392	-4.684216E-12	-2.134829E+11	0	0	0	0
0	0	0	-0.259728	6.047866	-23.709118	6.047866	8391	-3.957509E-12	-2.526842E+11	0	0	0	0
0	0	0	-0.258871	6.047587	-23.706848	6.047587	8395	-5.624007E-12	-1.778092E+11	0	0	0	0
0	0	0	-0.260218	6.047474	-23.708277	6.047474	8389	-6.772457E-12	-1.476569E+11	0	0	0	0
0	0	0	-0.261402	6.047753	-23.711	6.047753	8383.5	-4.492143E-12	-2.226109E+11	0	0	0	0
0	0	0	-0.260341	6.047567	-23.708807	6.047567	8388.5	-5.793635E-12	-1.726032E+11	0	0	0	0
0	0	0	-0.259932	6.047773	-23.70904	6.047773	8390	-4.390177E-12	-2.277813E+11	0	0	0	0
0	0	0	-0.26079	6.047374	-23.708682	6.047374	8386.5	-8.266118E-12	-1.209758E+11	0	0	0	0
0	0	0	-0.261321	6.047673	-23.710577	6.047673	8384	-4.969903E-12	-2.012112E+11	0	0	0	0
0	0	0	-0.262546	6.047613	-23.712042	6.047613	8378.5	-5.396862E-12	-1.852929E+11	0	0	0	0
0	0	0	-0.262015	6.047773	-23.711926	6.047773	8381	-4.385468E-12	-2.280259E+11	0	0	0	0
0	0	0	-0.261811	6.04766	-23.711205	6.04766	8381.5	-5.058023E-12	-1.977057E+11	0	0	0	0
0	0	0	-0.26177	6.04756	-23.710761	6.04756	8382	-5.849512E-12	-1.709544E+11	0	0	0	0
0	0	0	-0.26128	6.047547	-23.710031	6.047547	8384	-5.975528E-12	-1.673492E+11	0	0	0	0
0	0	0	-0.26079	6.04766	-23.70979	6.04766	8386.5	-5.06104E-12	-1.975878E+11	0	0	0	0
0	0	0	-0.262056	6.047653	-23.711518	6.047653	8380.5	-5.103438E-12	-1.959463E+11	0	0	0	0
0	0	0	-0.261035	6.047786	-23.710619	6.047786	8385	-4.320008E-12	-2.314811E+11	0	0	0	0
0	0	0	-0.261239	6.047786	-23.710902	6.047786	8384.5	-4.31975E-12	-2.314949E+11	0	0	0	0
0	0	0	-0.262464	6.047886	-23.712986	6.047886	8378.5	-3.8698E-12	-2.584113E+11	0	0	0	0
0	0	0	-0.262546	6.047647	-23.712171	6.047647	8378.5	-5.149072E-12	-1.942097E+11	0	0	0	0
0	0	0	-0.261647	6.047647	-23.710927	6.047647	8382.5	-5.151531E-12	-1.941171E+11	0	0	0	0
0	0	0	-0.25981	6.0478	-23.708974	6.0478	8391	-4.257548E-12	-2.34877E+11	0	0	0	0
0	0	0	-0.261402	6.047633	-23.710536	6.047633	8383.5	-5.248537E-12	-1.905293E+11	0	0	0	0
0	0	0	-0.262505	6.047733	-23.71245	6.047733	8378.5	-4.599951E-12	-2.173936E+11	0	0	0	0
0	0	0	-0.261933	6.047633	-23.711271	6.047633	8381	-5.246972E-12	-1.905861E+11	0	0	0	0
0	0	0	-0.262015	6.047899	-23.712415	6.047899	8381	-3.818253E-12	-2.618999E+11	0	0	0	0
0	0	0	-0.263771	6.047687	-23.714023	6.047687	8373	-4.876988E-12	-2.050446E+11	0	0	0	0
0	0	0	-0.264424	6.047673	-23.714877	6.047673	8370	-4.961604E-12	-2.015477E+11	0	0	0	0
0	0	0	-0.263199	6.047846	-23.71385	6.047846	8375.5	-4.035516E-12	-2.477998E+11	0	0	0	0
0	0	0	-0.262546	6.047833	-23.712893	6.047833	8378.5	-4.095939E-12	-2.441443E+11	0	0	0	0
0	0	0	-0.264669	6.047387	-23.714108	6.047387	8368.5	-8.012371E-12	-1.24807E+11	0	0	0	0
0	0	0	-0.264179	6.047773	-23.714924	6.047773	8371	-4.380235E-12	-2.282983E+11	0	0	0	0
0	0	0	-0.265037	6.047873	-23.716499	6.047873	8367	-3.918575E-12	-2.551948E+11	0	0	0	0
0	0	0	-0.265609	6.047667	-23.716492	6.047667	8364.5	-5.002654E-12	-1.998939E+11	0	0	0	0
0	0	0	-0.262913	6.047746	-23.713067	6.047746	8376.5	-4.524618E-12	-2.210131E+11	0	0	0	0
0	0	0	-0.261688	6.047713	-23.711241	6.047713	8382	-4.717983E-12	-2.11955E+11	0	0	0	0
0	0	0	-0.26275	6.047653	-23.71248	6.047653	8377.5	-5.101611E-12	-1.960165E+11	0	0	0	0
0	0	0	-0.263893	6.04772	-23.714322	6.04772	8372	-4.673052E-12	-2.139929E+11	0	0	0	0
0	0	0	-0.264383	6.047687	-23.714872	6.047687	8370	-4.87524E-12	-2.051181E+11	0	0	0	0
0	0	0	-0.261974	6.047726	-23.711689	6.047726	8381	-4.639382E-12	-2.155459E+11	0	0	0	0
0	0	0	-0.260953	0	-0.260953	0	8385.5	0	0	0	0	0	0
0	0	0	-0.261852	0	-0.261852	0	8381.5	0	0	0	0	0	0
