Vload_(V)	ILoad_(A)	RsLoad (ohm)	SunsVoc_Voltage_(V)	SunsVoc_Current_(A)	Model_Voltage_(V)	Model_Current_(A)	Carrier_Density_(cm-3)	Lifetime_(s)	Inverse_Lifetime_(s-1)	Efficiency_(%)	Intensity_(suns)	Dark_IV_Voltage_(V)	Dark_IV_Current_(A)
3.311257	5.993715	0	51.805607	-0.734744	52.228181	-0.734744	7.222619E+15	0.000478	2007.578731	18.956956	1.155272	0	0
3.221013	5.996105	-0.544553	52.376666	-0.976069	52.913714	-0.976069	8.859861E+15	0.000565	1638.110552	19.037924	1.153964	0	0
3.3055	5.996632	-0.558155	52.495296	-0.749248	52.903667	-0.749248	9.236201E+15	0.000609	1499.543982	18.979697	1.154796	0	0
6.026347	5.992976	2.817134	52.455929	-0.362426	52.654089	-0.362426	9.109857E+15	0.000638	1430.699249	18.933475	1.153686	0	0
11.124837	5.96553	4.641465	52.357881	0.05324	52.328544	0.05324	8.801465E+15	0.000659	1388.660614	19.000569	1.153289	0	0
15.526559	5.961451	3.98526	52.239904	0.436291	51.997246	0.436291	8.442032E+15	0.000676	1361.548089	18.855163	1.152338	0	0
19.869724	5.953744	3.382855	52.119558	0.778489	51.682489	0.778489	8.088115E+15	0.00069	1340.905368	18.99248	1.151306	0	0
24.179816	5.947864	2.738739	51.99762	1.10451	51.371636	1.10451	7.742237E+15	0.000704	1320.088662	18.779555	1.151108	0	0
28.40956	5.945466	2.056932	51.873681	1.41897	51.061802	1.41897	7.403408E+15	0.00072	1298.094377	18.938748	1.149323	0	0
32.737054	5.941005	1.378852	51.738267	1.716014	50.746293	1.716014	7.04741E+15	0.000733	1282.052279	18.741178	1.149641	0	0
37.040331	5.9015	0.955143	51.610653	1.986749	50.451114	1.986749	6.725058E+15	0.000747	1264.328231	18.841075	1.147777	0	0
38.086257	5.870795	0.924933	51.482794	2.237804	50.164247	2.237804	6.414462E+15	0.00076	1247.97513	18.74405	1.148213	0	0
39.150437	5.826644	0.893715	51.359957	2.470642	49.890978	2.470642	6.12737E+15	0.000774	1230.202794	18.749415	1.146508	0	0
40.206512	5.765243	0.863095	51.229566	2.691629	49.613882	2.691629	5.83436E+15	0.000786	1215.78714	18.766181	1.146547	0	0
41.257668	5.681764	0.829994	51.103462	2.894348	49.35017	2.894348	5.562126E+15	0.000798	1201.278298	18.652788	1.145913	0	0
42.298346	5.564719	0.801032	50.978094	3.085413	49.092185	3.085413	5.301996E+15	0.000811	1186.418049	18.781343	1.145357	0	0
43.351124	5.404922	0.768914	50.855258	3.258842	48.845878	3.258842	5.056977E+15	0.000823	1173.281838	18.597152	1.145595	0	0
44.388034	5.198208	0.732602	50.730379	3.422453	48.601472	3.422453	4.817578E+15	0.000833	1161.275151	18.78703	1.14389	0	0
45.403408	4.930299	0.696885	50.603663	3.574162	48.360628	3.574162	4.584337E+15	0.000843	1151.566601	18.599222	1.144564	0	0
46.388998	4.590003	0.665332	50.484951	3.711748	48.136347	3.711748	4.374405E+15	0.000853	1140.922891	18.76595	1.142423	0	0
47.339496	4.151735	0.646614	50.358481	3.845822	47.90382	3.845822	4.159597E+15	0.000861	1132.06753	18.636052	1.143097	0	0
48.292994	3.615775	0.62298	50.235562	3.969355	47.680768	3.969355	3.959299E+15	0.00087	1123.351957	18.7083	1.141153	0	0
49.181324	2.99022	0.616366	50.111174	4.088424	47.457556	4.088424	3.764845E+15	0.000879	1114.114463	18.700346	1.141114	0	0
50.024153	2.322726	0.610394	49.982171	4.199772	47.232646	4.199772	3.571655E+15	0.000886	1107.920541	18.663362	1.139131	0	0
50.81844	1.590692	0.63422	49.860478	4.301313	47.021638	4.301313	3.397074E+15	0.000893	1100.772781	18.758016	1.138338	0	0
51.498754	0.910671	0.632073	49.734947	4.398836	46.807651	4.398836	3.224529E+15	0.000899	1094.608674	18.611427	1.137227	0	0
42.233746	5.576424	0.798475	49.615541	4.487748	46.605697	4.487748	3.067288E+15	0.000906	1088.086932	18.786417	1.135046	0	0
52.279645	0	0	49.49054	4.572309	46.399048	4.572309	2.909642E+15	0.000911	1084.11944	18.583654	1.134887	0	0
0	0	0	49.368847	4.649141	46.200722	4.649141	2.762789E+15	0.000914	1081.358655	18.759152	1.13223	0	0
0	0	0	49.251687	4.719984	46.01116	4.719984	2.627379E+15	0.000918	1078.341376	18.60981	1.131595	0	0
0	0	0	49.129013	4.788208	45.81602	4.788208	2.491675E+15	0.000919	1077.296558	18.71221	1.128819	0	0
0	0	0	49.011241	4.851487	45.629537	4.851487	2.367052E+15	0.000922	1075.4679	18.646832	1.128304	0	0
0	0	0	48.891957	4.911582	45.442803	4.911582	2.246297E+15	0.000923	1074.566861	18.636696	1.125924	0	0
0	0	0	48.771734	4.968905	45.256263	4.968905	2.129971E+15	0.000925	1074.056579	18.681688	1.124972	0	0
0	0	0	48.652818	5.022662	45.073255	5.022662	2.020046E+15	0.000925	1073.848071	18.556426	1.123703	0	0
0	0	0	48.533534	5.074074	44.890925	5.074074	1.914736E+15	0.000926	1073.60998	18.706119	1.121958	0	0
0	0	0	48.414169	5.123153	44.709647	5.123153	1.814151E+15	0.000927	1073.281009	18.516623	1.121363	0	0
0	0	0	48.295171	5.167969	44.531412	5.167969	1.718484E+15	0.000926	1075.271013	18.691734	1.11934	0	0
0	0	0	48.176582	5.210138	44.355155	5.210138	1.627558E+15	0.000924	1077.877587	18.520011	1.119142	0	0
0	0	0	48.057992	5.249314	44.180672	5.249314	1.540879E+15	0.000921	1082.060396	18.665596	1.116683	0	0
0	0	0	47.93928	5.286434	44.007162	5.286434	1.458209E+15	0.000917	1086.816017	18.56223	1.116644	0	0
0	0	0	47.819997	5.322375	43.833447	5.322375	1.379114E+15	0.000914	1091.137608	18.615228	1.114343	0	0
0	0	0	47.700059	5.356728	43.659748	5.356728	1.30345E+15	0.00091	1095.750246	18.629654	1.113669	0	0
0	0	0	47.579183	5.388796	43.486266	5.388796	1.23096E+15	0.000905	1102.186756	18.577082	1.111488	0	0
0	0	0	47.459491	5.418854	43.315447	5.418854	1.162758E+15	0.0009	1109.143847	18.704029	1.109901	0	0
0	0	0	47.343229	5.446808	43.150179	5.446808	1.099782E+15	0.000895	1115.88183	18.545921	1.108632	0	0
0	0	0	47.22611	5.473748	42.984352	5.473748	1.03947E+15	0.000889	1122.696843	18.731493	1.106253	0	0
0	0	0	47.10552	5.498942	42.815307	5.498942	9.805165E+14	0.000882	1132.743983	18.542082	1.105618	0	0
0	0	0	46.989789	5.522415	42.653379	5.522415	9.268153E+14	0.000875	1141.7061	18.716859	1.102644	0	0
0	0	0	46.87026	5.545545	42.486768	5.545545	8.741832E+14	0.000868	1151.208086	18.571368	1.102049	0	0
0	0	0	46.754202	5.567178	42.325423	5.567178	8.257146E+14	0.000861	1160.101521	18.67256	1.099035	0	0
0	0	0	46.633816	5.587974	42.159143	5.587974	7.780606E+14	0.000853	1171.265038	18.624824	1.098083	0	0
0	0	0	46.512981	5.607429	41.993167	5.607429	7.327937E+14	0.000844	1184.111453	18.605023	1.095703	0	0
0	0	0	46.398802	5.625273	41.836583	5.625273	6.922746E+14	0.000836	1195.623171	18.667474	1.094394	0	0
0	0	0	46.279926	5.642535	41.674443	5.642535	6.523096E+14	0.000826	1209.524698	18.537991	1.092372	0	0
0	0	0	46.162113	5.65913	41.513997	5.65913	6.148338E+14	0.000817	1222.697023	18.699001	1.09023	0	0
0	0	0	46.044054	5.674789	41.353847	5.674789	5.793089E+14	0.000808	1237.020283	18.51664	1.089001	0	0
0	0	0	45.922239	5.689586	41.189563	5.689586	5.446799E+14	0.000797	1254.694116	18.702707	1.086304	0	0
0	0	0	45.806099	5.703186	41.033214	5.703186	5.134877E+14	0.000786	1271.458007	18.517291	1.086026	0	0
0	0	0	45.685713	5.716947	40.871285	5.716947	4.829406E+14	0.000776	1287.90675	18.658841	1.083171	0	0
0	0	0	45.564878	5.729605	40.709583	5.729605	4.540159E+14	0.000765	1307.351402	18.551367	1.082734	0	0
0	0	0	45.445757	5.741639	40.550426	5.741639	4.271178E+14	0.000754	1326.408746	18.605144	1.079918	0	0
0	0	0	45.320675	5.753454	40.383872	5.753454	4.005104E+14	0.000742	1348.267546	18.626691	1.078887	0	0
0	0	0	45.203106	5.764558	40.227208	5.764558	3.769501E+14	0.000732	1366.367577	18.557292	1.076706	0	0
0	0	0	45.077085	5.775097	40.060336	5.775097	3.53171E+14	0.000719	1391.32648	18.681762	1.075001	0	0
0	0	0	44.956045	5.785116	39.900043	5.785116	3.316917E+14	0.000707	1413.560126	18.525034	1.073494	0	0
0	0	0	44.83525	5.794553	39.740463	5.794553	3.115115E+14	0.000696	1437.063377	18.71416	1.071233	0	0
0	0	0	44.709964	5.803624	39.575478	5.803624	2.918329E+14	0.000683	1464.128048	18.53418	1.070202	0	0
0	0	0	44.588883	5.812065	39.416227	5.812065	2.739591E+14	0.000671	1490.412478	18.717473	1.06695	0	0
0	0	0	44.464822	5.820414	39.253232	5.820414	2.567458E+14	0.000659	1517.260435	18.57416	1.066275	0	0
0	0	0	44.342434	5.828177	39.092773	5.828177	2.407946E+14	0.000647	1545.317029	18.663901	1.063182	0	0
0	0	0	44.215147	5.83562	38.926373	5.83562	2.252269E+14	0.000634	1577.851595	18.611927	1.06223	0	0
0	0	0	44.092269	5.842843	38.765627	5.842843	2.111299E+14	0.000623	1606.321288	18.595469	1.059454	0	0
0	0	0	43.969351	5.849543	38.605231	5.849543	1.978899E+14	0.000611	1637.696475	18.670695	1.057986	0	0
0	0	0	43.842717	5.855831	38.440478	5.855831	1.850979E+14	0.000597	1674.520685	18.546334	1.055924	0	0
0	0	0	43.718696	5.861933	38.27911	5.861933	1.733548E+14	0.000585	1708.837718	18.705145	1.053505	0	0
0	0	0	43.591776	5.867801	38.114253	5.867801	1.620928E+14	0.000573	1746.191012	18.521611	1.052236	0	0
0	0	0	43.464734	5.873221	37.949597	5.873221	1.51539E+14	0.000559	1787.414439	18.705758	1.04946	0	0
0	0	0	43.334914	5.878782	37.781259	5.878782	1.414517E+14	0.000547	1826.51371	18.521774	1.048666	0	0
0	0	0	43.206769	5.883727	37.615548	5.883727	1.321424E+14	0.000534	1871.068274	18.669628	1.045414	0	0
0	0	0	43.080339	5.88877	37.451843	5.88877	1.23549E+14	0.000524	1909.459339	18.572351	1.044581	0	0
0	0	0	42.947048	5.89329	37.279961	5.89329	1.150852E+14	0.00051	1961.599727	18.626976	1.041607	0	0
0	0	0	42.815636	5.897137	37.111039	5.897137	1.073008E+14	0.000494	2023.31145	18.638676	1.040615	0	0
0	0	0	42.682305	5.90163	36.939031	5.90163	9.99339E+13	0.000483	2071.400531	18.55547	1.038355	0	0
0	0	0	42.555548	5.905456	36.775893	5.905456	9.33943E+13	0.000471	2124.364886	18.680994	1.036491	0	0
0	0	0	42.413559	5.909573	36.593267	5.909573	8.657014E+13	0.000458	2184.931434	18.537652	1.034587	0	0
0	0	0	42.272959	5.912977	36.413042	5.912977	8.029919E+13	0.000442	2260.258791	18.722401	1.03193	0	0
0	0	0	42.136605	5.916618	36.237883	5.916618	7.464775E+13	0.000431	2321.728333	18.534949	1.031176	0	0
0	0	0	42.00311	5.919887	36.066651	5.919887	6.949691E+13	0.000419	2388.076899	18.713363	1.027726	0	0
0	0	0	41.866349	5.923324	35.891099	5.923324	6.458535E+13	0.000408	2450.04388	18.569225	1.027012	0	0
0	0	0	41.72338	5.926191	35.708274	5.926191	5.981875E+13	0.000394	2537.537419	18.657841	1.023919	0	0
0	0	0	41.588211	5.929017	35.535272	5.929017	5.563386E+13	0.000383	2614.23772	18.616387	1.022967	0	0
0	0	0	41.45149	5.931799	35.360327	5.931799	5.169671E+13	0.000371	2692.342685	18.607823	1.020032	0	0
0	0	0	41.315545	5.934424	35.186489	5.934424	4.80565E+13	0.000361	2773.49195	18.675923	1.018406	0	0
0	0	0	41.176292	5.937001	35.008505	5.937001	4.45918E+13	0.00035	2859.076581	18.565432	1.016225	0	0
0	0	0	41.037856	5.939366	34.831741	5.939366	4.139374E+13	0.000339	2951.57225	18.706836	1.013964	0	0
0	0	0	40.89501	5.94173	34.649394	5.94173	3.833286E+13	0.000328	3048.618267	18.515278	1.012774	0	0
0	0	0	40.755675	5.943782	34.47177	5.943782	3.556443E+13	0.000317	3156.212704	18.709899	1.00972	0	0
0	0	0	40.608786	5.945998	34.284433	5.945998	3.286119E+13	0.000306	3264.255384	18.522606	1.008848	0	0
0	0	0	40.466021	5.947993	34.102498	5.947993	3.043012E+13	0.000296	3377.634454	18.685675	1.005397	0	0
0	0	0	40.322562	5.949869	33.919793	5.949869	2.816771E+13	0.000286	3499.222781	18.575018	1.004961	0	0
0	0	0	40.180124	5.951868	33.738216	5.951868	2.608728E+13	0.000277	3606.005316	18.627664	1.001907	0	0
0	0	0	40.034052	5.953662	33.55226	5.953662	2.411276E+13	0.000268	3734.031781	18.621777	1.000955	0	0
0	0	0	39.891246	5.95523	33.370644	5.95523	2.232654E+13	0.000258	3874.949314	18.565373	0.998536	0	0
0	0	0	39.743418	5.957018	33.182438	5.957018	2.061638E+13	0.00025	4001.409817	18.683917	0.996514	0	0
0	0	0	39.59906	5.958206	32.999247	5.958206	1.907256E+13	0.000239	4185.333922	18.546773	0.994769	0	0
0	0	0	39.449394	5.959973	32.808706	5.959973	1.759363E+13	0.000232	4311.288247	18.726315	0.99227	0	0
0	0	0	39.303363	5.96124	32.623284	5.96124	1.626099E+13	0.000223	4489.552709	18.533347	0.991199	0	0
0	0	0	39.152798	5.962754	32.431853	5.962754	1.499238E+13	0.000215	4642.3925	18.722099	0.988106	0	0
0	0	0	39.006031	5.964189	32.245279	5.964189	1.385092E+13	0.000209	4792.05246	18.552682	0.987669	0	0
0	0	0	38.852894	5.965287	32.051042	5.965287	1.275231E+13	0.0002	5011.301178	18.689616	0.984338	0	0
0	0	0	38.704412	5.966692	31.862305	5.966692	1.177024E+13	0.000194	5161.046052	18.627899	0.983505	0	0
0	0	0	38.55201	5.967588	31.669197	5.967588	1.084073E+13	0.000185	5417.843292	18.638499	0.980729	0	0
0	0	0	38.401487	5.968637	31.478267	5.968637	9.994653E+12	0.000177	5640.504253	18.689185	0.979341	0	0
0	0	0	38.243898	5.969783	31.278305	5.969783	9.179453E+12	0.000171	5860.854235	18.576717	0.977278	0	0
0	0	0	38.088556	5.970803	31.081305	5.970803	8.440901E+12	0.000164	6101.884163	18.725732	0.975058	0	0
0	0	0	37.934929	5.971596	30.886723	5.971596	7.768904E+12	0.000156	6400.290919	18.542822	0.973788	0	0
0	0	0	37.780852	5.972528	30.691399	5.972528	7.148621E+12	0.00015	6662.606629	18.733144	0.970973	0	0
0	0	0	37.626694	5.973402	30.496027	5.973402	6.57753E+12	0.000144	6942.250119	18.53813	0.970179	0	0
0	0	0	37.471923	5.974146	30.300028	5.974146	6.050025E+12	0.000138	7271.07456	18.716802	0.966967	0	0
0	0	0	37.316132	5.97496	30.102648	5.97496	5.561725E+12	0.000132	7580.502451	18.578837	0.966451	0	0
0	0	0	37.158993	5.975887	29.903421	5.975887	5.10909E+12	0.000127	7844.263159	18.663682	0.963239	0	0
0	0	0	37.001935	5.976363	29.704835	5.976363	4.693476E+12	0.00012	8311.08128	18.640088	0.962406	0	0
0	0	0	36.842591	5.977258	29.502844	5.977258	4.306329E+12	0.000116	8591.223466	18.609099	0.959907	0	0
0	0	0	36.68341	5.978097	29.301116	5.978097	3.951448E+12	0.000113	8885.511423	18.697174	0.958281	0	0
0	0	0	36.519002	5.978539	29.093277	5.978539	3.615573E+12	0.000106	9435.564763	18.566123	0.956536	0	0
0	0	0	36.357289	5.979234	28.888516	5.979234	3.313057E+12	0.000102	9825.602903	18.73587	0.954077	0	0
0	0	0	36.189859	5.979699	28.676825	5.979699	3.026478E+12	9.605604E-5	10410.589473	18.539622	0.953126	0	0
0	0	0	36.022265	5.980524	28.464467	5.980524	2.764435E+12	9.322422E-5	10726.826271	18.732333	0.95027	0	0
0	0	0	35.853569	5.980806	28.251396	5.980806	2.523569E+12	8.696157E-5	11499.332067	18.565612	0.949516	0	0
0	0	0	35.67981	5.981523	28.03138	5.981523	2.297388E+12	8.382392E-5	11929.768419	18.711391	0.946383	0	0
0	0	0	35.507724	5.982105	27.813638	5.982105	2.093367E+12	8.020487E-5	12468.071189	18.604642	0.945987	0	0
0	0	0	35.330534	5.982496	27.589697	5.982496	1.902204E+12	7.541925E-5	13259.21357	18.6566	0.942854	0	0
0	0	0	35.15412	5.983234	27.366277	5.983234	1.72922E+12	7.338826E-5	13626.156834	18.669919	0.941902	0	0
0	0	0	34.974031	5.983502	27.138827	5.983502	1.568843E+12	6.832843E-5	14635.197225	18.597772	0.939602	0	0
0	0	0	34.789572	5.983887	26.905707	5.983887	1.419981E+12	6.426948E-5	15559.48574	18.728794	0.937698	0	0
0	0	0	34.609115	5.984461	26.677377	5.984461	1.288024E+12	6.191659E-5	16150.759195	18.566794	0.93623	0	0
0	0	0	34.421798	5.98464	26.440914	5.98464	1.164004E+12	5.705648E-5	17526.493422	18.75032	0.933653	0	0
0	0	0	34.230805	5.985233	26.199256	5.985233	1.049836E+12	5.50601E-5	18161.970784	18.569092	0.932582	0	0
0	0	0	34.036341	5.985654	25.953444	5.985654	9.450897E+11	5.21556E-5	19173.395646	18.747322	0.929568	0	0
0	0	0	33.840244	5.985909	25.705791	5.985909	8.500423E+11	4.844093E-5	20643.701025	18.583575	0.929092	0	0
0	0	0	33.640512	5.986334	25.453316	5.986334	7.630523E+11	4.598943E-5	21744.12485	18.706978	0.926077	0	0
0	0	0	33.433471	5.986674	25.191733	5.986674	6.822627E+11	4.310562E-5	23198.830463	18.640268	0.925324	0	0
0	0	0	33.226552	5.986855	24.930519	5.986855	6.100666E+11	3.95572E-5	25279.845893	18.648614	0.922548	0	0
0	0	0	33.012241	5.987445	24.659408	5.987445	5.433345E+11	3.854412E-5	25944.293341	18.704162	0.921239	0	0
0	0	0	32.789682	5.987691	24.378365	5.987691	4.817485E+11	3.557248E-5	28111.617472	18.59913	0.919256	0	0
0	0	0	32.572309	5.98783	24.104009	5.98783	4.283419E+11	3.237775E-5	30885.40445	18.734409	0.91759	0	0
0	0	0	32.34493	5.98828	23.816591	5.98828	3.788015E+11	3.099996E-5	32258.107808	18.555701	0.916281	0	0
0	0	0	32.118655	5.988516	23.530859	5.988516	3.351902E+11	2.868068E-5	34866.670785	18.75495	0.913505	0	0
0	0	0	31.891522	5.988726	23.24408	5.988726	2.964622E+11	2.643362E-5	37830.604876	18.569122	0.912593	0	0
0	0	0	31.660836	5.98887	22.952912	5.98887	2.617056E+11	2.402587E-5	41621.801618	18.741507	0.909619	0	0
0	0	0	31.423739	5.989317	22.65321	5.989317	2.302244E+11	2.328399E-5	42947.967463	18.61121	0.909301	0	0
0	0	0	31.181251	5.989295	22.347391	5.989295	2.019408E+11	2.032093E-5	49210.342456	18.689676	0.906406	0	0
0	0	0	30.935864	5.989662	22.037338	5.989662	1.768544E+11	1.940767E-5	51526.008105	18.658575	0.905335	0	0
0	0	0	30.69015	5.989856	21.727123	5.989856	1.54857E+11	1.785151E-5	56017.663624	18.618367	0.903075	0	0
0	0	0	30.440026	5.989978	21.411451	5.989978	1.352727E+11	1.61025E-5	62102.175896	18.702352	0.901726	0	0
0	0	0	30.183899	5.990225	21.088014	5.990225	1.177823E+11	1.501302E-5	66608.849684	18.575247	0.899664	0	0
0	0	0	29.92863	5.990558	20.765522	5.990558	1.026009E+11	1.44552E-5	69179.265584	18.75581	0.897165	0	0
0	0	0	29.665846	5.99056	20.434054	5.99056	8.901394E+10	1.254961E-5	79683.738179	18.546706	0.89657	0	0
0	0	0	29.40147	5.9908	20.100209	5.9908	7.715978E+10	1.177251E-5	84943.667997	18.738999	0.893596	0	0
0	0	0	29.131744	5.991085	19.759538	5.991085	6.66911E+10	1.128084E-5	88645.88291	18.550733	0.89308	0	0
0	0	0	28.857649	5.990988	19.413953	5.990988	5.750677E+10	9.379751E-6	106612.63482	18.702842	0.890185	0	0
0	0	0	28.578409	5.991273	19.061272	5.991273	4.94495E+10	9.008135E-6	111010.766699	18.59517	0.889511	0	0
0	0	0	28.298147	5.991618	18.707201	5.991618	4.249768E+10	9.013686E-6	110942.39878	18.652724	0.886457	0	0
0	0	0	28.01809	5.991533	18.354072	5.991533	3.652719E+10	7.446344E-6	134294.093336	18.655414	0.885545	0	0
0	0	0	27.730151	5.991825	17.990391	5.991825	3.126202E+10	7.35556E-6	135951.577861	18.593689	0.883364	0	0
0	0	0	27.444091	5.991779	17.629625	5.991779	2.678297E+10	6.153863E-6	162499.554341	18.704185	0.881817	0	0
0	0	0	27.151742	5.99182	17.260786	5.99182	2.286778E+10	5.366109E-6	186354.784349	18.566971	0.880112	0	0
0	0	0	26.856003	5.99217	16.887153	5.99217	1.948918E+10	5.611038E-6	178220.129213	18.756234	0.877891	0	0
0	0	0	26.557365	5.992105	16.510552	5.992105	1.658373E+10	4.580475E-6	218317.953917	18.565497	0.876899	0	0
0	0	0	26.253541	5.992085	16.127333	5.992085	1.407192E+10	3.840669E-6	260371.332156	18.752703	0.874123	0	0
0	0	0	25.949227	5.992574	15.74263	5.992574	1.193739E+10	4.654752E-6	214834.204167	18.573514	0.873687	0	0
0	0	0	25.643115	5.992496	15.356622	5.992496	1.011681E+10	3.689747E-6	271021.26226	18.704785	0.870791	0	0
0	0	0	25.335412	5.99245	14.968551	5.99245	8.566513E+9	3.010986E-6	332117.113789	18.609068	0.870316	0	0
0	0	0	25.028525	5.992595	14.581177	5.992595	7.256983E+9	2.882114E-6	346967.55208	18.646912	0.867619	0	0
0	0	0	24.713389	5.992675	14.18351	5.992675	6.120284E+9	2.616277E-6	382222.493573	18.67859	0.866389	0	0
0	0	0	24.400376	5.992787	13.788461	5.992787	5.16756E+9	2.476603E-6	403778.898175	18.589194	0.864486	0	0
0	0	0	24.083117	5.992787	13.388251	5.992787	4.353137E+9	2.086654E-6	479236.175774	18.709177	0.86278	0	0
0	0	0	23.765204	5.993118	12.986624	5.993118	3.665775E+9	2.728181E-6	366544.589488	18.534922	0.861432	0	0
0	0	0	23.434142	5.993005	12.569202	5.993005	3.065083E+9	1.920832E-6	520607.829523	18.727185	0.859052	0	0
0	0	0	23.10308	5.9929	12.151771	5.9929	2.562823E+9	1.398192E-6	715209.256181	18.539234	0.8581	0	0
0	0	0	22.772507	5.992986	11.734608	5.992986	2.143433E+9	1.307143E-6	765027.49162	18.721054	0.855483	0	0
0	0	0	22.449204	5.992893	11.326944	5.992893	1.799732E+9	9.7418E-7	1026504.342621	18.553204	0.854809	0	0
0	0	0	22.122185	5.993032	10.914162	5.993032	1.508111E+9	9.821134E-7	1018212.404516	18.674063	0.851794	0	0
0	0	0	21.790837	5.993138	10.495978	5.993138	1.26079E+9	9.713626E-7	1029481.671469	18.592566	0.851477	0	0
0	0	0	21.459203	5.993026	10.077844	5.993026	1.053864E+9	6.798258E-7	1470965.011963	18.61536	0.848741	0	0
0	0	0	21.124506	5.993237	9.655231	5.993237	8.794433E+8	8.179971E-7	1222498.208752	18.664447	0.847828	0	0
0	0	0	20.789728	5.993158	9.233069	5.993158	7.338575E+8	5.856013E-7	1707646.369755	18.576482	0.845528	0	0
0	0	0	20.452703	5.993211	8.807819	5.993211	6.116294E+8	5.391842E-7	1854653.762394	18.71609	0.843902	0	0
0	0	0	20.117476	5.993118	8.385119	5.993118	5.102544E+8	3.801853E-7	2630296.010452	18.532849	0.842673	0	0
0	0	0	19.776817	5.993191	7.955244	5.993191	4.24434E+8	3.600567E-7	2777340.203564	18.719592	0.840452	0	0
0	0	0	19.433504	5.993442	7.521665	5.993442	3.525416E+8	5.735129E-7	1743639.982939	18.529584	0.839658	0	0
0	0	0	19.088271	5.993448	7.086146	5.993448	2.925229E+8	4.876755E-7	2050544.041153	18.712002	0.836644	0	0
0	0	0	18.744223	5.993581	6.651867	5.993581	2.428776E+8	8.017482E-7	1247274.391486	18.562129	0.836486	0	0
0	0	0	18.398909	5.993468	6.216485	5.993468	2.015199E+8	3.629324E-7	2755333.829753	18.666184	0.83359	0	0
0	0	0	18.054248	5.993508	5.781619	5.993508	1.672637E+8	3.587995E-7	2787071.809269	18.607292	0.833035	0	0
0	0	0	17.707178	5.993508	5.343794	5.993508	1.3865E+8	2.974293E-7	3362143.476745	18.592265	0.830537	0	0
0	0	0	17.354717	5.993554	4.899073	5.993554	1.145968E+8	3.163528E-7	3161028.13724	18.661436	0.829228	0	0
0	0	0	17.002052	5.993396	4.454521	5.993396	9.470592E+7	1.318146E-7	7586414.594458	18.547978	0.827562	0	0
0	0	0	16.646897	5.99362	4.006025	5.99362	7.816224E+7	3.656046E-7	2735195.008452	18.704133	0.825698	0	0
0	0	0	16.292966	5.993719	3.559333	5.993719	6.455123E+7	-7.276333E-6	-137431.872269	18.501523	0.824667	0	0
0	0	0	15.936136	5.993501	3.109659	5.993501	5.322692E+7	1.106681E-7	9036027.172362	18.699794	0.82193	0	0
0	0	0	15.581184	5.993449	2.662006	5.993449	4.393384E+7	7.325927E-8	1.365015E+7	18.48238	0.821772	0	0
0	0	0	15.220393	5.993805	2.206099	5.993805	3.614897E+7	-1.790861E-7	-5583907.165377	18.666085	0.818718	0	0
0	0	0	14.859112	5.993567	1.750862	5.993567	2.973567E+7	8.942738E-8	1.118226E+7	18.523505	0.818401	0	0
0	0	0	14.495584	5.993653	1.292087	5.993653	2.443049E+7	1.750753E-7	5711828.034536	18.6278	0.815426	0	0
0	0	0	14.129893	5.993653	0.830769	5.993653	2.004835E+7	1.436743E-7	6960186.442255	18.574897	0.81499	0	0
0	0	0	13.761628	5.993686	0.366131	5.993686	1.642937E+7	2.515198E-7	3975830.168615	18.559764	0.81265	0	0
0	0	0	13.393282	5.9936	-0.098342	5.9936	1.346307E+7	5.212489E-8	1.918469E+7	18.623719	0.811421	0	0
0	0	0	13.038657	5.993581	-0.545654	5.993581	1.111447E+7	3.670391E-8	2.724505E+7	18.499495	0.809636	0	0
0	0	0	12.688198	5.993831	-0.988328	5.993831	9196256.5	-3.520209E-8	-2.84074E+7	18.663781	0.807772	0	0
0	0	0	12.337003	5.993825	-1.431346	5.993825	7606080.5	-3.086895E-8	-3.239501E+7	18.479681	0.80682	0	0
0	0	0	11.992016	5.993818	-1.866533	5.993818	6312014.5	-2.72591E-8	-3.668499E+7	18.680924	0.804163	0	0
0	0	0	11.650867	5.993898	-2.297077	5.993898	5248996.5	-1.281245E-8	-7.804909E+7	18.488898	0.803528	0	0
0	0	0	11.311311	5.993686	-2.724934	5.993686	4368763	6.688886E-8	1.495017E+7	18.650231	0.800831	0	0
0	0	0	10.978737	5.993884	-3.144941	5.993884	3649893	-9.605154E-9	-1.041108E+8	18.504566	0.800752	0	0
0	0	0	10.649186	5.993805	-3.560483	5.993805	3054296.5	-1.512995E-8	-6.609406E+7	18.598687	0.797857	0	0
0	0	0	10.326291	5.993865	-3.967957	5.993865	2565103.5	-7.646455E-9	-1.307796E+8	18.557894	0.797341	0	0
0	0	0	10.007725	5.993798	-4.369672	5.993798	2159310	-1.15454E-8	-8.661461E+7	18.536951	0.794922	0	0
0	0	0	9.699654	5.99397	-4.758718	5.99397	1828053.5	-3.190541E-9	-3.134264E+8	18.60578	0.793732	0	0
0	0	0	9.399505	5.993884	-5.13715	5.993884	1554256.5	-4.09021E-9	-2.444862E+8	18.471197	0.792185	0	0
0	0	0	9.108258	5.993581	-5.503818	5.993581	1327843	4.385084E-9	2.280458E+8	18.634611	0.790401	0	0
0	0	0	8.823505	5.99395	-5.863938	5.99395	1138400	-2.154306E-9	-4.641866E+8	18.439698	0.789489	0	0
0	0	0	8.546143	5.993937	-6.2138	5.993937	979892.5	-1.964725E-9	-5.089772E+8	18.647392	0.786911	0	0
0	0	0	8.273518	5.994016	-6.557915	5.994016	845618	-1.249314E-9	-8.00439E+8	18.445993	0.786712	0	0
0	0	0	8.008284	5.993884	-6.892181	5.993884	732664	-1.92809E-9	-5.186479E+8	18.618243	0.783976	0	0
0	0	0	7.745174	5.994069	-7.224558	5.994069	635528	-7.987892E-10	-1.251895E+9	18.480634	0.783579	0	0
0	0	0	7.484146	5.993765	-7.553085	5.993765	551890.5	-4.892179E-9	-2.044079E+8	18.560341	0.781001	0	0
0	0	0	7.229571	5.993924	-7.874631	5.993924	480935	-1.025325E-9	-9.753003E+8	18.530807	0.780327	0	0
0	0	0	6.979774	5.993858	-8.189585	5.993858	420185.5	-1.310538E-9	-7.630453E+8	18.50249	0.778066	0	0
0	0	0	6.729037	5.993911	-8.506024	5.993911	366923.5	-8.351147E-10	-1.19744E+9	18.58682	0.776718	0	0
0	0	0	6.481567	5.993977	-8.818377	5.993977	320979	-5.460642E-10	-1.831287E+9	18.455734	0.77537	0	0
0	0	0	6.238181	5.993805	-9.124971	5.993805	281408.5	-1.393993E-9	-7.173635E+8	18.620566	0.773426	0	0
0	0	0	5.992182	5.993792	-9.435266	5.993792	246367.5	-1.430829E-9	-6.988954E+8	18.415689	0.772712	0	0
0	0	0	5.747039	5.993983	-9.745007	5.993983	215790	-3.580697E-10	-2.792753E+9	18.61624	0.770333	0	0
0	0	0	5.498712	5.993772	-10.057726	5.993772	188682.5	-1.478072E-9	-6.76557E+8	18.418141	0.769936	0	0
0	0	0	5.246465	5.993785	-10.375971	5.993785	164631	-1.046329E-9	-9.557227E+8	18.590441	0.76716	0	0
0	0	0	4.987152	5.993878	-10.703335	5.993878	143097.5	-3.918855E-10	-2.551766E+9	18.450419	0.766962	0	0
0	0	0	4.721306	5.993944	-11.038875	5.993944	123942.5	-2.413273E-10	-4.143751E+9	18.538083	0.764186	0	0
0	0	0	4.463341	5.99403	-11.364526	5.99403	107809.5	-1.525852E-10	-6.553717E+9	18.489057	0.763948	0	0
0	0	0	4.199169	5.994043	-11.697817	5.994043	93462.5	-1.269457E-10	-7.877385E+9	18.455477	0.761806	0	0
0	0	0	3.92924	5.994155	-12.038635	5.994155	80772.5	-8.170554E-11	-1.223907E+10	18.548811	0.760537	0	0
0	0	0	3.660249	5.993904	-12.3773	5.993904	69841.5	-1.645166E-10	-6.078414E+9	18.413982	0.759188	0	0
0	0	0	3.38158	5.994036	-12.729197	5.994036	60074.5	-8.327528E-11	-1.200837E+10	18.580028	0.757364	0	0
0	0	0	3.091763	5.994102	-13.094983	5.994102	51363	-5.904933E-11	-1.693499E+10	18.397142	0.756452	0	0
0	0	0	2.785325	5.993898	-13.481003	5.993898	43522	-1.062336E-10	-9.413216E+9	18.587656	0.754152	0	0
0	0	0	2.46827	5.993898	-13.88097	5.993898	36667	-8.950112E-11	-1.117304E+10	18.382381	0.753914	0	0
0	0	0	2.173021	5.993785	-14.25312	5.993785	31258	-1.986632E-10	-5.033644E+9	18.559651	0.751137	0	0
0	0	0	1.915506	5.994003	-14.578576	5.994003	27195.5	-4.202162E-11	-2.379728E+10	18.407738	0.751058	0	0
0	0	0	1.685922	5.993818	-14.867687	5.993818	24021.5	-1.03738E-10	-9.639673E+9	18.509649	0.748718	0	0
0	0	0	1.485619	5.993924	-15.120663	5.993924	21556.5	-4.595718E-11	-2.175939E+10	18.476923	0.747846	0	0
0	0	0	1.310757	5.993944	-15.341307	5.993944	19612	-3.818633E-11	-2.618738E+10	18.448815	0.745942	0	0
0	0	0	1.155741	5.993917	-15.536787	5.993917	18035.5	-3.970717E-11	-2.518437E+10	18.517328	0.74495	0	0
0	0	0	1.020735	5.994063	-15.707503	5.994063	16766	-2.147365E-11	-4.65687E+10	18.396824	0.743483	0	0
0	0	0	0.898511	5.994195	-15.862059	5.994195	15694.5	-1.456374E-11	-6.866366E+10	18.557376	0.74154	0	0
0	0	0	0.792867	5.994142	-15.995184	5.994142	14823	-1.545844E-11	-6.468956E+10	18.360841	0.741064	0	0
0	0	0	0.696248	5.994214	-16.117274	5.994214	14068.5	-1.253684E-11	-7.97649E+10	18.561365	0.738724	0	0
0	0	0	0.613349	5.994115	-16.221574	5.994115	13452	-1.495466E-11	-6.686881E+10	18.363241	0.738288	0	0
0	0	0	0.541722	5.994168	-16.312081	5.994168	12941	-1.270884E-11	-7.868539E+10	18.535808	0.73567	0	0
0	0	0	0.48063	5.994221	-16.389298	5.994221	12521	-1.101216E-11	-9.080872E+10	18.374232	0.735908	0	0
0	0	0	0.427257	5.993983	-16.45596	5.993983	12164.5	-2.018508E-11	-4.954155E+10	18.47887	0.733171	0	0
0	0	0	0.382173	5.994241	-16.513559	5.994241	11872	-1.004785E-11	-9.952381E+10	18.447063	0.732537	0	0
0	0	0	0.349423	5.994049	-16.554335	5.994049	11663.5	-1.55289E-11	-6.439608E+10	18.434484	0.730475	0	0
0	0	0	0.313446	5.994003	-16.59959	5.994003	11439	-1.767518E-11	-5.657652E+10	18.490317	0.729523	0	0
0	0	0	0.284656	5.993977	-16.635834	5.993977	11262	-1.915943E-11	-5.219363E+10	18.370449	0.728135	0	0
0	0	0	0.267341	5.993851	-16.657323	5.993851	11157	-3.648736E-11	-2.740675E+10	18.500441	0.726707	0	0
0	0	0	0.237816	5.993792	-16.694401	5.993792	10981	-6.377436E-11	-1.568028E+10	18.317458	0.725715	0	0
0	0	0	0.215111	5.994122	-16.723976	5.994122	10846.5	-1.186236E-11	-8.430026E+10	18.511625	0.723613	0	0
0	0	0	0.202247	5.994049	-16.739998	5.994049	10771.5	-1.434128E-11	-6.972879E+10	18.319688	0.723018	0	0
0	0	0	0.183095	5.993878	-16.763674	5.993878	10660.5	-2.919474E-11	-3.425274E+10	18.497091	0.720599	0	0
0	0	0	0.159737	5.994016	-16.793533	5.994016	10526.5	-1.555182E-11	-6.430114E+10	18.332282	0.72048	0	0
0	0	0	0.141932	5.994287	-16.81676	5.994287	10426	-8.110769E-12	-1.232929E+11	18.443876	0.717863	0	0
0	0	0	0.133152	5.994082	-16.827256	5.994082	10376.5	-1.257298E-11	-7.953563E+10	18.372717	0.717664	0	0
0	0	0	0.123474	5.99399	-16.839204	5.99399	10322.5	-1.671682E-11	-5.981998E+10	18.381129	0.715523	0	0
0	0	0	0.109998	5.994287	-16.857045	5.994287	10247.5	-7.971907E-12	-1.254405E+11	18.429522	0.71465	0	0
0	0	0	0.095664	5.994016	-16.874361	5.994016	10168.5	-1.502292E-11	-6.656497E+10	18.323251	0.713024	0	0
0	0	0	0.082351	5.994181	-16.891623	5.994181	10095.5	-9.633527E-12	-1.038041E+11	18.469183	0.711279	0	0
0	0	0	0.072224	5.99395	-16.903744	5.99395	10040.5	-1.900061E-11	-5.262989E+10	18.278976	0.710645	0	0
0	0	0	0.065363	5.993917	-16.912305	5.993917	10003	-2.202272E-11	-4.540764E+10	18.463269	0.708622	0	0
0	0	0	0.061361	5.994063	-16.917765	5.994063	9982	-1.27848E-11	-7.821787E+10	18.261953	0.708265	0	0
0	0	0	0.058298	5.993904	-16.92118	5.993904	9965	-2.347326E-11	-4.260166E+10	18.464945	0.705528	0	0
0	0	0	0.053806	5.994023	-16.927184	5.994023	9941	-1.437164E-11	-6.958148E+10	18.294572	0.705727	0	0
0	0	0	0.048416	5.99395	-16.933778	5.99395	9912	-1.875744E-11	-5.331219E+10	18.420376	0.703109	0	0
0	0	0	0.043475	5.993831	-16.939674	5.993831	9885.5	-3.783974E-11	-2.642724E+10	18.316164	0.702951	0	0
0	0	0	0.038534	5.994063	-16.946563	5.994063	9859	-1.262727E-11	-7.919371E+10	18.34122	0.700809	0	0
0	0	0	0.034001	5.99395	-16.951963	5.99395	9835	-1.861172E-11	-5.372958E+10	18.359732	0.700174	0	0
0	0	0	0.027549	5.99401	-16.960271	5.99401	9801	-1.480464E-11	-6.754641E+10	18.284943	0.698191	0	0
0	0	0	0.022689	5.993878	-16.966027	5.993878	9775	-2.676972E-11	-3.735564E+10	18.411687	0.696843	0	0
0	0	0	0.01738	5.993904	-16.972799	5.993904	9747	-2.295975E-11	-4.355449E+10	18.233963	0.695931	0	0
0	0	0	0.011663	5.993831	-16.979805	5.993831	9717	-3.719476E-11	-2.688551E+10	18.425313	0.69367	0	0
0	0	0	0.010316	5.993924	-16.981767	5.993924	9710	-2.070114E-11	-4.830651E+10	18.190386	0.693789	0	0
0	0	0	0.005864	5.993785	-16.986989	5.993785	9686.5	-6.156349E-11	-1.624339E+10	18.399398	0.691291	0	0
0	0	0	0.000678	5.99395	-16.994	5.99395	9659.5	-1.827961E-11	-5.470577E+10	18.211099	0.691291	0	0
0	0	0	-0.001854	5.993818	-16.996819	5.993818	9646	-4.16567E-11	-2.400574E+10	18.380045	0.688356	0	0
0	0	0	-0.004386	5.993964	-17.000425	5.993964	9633	-1.725981E-11	-5.793808E+10	18.238498	0.688554	0	0
0	0	0	-0.006305	5.994234	-17.003614	5.994234	9623	-8.248028E-12	-1.212411E+11	18.299791	0.686214	0	0
0	0	0	-0.007653	5.993977	-17.004584	5.993977	9616	-1.635918E-11	-6.112777E+10	18.27818	0.686016	0	0
0	0	0	-0.009735	5.994109	-17.007586	5.994109	9605.5	-1.085765E-11	-9.210095E+10	18.23916	0.683874	0	0
0	0	0	-0.010144	5.994043	-17.007913	5.994043	9603.5	-1.304398E-11	-7.666373E+10	18.334923	0.683002	0	0
0	0	0	-0.011328	5.993904	-17.009014	5.993904	9597	-2.260641E-11	-4.423524E+10	18.202961	0.681534	0	0
0	0	0	-0.013533	5.994135	-17.012451	5.994135	9585.5	-1.015359E-11	-9.848728E+10	18.379799	0.679868	0	0
0	0	0	-0.015003	5.994049	-17.014063	5.994049	9578	-1.275224E-11	-7.841759E+10	18.179102	0.679472	0	0
0	0	0	-0.01582	5.993937	-17.014774	5.993937	9574	-1.919625E-11	-5.209352E+10	18.365498	0.677291	0	0
0	0	0	-0.017494	5.993798	-17.016493	5.993798	9565	-5.114187E-11	-1.955345E+10	18.175274	0.677053	0	0
0	0	0	-0.020149	5.994155	-17.020853	5.994155	9551.5	-9.661833E-12	-1.035E+11	18.346461	0.674435	0	0
0	0	0	-0.020516	5.993917	-17.020643	5.993917	9549.5	-2.102429E-11	-4.756403E+10	18.204355	0.674514	0	0
0	0	0	-0.022476	5.99403	-17.023434	5.99403	9539.5	-1.350146E-11	-7.406605E+10	18.285052	0.672254	0	0
0	0	0	-0.022313	5.993997	-17.023134	5.993997	9540.5	-1.508772E-11	-6.627905E+10	18.254367	0.671698	0	0
0	0	0	-0.024559	5.994122	-17.026323	5.994122	9528.5	-1.042092E-11	-9.596083E+10	18.216508	0.669834	0	0
0	0	0	-0.025662	5.994109	-17.027677	5.994109	9523	-1.07644E-11	-9.289884E+10	18.267684	0.66924	0	0
0	0	0	-0.028316	5.994135	-17.0311	5.994135	9509	-1.007256E-11	-9.927962E+10	18.141128	0.667812	0	0
0	0	0	-0.029664	5.994082	-17.03265	5.994082	9502.5	-1.151397E-11	-8.685098E+10	18.298608	0.666225	0	0
0	0	0	-0.030889	5.99399	-17.033934	5.99399	9496	-1.537834E-11	-6.502651E+10	18.111022	0.665274	0	0
0	0	0	-0.030929	5.994003	-17.034023	5.994003	9496	-1.467291E-11	-6.815278E+10	18.298181	0.66341	0	0
0	0	0	-0.031338	5.994287	-17.035343	5.994287	9494	-7.385731E-12	-1.353962E+11	18.077504	0.663251	0	0
0	0	0	-0.032236	5.994043	-17.035783	5.994043	9489	-1.288846E-11	-7.75888E+10	18.263161	0.660832	0	0
0	0	0	-0.032849	5.994109	-17.036744	5.994109	9486	-1.072257E-11	-9.326119E+10	18.081905	0.660951	0	0
0	0	0	-0.034401	5.994115	-17.03872	5.994115	9478	-1.053674E-11	-9.490602E+10	18.228126	0.658174	0	0
0	0	0	-0.035585	5.993851	-17.039465	5.993851	9472	-3.097681E-11	-3.228222E+10	18.135225	0.658214	0	0
0	0	0	-0.035912	5.994049	-17.040439	5.994049	9470.5	-1.260911E-11	-7.930771E+10	18.167895	0.655953	0	0
0	0	0	-0.035707	5.994122	-17.040387	5.994122	9471	-1.035803E-11	-9.654342E+10	18.177277	0.655636	0	0
0	0	0	-0.036606	5.994175	-17.04167	5.994175	9467	-9.163583E-12	-1.091276E+11	18.092832	0.65401	0	0
0	0	0	-0.034319	5.994003	-17.038298	5.994003	9478.5	-1.464587E-11	-6.827861E+10	18.220299	0.6529	0	0
0	0	0	-0.034891	5.994129	-17.039376	5.994129	9475.5	-1.019741E-11	-9.806409E+10	18.063622	0.65175	0	0
0	0	0	-0.033951	5.993997	-17.037816	5.993997	9480.5	-1.499284E-11	-6.669852E+10	18.243133	0.650004	0	0
0	0	0	-0.034809	5.99399	-17.038879	5.99399	9476	-1.534595E-11	-6.516375E+10	18.022055	0.649489	0	0
0	0	0	-0.035707	5.993964	-17.039938	5.993964	9471	-1.696954E-11	-5.89291E+10	18.209957	0.647466	0	0
0	0	0	-0.03436	5.994109	-17.03865	5.994109	9478.5	-1.07141E-11	-9.333499E+10	18.019126	0.647427	0	0
0	0	0	-0.034074	5.993911	-17.037727	5.993911	9480	-2.157639E-11	-4.634695E+10	18.179701	0.644769	0	0
0	0	0	-0.033339	5.993851	-17.036631	5.993851	9483.5	-3.101442E-11	-3.224307E+10	18.045686	0.644928	0	0
0	0	0	-0.033911	5.994188	-17.038308	5.994188	9480.5	-8.920319E-12	-1.121036E+11	18.12462	0.64239	0	0
0	0	0	-0.033911	5.994003	-17.037783	5.994003	9480.5	-1.464896E-11	-6.826421E+10	18.113288	0.641914	0	0
0	0	0	-0.033951	5.994076	-17.038041	5.994076	9480.5	-1.169771E-11	-8.548683E+10	18.064997	0.640208	0	0
0	0	0	-0.032155	5.994023	-17.035624	5.994023	9489.5	-1.371891E-11	-7.289209E+10	18.142252	0.639376	0	0
0	0	0	-0.033666	5.994036	-17.037568	5.994036	9482	-1.314395E-11	-7.608064E+10	17.996773	0.638146	0	0
0	0	0	-0.033461	5.994122	-17.037554	5.994122	9483	-1.037116E-11	-9.642126E+10	18.15467	0.636639	0	0
0	0	0	-0.033012	5.994129	-17.037006	5.994129	9485	-1.020764E-11	-9.796587E+10	17.95528	0.636044	0	0
0	0	0	-0.032849	5.993917	-17.0362	5.993917	9486	-2.088449E-11	-4.788242E+10	18.168918	0.633784	0	0
0	0	0	-0.032604	5.994096	-17.036397	5.994096	9487.5	-1.109664E-11	-9.011737E+10	17.946029	0.633863	0	0
0	0	0	-0.035013	5.993957	-17.039043	5.993957	9475	-1.744056E-11	-5.733762E+10	18.136374	0.631285	0	0
0	0	0	-0.036034	5.994135	-17.040837	5.994135	9470	-1.003125E-11	-9.968848E+10	17.963299	0.631444	0	0
0	0	0	-0.0373	5.99399	-17.042022	5.99399	9463.5	-1.532571E-11	-6.524983E+10	18.082963	0.629064	0	0
0	0	0	-0.035585	5.993977	-17.03982	5.993977	9472	-1.61142E-11	-6.205708E+10	18.005727	0.628905	0	0
0	0	0	-0.037872	5.99401	-17.042799	5.99401	9460.5	-1.42903E-11	-6.997753E+10	18.014656	0.627002	0	0
0	0	0	-0.03975	5.993944	-17.044981	5.993944	9450.5	-1.840098E-11	-5.434494E+10	18.050739	0.626209	0	0
0	0	0	-0.03975	5.994089	-17.045394	5.994089	9450.5	-1.124865E-11	-8.889953E+10	17.950888	0.624741	0	0
0	0	0	-0.041057	5.994181	-17.047304	5.994181	9444	-9.01184E-12	-1.109651E+11	18.086454	0.623551	0	0
0	0	0	-0.043875	5.994214	-17.050953	5.994214	9430	-8.403343E-12	-1.190003E+11	17.910716	0.622837	0	0
0	0	0	-0.043507	5.99401	-17.049908	5.99401	9431.5	-1.42465E-11	-7.019269E+10	18.106428	0.621013	0	0
0	0	0	-0.043997	5.994162	-17.050957	5.994162	9429	-9.396825E-12	-1.064189E+11	17.899261	0.620616	0	0
0	0	0	-0.045916	5.994082	-17.053154	5.994082	9419	-1.14128E-11	-8.762092E+10	18.115236	0.618118	0	0
0	0	0	-0.047264	5.994049	-17.05476	5.994049	9412.5	-1.253189E-11	-7.979641E+10	17.905655	0.618396	0	0
0	0	0	-0.047101	5.993884	-17.054086	5.993884	9413.5	-2.47727E-11	-4.036702E+10	18.052428	0.616175	0	0
0	0	0	-0.04804	5.994082	-17.055833	5.994082	9408.5	-1.140008E-11	-8.771871E+10	17.913987	0.616492	0	0
0	0	0	-0.047795	5.994089	-17.055542	5.994089	9410	-1.120045E-11	-8.928215E+10	17.981377	0.614033	0	0
0	0	0	-0.048857	5.994122	-17.056975	5.994122	9404	-1.028476E-11	-9.723126E+10	17.960205	0.613557	0	0
0	0	0	-0.050939	5.994135	-17.05964	5.994135	9393.5	-9.950216E-12	-1.005003E+11	17.928398	0.611772	0	0
0	0	0	-0.047754	5.994115	-17.055566	5.994115	9410	-1.046114E-11	-9.559184E+10	17.99536	0.6109	0	0
0	0	0	-0.050531	5.994082	-17.058975	5.994082	9395.5	-1.138432E-11	-8.784008E+10	17.840324	0.609988	0	0
0	0	0	-0.050654	5.994082	-17.05913	5.994082	9395	-1.138372E-11	-8.784475E+10	17.987583	0.60852	0	0
0	0	0	-0.05	5.994036	-17.058174	5.994036	9398.5	-1.30282E-11	-7.675657E+10	17.784184	0.608203	0	0
0	0	0	-0.050163	5.994063	-17.058455	5.994063	9397.5	-1.203618E-11	-8.308282E+10	17.997579	0.605823	0	0
0	0	0	-0.048938	5.994115	-17.05706	5.994115	9404	-1.045447E-11	-9.565283E+10	17.780956	0.605784	0	0
0	0	0	-0.047591	5.994082	-17.055266	5.994082	9410.5	-1.14025E-11	-8.770006E+10	17.968954	0.603523	0	0
0	0	0	-0.048122	5.994208	-17.056292	5.994208	9408	-8.49612E-12	-1.177008E+11	17.773429	0.603801	0	0
0	0	0	-0.049183	5.99395	-17.0569	5.99395	9402.5	-1.779326E-11	-5.620106E+10	17.902224	0.601421	0	0
0	0	0	-0.045998	5.994049	-17.053163	5.994049	9419	-1.254055E-11	-7.974134E+10	17.799904	0.6015	0	0
0	0	0	-0.047468	5.994181	-17.055392	5.994181	9411	-8.98035E-12	-1.113542E+11	17.850523	0.599478	0	0
0	0	0	-0.045998	5.993812	-17.052489	5.993812	9419	-4.346244E-11	-2.300837E+10	17.866594	0.599121	0	0
0	0	0	-0.046121	5.994162	-17.053636	5.994162	9418.5	-9.38636E-12	-1.065376E+11	17.803963	0.597455	0	0
0	0	0	-0.046447	5.994056	-17.053748	5.994056	9416.5	-1.229425E-11	-8.133885E+10	17.907312	0.596702	0	0
0	0	0	-0.044201	5.99403	-17.05084	5.99403	9428	-1.334365E-11	-7.494199E+10	17.736587	0.59571	0	0
0	0	0	-0.04216	5.993983	-17.048133	5.993983	9438.5	-1.566171E-11	-6.385E+10	17.918199	0.594163	0	0
0	0	0	-0.042282	5.993798	-17.047763	5.993798	9437.5	-5.046016E-11	-1.981762E+10	17.723379	0.593529	0	0
0	0	0	-0.0422	5.994096	-17.048503	5.994096	9438.5	-1.103933E-11	-9.058522E+10	17.936779	0.591189	0	0
0	0	0	-0.042241	5.993957	-17.048161	5.993957	9438	-1.737245E-11	-5.756241E+10	17.705438	0.591625	0	0
0	0	0	-0.040934	5.99401	-17.046663	5.99401	9445	-1.426689E-11	-7.009237E+10	17.873693	0.589404	0	0
0	0	0	-0.040689	5.994069	-17.046522	5.994069	9446	-1.187259E-11	-8.422765E+10	17.723098	0.589245	0	0
0	0	0	-0.039913	5.993964	-17.045244	5.993964	9450	-1.693192E-11	-5.906006E+10	17.819797	0.587302	0	0
0	0	0	-0.040649	5.994155	-17.046714	5.994155	9446	-9.555114E-12	-1.04656E+11	17.762456	0.586985	0	0
0	0	0	-0.039301	5.994267	-17.045333	5.994267	9453	-7.61773E-12	-1.312727E+11	17.766201	0.585081	0	0
0	0	0	-0.038974	5.994129	-17.044527	5.994129	9455	-1.017535E-11	-9.827671E+10	17.805427	0.584605	0	0
0	0	0	-0.039342	5.994195	-17.045178	5.994195	9452.5	-8.771467E-12	-1.14006E+11	17.675865	0.583614	0	0
0	0	0	-0.040608	5.99401	-17.046251	5.99401	9446	-1.42684E-11	-7.008495E+10	17.816139	0.582265	0	0
0	0	0	-0.039995	5.994063	-17.045628	5.994063	9449.5	-1.210278E-11	-8.262562E+10	17.615612	0.581591	0	0
0	0	0	-0.040036	5.994096	-17.045773	5.994096	9449	-1.105161E-11	-9.048455E+10	17.828067	0.579648	0	0
0	0	0	-0.042323	5.994102	-17.048676	5.994102	9437.5	-1.084979E-11	-9.216764E+10	17.606109	0.579568	0	0
0	0	0	-0.041343	5.994221	-17.047777	5.994221	9442.5	-8.304632E-12	-1.204147E+11	17.82265	0.577268	0	0
0	0	0	-0.041547	5.994181	-17.047923	5.994181	9441.5	-9.009454E-12	-1.109945E+11	17.600981	0.577665	0	0
0	0	0	-0.043099	5.993944	-17.049206	5.993944	9433.5	-1.836788E-11	-5.444288E+10	17.748333	0.575523	0	0
0	0	0	-0.043385	5.993812	-17.049192	5.993812	9432	-4.352243E-11	-2.297666E+10	17.616077	0.575483	0	0
0	0	0	-0.043385	5.994208	-17.050316	5.994208	9432	-8.517794E-12	-1.174013E+11	17.707465	0.573262	0	0
0	0	0	-0.043875	5.994129	-17.050709	5.994129	9430	-1.014845E-11	-9.853726E+10	17.686345	0.572866	0	0
0	0	0	-0.046978	5.994089	-17.054512	5.994089	9414	-1.120521E-11	-8.924421E+10	17.657354	0.571359	0	0
0	0	0	-0.048326	5.9943	-17.056811	5.9943	9407	-7.152858E-12	-1.398043E+11	17.725103	0.570605	0	0
0	0	0	-0.047387	5.994247	-17.055477	5.994247	9412	-7.866998E-12	-1.271133E+11	17.581729	0.569614	0	0
0	0	0	-0.049551	5.99403	-17.057589	5.99403	9400.5	-1.330473E-11	-7.516122E+10	17.732409	0.568503	0	0
0	0	0	-0.049755	5.99432	-17.058671	5.99432	9400	-6.913446E-12	-1.446457E+11	17.542444	0.567908	0	0
0	0	0	-0.05	5.994023	-17.058137	5.994023	9398.5	-1.358735E-11	-7.359786E+10	17.750521	0.565886	0	0
0	0	0	-0.051919	5.994195	-17.061045	5.994195	9388.5	-8.712078E-12	-1.147832E+11	17.525587	0.566084	0	0
0	0	0	-0.052328	5.994122	-17.061354	5.994122	9386.5	-1.026562E-11	-9.741254E+10	17.727047	0.563744	0	0
0	0	0	-0.052614	5.994016	-17.061415	5.994016	9385	-1.386537E-11	-7.21221E+10	17.540972	0.563704	0	0
0	0	0	-0.051715	5.994261	-17.060975	5.994261	9390	-7.658571E-12	-1.305727E+11	17.662904	0.561682	0	0
0	0	0	-0.053226	5.994049	-17.062281	5.994049	9382	-1.249128E-11	-8.005582E+10	17.531244	0.56192	0	0
0	0	0	-0.053104	5.994043	-17.062108	5.994043	9382.5	-1.27438E-11	-7.846951E+10	17.60665	0.559461	0	0
0	0	0	-0.053675	5.994228	-17.063354	5.994228	9380	-8.143354E-12	-1.227995E+11	17.572521	0.559421	0	0
0	0	0	-0.05339	5.994016	-17.062394	5.994016	9381	-1.385947E-11	-7.215286E+10	17.522445	0.557755	0	0
0	0	0	-0.052818	5.99401	-17.061654	5.99401	9384	-1.417475E-11	-7.0548E+10	17.604121	0.556962	0	0
0	0	0	-0.053675	5.994195	-17.06326	5.994195	9380	-8.704191E-12	-1.148872E+11	17.451884	0.556129	0	0
0	0	0	-0.051225	5.994069	-17.059813	5.994069	9392	-1.180471E-11	-8.471192E+10	17.612197	0.554543	0	0
0	0	0	-0.052655	5.994089	-17.061673	5.994089	9385	-1.117069E-11	-8.951998E+10	17.405711	0.554464	0	0
0	0	0	-0.052369	5.99401	-17.061087	5.99401	9386.5	-1.417852E-11	-7.052921E+10	17.603448	0.552481	0	0
0	0	0	-0.0529	5.99395	-17.061588	5.99395	9384	-1.775825E-11	-5.631185E+10	17.380582	0.552401	0	0
0	0	0	-0.05049	5.993944	-17.05853	5.993944	9396	-1.829486E-11	-5.466016E+10	17.587972	0.550022	0	0
0	0	0	-0.049755	5.994096	-17.058034	5.994096	9400	-1.09943E-11	-9.095623E+10	17.368843	0.550537	0	0
0	0	0	-0.050245	5.994142	-17.058783	5.994142	9397	-9.799838E-12	-1.020425E+11	17.521213	0.548396	0	0
0	0	0	-0.048816	5.993997	-17.056568	5.993997	9404.5	-1.487265E-11	-6.723752E+10	17.405211	0.548435	0	0
0	0	0	-0.047672	5.99432	-17.056043	5.99432	9410.5	-6.921168E-12	-1.444843E+11	17.465346	0.546452	0	0
0	0	0	-0.047305	5.994254	-17.055392	5.994254	9412	-7.770589E-12	-1.286904E+11	17.456995	0.546254	0	0
0	0	0	-0.045671	5.993891	-17.052301	5.993891	9420.5	-2.385912E-11	-4.191269E+10	17.418006	0.544469	0	0
0	0	0	-0.045304	5.994109	-17.052456	5.994109	9422.5	-1.06508E-11	-9.38897E+10	17.481507	0.543954	0	0
0	0	0	-0.044242	5.994056	-17.050967	5.994056	9427.5	-1.230861E-11	-8.124394E+10	17.34476	0.542923	0	0
0	0	0	-0.043303	5.994069	-17.049819	5.994069	9432.5	-1.185562E-11	-8.43482E+10	17.49474	0.541653	0	0
0	0	0	-0.043221	5.994016	-17.049566	5.994016	9433	-1.393629E-11	-7.175511E+10	17.297055	0.541495	0	0
0	0	0	-0.042731	5.994214	-17.04951	5.994214	9435.5	-8.408244E-12	-1.189309E+11	17.505499	0.539314	0	0
0	0	0	-0.041424	5.993831	-17.046775	5.993831	9442	-3.614211E-11	-2.766856E+10	17.277974	0.539274	0	0
0	0	0	-0.042609	5.994168	-17.049224	5.994168	9436	-9.266719E-12	-1.079131E+11	0	0	0	0
0	0	0	-0.041792	5.993825	-17.04722	5.993825	9440.5	-3.831326E-11	-2.610063E+10	0	0	0	0
0	0	0	-0.042609	5.994003	-17.048756	5.994003	9436	-1.45802E-11	-6.858614E+10	0	0	0	0
0	0	0	-0.042119	5.994056	-17.048288	5.994056	9438.5	-1.232297E-11	-8.114926E+10	0	0	0	0
0	0	0	-0.04269	5.994201	-17.049421	5.994201	9435.5	-8.636729E-12	-1.157846E+11	0	0	0	0
0	0	0	-0.041261	5.994082	-17.047281	5.994082	9443	-1.144188E-11	-8.739823E+10	0	0	0	0
0	0	0	-0.044038	5.994109	-17.050859	5.994109	9429	-1.065814E-11	-9.382497E+10	0	0	0	0
0	0	0	-0.04363	5.994096	-17.050306	5.994096	9431	-1.103056E-11	-9.065725E+10	0	0	0	0
0	0	0	-0.044814	5.993911	-17.051276	5.993911	9425	-2.145121E-11	-4.661741E+10	0	0	0	0
0	0	0	-0.045712	5.994056	-17.052821	5.994056	9420.5	-1.229947E-11	-8.130431E+10	0	0	0	0
0	0	0	-0.046284	5.994135	-17.053767	5.994135	9417.5	-9.975638E-12	-1.002442E+11	0	0	0	0
0	0	0	-0.047917	5.994076	-17.055659	5.994076	9409	-1.160949E-11	-8.613646E+10	0	0	0	0
0	0	0	-0.049265	5.994102	-17.057434	5.994102	9402	-1.080898E-11	-9.251565E+10	0	0	0	0
0	0	0	-0.048489	5.994023	-17.056231	5.994023	9406	-1.359819E-11	-7.353918E+10	0	0	0	0
0	0	0	-0.049265	5.994069	-17.057341	5.994069	9402	-1.181728E-11	-8.462182E+10	0	0	0	0
0	0	0	-0.050368	5.9943	-17.059387	5.9943	9396.5	-7.144874E-12	-1.399605E+11	0	0	0	0
0	0	0	-0.05098	5.994096	-17.059579	5.994096	9393.5	-1.09867E-11	-9.101917E+10	0	0	0	0
0	0	0	-0.051838	5.994102	-17.06068	5.994102	9389	-1.079404E-11	-9.264374E+10	0	0	0	0
0	0	0	-0.05339	5.994076	-17.062562	5.994076	9381	-1.157494E-11	-8.639355E+10	0	0	0	0
0	0	0	-0.052205	5.994049	-17.060993	5.994049	9387.5	-1.249861E-11	-8.000892E+10	0	0	0	0
0	0	0	-0.053798	5.994214	-17.063471	5.994214	9379	-8.357895E-12	-1.196473E+11	0	0	0	0
0	0	0	-0.053594	5.994096	-17.062876	5.994096	9380.5	-1.097149E-11	-9.114531E+10	0	0	0	0
0	0	0	-0.054329	5.994228	-17.064178	5.994228	9376.5	-8.140315E-12	-1.228454E+11	0	0	0	0
0	0	0	-0.055391	5.994016	-17.064918	5.994016	9371	-1.384469E-11	-7.222985E+10	0	0	0	0
0	0	0	-0.056085	5.994419	-17.066937	5.994419	9367.5	-5.920095E-12	-1.689162E+11	0	0	0	0
0	0	0	-0.056044	5.994115	-17.066023	5.994115	9367.5	-1.04139E-11	-9.602554E+10	0	0	0	0
0	0	0	-0.055717	5.994195	-17.065836	5.994195	9369.5	-8.694447E-12	-1.150159E+11	0	0	0	0
0	0	0	-0.056575	5.994082	-17.066599	5.994082	9365	-1.134737E-11	-8.812616E+10	0	0	0	0
0	0	0	-0.055636	5.994228	-17.065827	5.994228	9370	-8.134672E-12	-1.229306E+11	0	0	0	0
0	0	0	-0.054043	5.994115	-17.063499	5.994115	9378	-1.042557E-11	-9.591802E+10	0	0	0	0
0	0	0	-0.054165	5.994076	-17.063541	5.994076	9377.5	-1.157062E-11	-8.64258E+10	0	0	0	0
0	0	0	-0.052409	5.994089	-17.061363	5.994089	9386	-1.117188E-11	-8.951044E+10	0	0	0	0
0	0	0	-0.051838	5.994115	-17.060717	5.994115	9389	-1.04378E-11	-9.580565E+10	0	0	0	0
0	0	0	-0.051103	5.993944	-17.059303	5.993944	9393	-1.828902E-11	-5.467762E+10	0	0	0	0
0	0	0	-0.05049	5.994162	-17.059148	5.994162	9396	-9.363937E-12	-1.067927E+11	0	0	0	0
0	0	0	-0.051715	5.994082	-17.060469	5.994082	9390	-1.137766E-11	-8.789153E+10	0	0	0	0
0	0	0	-0.049428	5.994261	-17.05809	5.994261	9401	-7.667542E-12	-1.304199E+11	0	0	0	0
0	0	0	-0.048448	5.994148	-17.056535	5.994148	9406	-9.659693E-12	-1.03523E+11	0	0	0	0
0	0	0	-0.047632	5.994129	-17.055449	5.994129	9410.5	-1.012746E-11	-9.874144E+10	0	0	0	0
0	0	0	-0.046243	5.994049	-17.053472	5.994049	9417.5	-1.253855E-11	-7.975404E+10	0	0	0	0
0	0	0	-0.045835	5.994036	-17.05292	5.994036	9420	-1.3058E-11	-7.658138E+10	0	0	0	0
0	0	0	-0.045631	5.994208	-17.053149	5.994208	9420.5	-8.507409E-12	-1.175446E+11	0	0	0	0
0	0	0	-0.045386	5.99395	-17.052109	5.99395	9422	-1.783016E-11	-5.608474E+10	0	0	0	0
0	0	0	-0.045141	5.993752	-17.051238	5.993752	9423.5	-1.133669E-10	-8.820915E+9	0	0	0	0
0	0	0	-0.045304	5.993772	-17.0515	5.993772	9422.5	-7.381249E-11	-1.354784E+10	0	0	0	0
0	0	0	-0.04367	5.994234	-17.050751	5.994234	9430.5	-8.083033E-12	-1.237159E+11	0	0	0	0
0	0	0	-0.044365	5.994122	-17.051308	5.994122	9427	-1.030991E-11	-9.699403E+10	0	0	0	0
0	0	0	-0.043425	5.993845	-17.049337	5.993845	9432	-3.241977E-11	-3.084538E+10	0	0	0	0
0	0	0	-0.043711	5.993977	-17.050072	5.993977	9430.5	-1.60436E-11	-6.233017E+10	0	0	0	0
0	0	0	-0.041874	5.994102	-17.04811	5.994102	9440	-1.085267E-11	-9.214323E+10	0	0	0	0
0	0	0	-0.043303	5.994102	-17.049913	5.994102	9432.5	-1.084405E-11	-9.22165E+10	0	0	0	0
0	0	0	-0.044324	5.99395	-17.05077	5.99395	9427.5	-1.784057E-11	-5.605202E+10	0	0	0	0
0	0	0	-0.044651	5.993977	-17.051257	5.993977	9425.5	-1.603509E-11	-6.236323E+10	0	0	0	0
0	0	0	-0.043834	5.994274	-17.05107	5.994274	9430	-7.50937E-12	-1.33167E+11	0	0	0	0
0	0	0	-0.044651	5.994287	-17.052137	5.994287	9425.5	-7.332443E-12	-1.363802E+11	0	0	0	0
0	0	0	-0.044691	5.994142	-17.051777	5.994142	9425.5	-9.82956E-12	-1.01734E+11	0	0	0	0
0	0	0	-0.046243	5.994049	-17.053472	5.994049	9417.5	-1.253855E-11	-7.975404E+10	0	0	0	0
0	0	0	-0.047427	5.994162	-17.055285	5.994162	9411.5	-9.379384E-12	-1.066168E+11	0	0	0	0
0	0	0	-0.046529	5.994142	-17.054095	5.994142	9416	-9.819652E-12	-1.018366E+11	0	0	0	0
0	0	0	-0.048244	5.994241	-17.05654	5.994241	9407.5	-7.962021E-12	-1.255962E+11	0	0	0	0
0	0	0	-0.050572	5.994142	-17.059195	5.994142	9395.5	-9.798274E-12	-1.020588E+11	0	0	0	0
0	0	0	-0.050123	5.994148	-17.058647	5.994148	9397.5	-9.650964E-12	-1.036166E+11	0	0	0	0
0	0	0	-0.053512	5.994056	-17.062661	5.994056	9380.5	-1.224725E-11	-8.1651E+10	0	0	0	0
0	0	0	-0.052859	5.994314	-17.062567	5.994314	9384	-6.977856E-12	-1.433105E+11	0	0	0	0
0	0	0	-0.054329	5.994115	-17.06386	5.994115	9376.5	-1.04239E-11	-9.593337E+10	0	0	0	0
0	0	0	-0.055186	5.99401	-17.064642	5.99401	9372	-1.415662E-11	-7.063833E+10	0	0	0	0
0	0	0	-0.055309	5.994234	-17.065433	5.994234	9371.5	-8.032463E-12	-1.244948E+11	0	0	0	0
0	0	0	-0.054206	5.994181	-17.063892	5.994181	9377	-8.947906E-12	-1.11758E+11	0	0	0	0
0	0	0	-0.055758	5.994115	-17.065663	5.994115	9369	-1.041556E-11	-9.601016E+10	0	0	0	0
0	0	0	-0.055186	5.994043	-17.064735	5.994043	9372	-1.272954E-11	-7.855742E+10	0	0	0	0
0	0	0	-0.055513	0	-0.055513	0	9370.5	0	0	0	0	0	0
0	0	0	-0.056697	0	-0.056697	0	9364.5	0	0	0	0	0	0
