Vload_(V)	ILoad_(A)	RsLoad (ohm)	SunsVoc_Voltage_(V)	SunsVoc_Current_(A)	Model_Voltage_(V)	Model_Current_(A)	Carrier_Density_(cm-3)	Lifetime_(s)	Inverse_Lifetime_(s-1)	Efficiency_(%)	Intensity_(suns)	Dark_IV_Voltage_(V)	Dark_IV_Current_(A)
3.216732	5.998826	0	51.760169	-0.512499	52.048679	-0.512499	7.104003E+15	0.000485	1976.656539	18.815179	1.151456	0	0
3.211756	5.998304	3.226935	52.317997	-0.768445	52.729908	-0.768445	8.678546E+15	0.00057	1627.87927	18.962726	1.149433	0	0
3.310843	5.998346	3.136667	52.454881	-0.59823	52.7716	-0.59823	9.106512E+15	0.000614	1490.847466	18.872171	1.15102	0	0
6.076497	5.995386	4.026337	52.417679	-0.230574	52.540165	-0.230574	8.988487E+15	0.000642	1423.826929	18.872123	1.149037	0	0
11.104537	5.967671	4.700541	52.325021	0.17232	52.23271	0.17232	8.700088E+15	0.000664	1379.837436	18.937492	1.149632	0	0
15.446302	5.96217	4.070841	52.210351	0.54992	51.912721	0.54992	8.353947E+15	0.000682	1350.406723	18.788332	1.148323	0	0
19.648337	5.95683	3.446989	52.086086	0.889698	51.599224	0.889698	7.991911E+15	0.000696	1331.078646	18.958985	1.147371	0	0
23.989576	5.950959	2.793826	51.97011	1.198154	51.307749	1.198154	7.665934E+15	0.00071	1310.20863	18.744208	1.146895	0	0
28.270017	5.946535	2.123568	51.844905	1.499812	51.006721	1.499812	7.326531E+15	0.000724	1291.313444	18.91667	1.145031	0	0
32.589168	5.939894	1.464004	51.711206	1.778828	50.705616	1.778828	6.978003E+15	0.000736	1278.651224	18.734818	1.145309	0	0
36.886863	5.904612	0.990246	51.58792	2.037099	50.424209	2.037099	6.668941E+15	0.000749	1261.597353	18.796053	1.143762	0	0
37.942401	5.877045	0.942174	51.463736	2.283952	50.145323	2.283952	6.369204E+15	0.000763	1243.804882	18.768574	1.143603	0	0
39.01022	5.834284	0.908673	51.338204	2.517136	49.869939	2.517136	6.077658E+15	0.000777	1226.475402	18.682719	1.142572	0	0
40.062998	5.776122	0.874461	51.206629	2.741667	49.589987	2.741667	5.784039E+15	0.00079	1210.365676	18.805224	1.141898	0	0
41.124041	5.692918	0.843406	51.077299	2.949765	49.319544	2.949765	5.506985E+15	0.000803	1194.298887	18.608834	1.142294	0	0
42.180287	5.579982	0.810009	50.950747	3.136551	49.062534	3.136551	5.246614E+15	0.000815	1180.683285	18.809907	1.140906	0	0
43.230687	5.42958	0.772386	50.826604	3.307367	48.815748	3.307367	5.001192E+15	0.000827	1168.259757	18.601357	1.141819	0	0
44.268742	5.226632	0.738239	50.702134	3.469653	48.571771	3.469653	4.764753E+15	0.000838	1155.559641	18.753738	1.140153	0	0
45.276952	4.96424	0.70666	50.579542	3.616704	48.337497	3.616704	4.541018E+15	0.000848	1145.010881	18.655879	1.140986	0	0
46.268765	4.626798	0.677029	50.457523	3.751738	48.109679	3.751738	4.327052E+15	0.000857	1136.320049	18.681495	1.139598	0	0
47.214756	4.21796	0.649341	50.333747	3.880338	47.882251	3.880338	4.11863E+15	0.000865	1128.127446	18.743847	1.139796	0	0
48.172261	3.683068	0.630581	50.215647	3.99719	47.66755	3.99719	3.927616E+15	0.000873	1120.032661	18.62123	1.138804	0	0
49.086483	3.06556	0.617401	50.091055	4.112689	47.444606	4.112689	3.734154E+15	0.000881	1112.316044	18.803073	1.137496	0	0
49.935077	2.38824	0.619307	49.965891	4.219274	47.225375	4.219274	3.547873E+15	0.000887	1106.65211	18.595075	1.137654	0	0
50.739774	1.666816	0.633474	49.847914	4.318941	47.018076	4.318941	3.379463E+15	0.000895	1098.481044	18.800281	1.135552	0	0
51.427593	0.979894	0.630894	49.722056	4.415662	46.802029	4.415662	3.207234E+15	0.000901	1092.577884	18.628387	1.135751	0	0
42.181832	5.581717	0.807599	49.603956	4.501945	46.601218	4.501945	3.052383E+15	0.000907	1086.936364	18.745398	1.133212	0	0
52.246342	0	0	49.480466	4.585085	46.394955	4.585085	2.897241E+15	0.000912	1082.991728	18.706308	1.132697	0	0
0	0	0	49.360774	4.660525	46.19758	4.660525	2.753273E+15	0.000915	1080.105403	18.662641	1.130674	0	0
0	0	0	49.242471	4.731564	46.004052	4.731564	2.616971E+15	0.000919	1077.209465	18.755796	1.129722	0	0
0	0	0	49.120573	4.799573	45.807378	4.799573	2.482562E+15	0.000921	1075.701931	18.59153	1.128374	0	0
0	0	0	49.003617	4.862287	45.619691	4.862287	2.359172E+15	0.000923	1073.731469	18.78261	1.126391	0	0
0	0	0	48.882864	4.923168	45.427882	4.923168	2.237311E+15	0.000925	1072.477194	18.584808	1.125836	0	0
0	0	0	48.763539	4.978973	45.240728	4.978973	2.122234E+15	0.000926	1072.803255	18.753362	1.12302	0	0
0	0	0	48.646175	5.032092	45.057283	5.032092	2.014052E+15	0.000927	1072.283253	18.612993	1.123139	0	0
0	0	0	48.52636	5.08242	44.872193	5.08242	1.908557E+15	0.000926	1073.334088	18.648215	1.120878	0	0
0	0	0	48.409649	5.13077	44.691826	5.13077	1.810435E+15	0.000928	1072.406001	18.657679	1.1206	0	0
0	0	0	48.289753	5.175115	44.509858	5.175115	1.714235E+15	0.000926	1075.303167	18.562202	1.118855	0	0
0	0	0	48.174104	5.216463	44.334899	5.216463	1.625704E+15	0.000924	1077.442258	18.718373	1.117626	0	0
0	0	0	48.055923	5.255295	44.158172	5.255295	1.539404E+15	0.000921	1081.839079	18.518585	1.11715	0	0
0	0	0	47.939212	5.291772	43.984606	5.291772	1.458162E+15	0.000917	1086.501281	18.725123	1.114691	0	0
0	0	0	47.82197	5.326998	43.810905	5.326998	1.380391E+15	0.000914	1090.915029	18.531585	1.11477	0	0
0	0	0	47.705136	5.360489	43.638634	5.360489	1.306577E+15	0.000911	1095.43131	18.677784	1.112153	0	0
0	0	0	47.584383	5.392549	43.46214	5.392549	1.234002E+15	0.000905	1101.925571	18.600734	1.111955	0	0
0	0	0	47.466937	5.422195	43.291304	5.422195	1.166899E+15	0.0009	1108.592535	18.613429	1.109416	0	0
0	0	0	47.351002	5.449931	43.123524	5.449931	1.103894E+15	0.000895	1115.75187	18.693902	1.108266	0	0
0	0	0	47.235026	5.476254	42.956484	5.476254	1.043953E+15	0.000889	1123.46122	18.556401	1.10664	0	0
0	0	0	47.117416	5.501594	42.787857	5.501594	9.861943E+14	0.000882	1131.800314	18.738968	1.104538	0	0
0	0	0	47.000542	5.525509	42.621002	5.525509	9.316895E+14	0.000876	1140.577439	18.544199	1.103626	0	0
0	0	0	46.883668	5.548216	42.454842	5.548216	8.799476E+14	0.000869	1149.877094	18.733899	1.100691	0	0
0	0	0	46.766262	5.569781	42.28867	5.569781	8.306337E+14	0.000861	1159.996415	18.57849	1.100017	0	0
0	0	0	46.650246	5.590004	42.125104	5.590004	7.844112E+14	0.000854	1170.588376	18.669509	1.097122	0	0
0	0	0	46.532881	5.609547	41.960153	5.609547	7.400771E+14	0.000846	1181.52358	18.640562	1.095813	0	0
0	0	0	46.415762	5.627681	41.796449	5.627681	6.981588E+14	0.000837	1194.229075	18.571389	1.093513	0	0
0	0	0	46.302645	5.644288	41.638894	5.644288	6.597771E+14	0.000828	1207.253061	18.69145	1.091728	0	0
0	0	0	46.183851	5.661021	41.473826	5.661021	6.215935E+14	0.000819	1221.024471	18.507736	1.090538	0	0
0	0	0	46.067058	5.676714	41.311986	5.676714	5.860764E+14	0.000809	1234.937808	18.710372	1.087722	0	0
0	0	0	45.948918	5.691496	41.14902	5.691496	5.520934E+14	0.000799	1250.86211	18.506735	1.086929	0	0
0	0	0	45.830492	5.705201	40.986435	5.705201	5.198958E+14	0.000788	1269.159033	18.678155	1.083836	0	0
0	0	0	45.714516	5.718738	40.826964	5.718738	4.900886E+14	0.000778	1284.332516	18.536008	1.083518	0	0
0	0	0	45.594947	5.731321	40.663574	5.731321	4.610559E+14	0.000767	1303.926749	18.593566	1.080544	0	0
0	0	0	45.479093	5.743218	40.505379	5.743218	4.344884E+14	0.000756	1322.164607	18.61162	1.07983	0	0
0	0	0	45.358217	5.754834	40.340879	5.754834	4.083255E+14	0.000744	1342.98839	18.519278	1.077688	0	0
0	0	0	45.240853	5.765827	40.18128	5.765827	3.843659E+14	0.000734	1362.462304	18.683653	1.075626	0	0
0	0	0	45.119976	5.776386	40.017447	5.776386	3.610981E+14	0.000722	1384.56128	18.49421	1.074595	0	0
0	0	0	45.001101	5.786449	39.856493	5.786449	3.395363E+14	0.000711	1405.904262	18.708962	1.071779	0	0
0	0	0	44.882838	5.795676	39.696955	5.795676	3.193163E+14	0.000699	1430.00553	18.516941	1.071462	0	0
0	0	0	44.764412	5.804541	39.537429	5.804541	3.00233E+14	0.000687	1454.554245	18.666933	1.06813	0	0
0	0	0	44.645128	5.813198	39.376891	5.813198	2.821263E+14	0.000676	1478.949697	18.585287	1.067377	0	0
0	0	0	44.524456	5.821282	39.214998	5.821282	2.64885E+14	0.000664	1506.632895	18.60185	1.064323	0	0
0	0	0	44.403662	5.829081	39.053115	5.829081	2.486505E+14	0.000652	1534.516629	18.665297	1.062975	0	0
0	0	0	44.28495	5.836348	38.894302	5.836348	2.336387E+14	0.00064	1563.208365	18.52912	1.060873	0	0
0	0	0	44.161296	5.843327	38.72934	5.843327	2.189396E+14	0.000626	1596.516567	18.722675	1.058255	0	0
0	0	0	44.04773	5.849947	38.577563	5.849947	2.062355E+14	0.000616	1622.717519	18.513268	1.057105	0	0
0	0	0	43.924322	5.856342	38.413304	5.856342	1.932452E+14	0.000603	1657.425467	18.71133	1.053853	0	0
0	0	0	43.803445	5.862544	38.252399	5.862544	1.812976E+14	0.000592	1689.762786	18.544846	1.05298	0	0
0	0	0	43.683549	5.868164	38.093233	5.868164	1.701615E+14	0.000579	1726.115498	18.657543	1.049649	0	0
0	0	0	43.557037	5.873886	37.925414	5.873886	1.591374E+14	0.000567	1764.864679	18.601332	1.049133	0	0
0	0	0	43.437468	5.879315	37.76672	5.879315	1.493634E+14	0.000556	1798.65882	18.570121	1.046119	0	0
0	0	0	43.312467	5.884294	37.601426	5.884294	1.397757E+14	0.000543	1841.960661	18.662225	1.044771	0	0
0	0	0	43.188569	5.889077	37.437679	5.889077	1.3087E+14	0.00053	1885.151752	18.499059	1.043105	0	0
0	0	0	43.065773	5.893914	37.275239	5.893914	1.225951E+14	0.00052	1923.706913	18.70366	1.040289	0	0
0	0	0	42.939833	5.89811	37.109335	5.89811	1.146437E+14	0.000506	1974.856781	18.504753	1.039377	0	0
0	0	0	42.813117	5.902168	36.942521	5.902168	1.071568E+14	0.000493	2027.719791	18.691711	1.036085	0	0
0	0	0	42.685503	5.906215	36.774514	5.906215	1.001046E+14	0.000481	2079.682398	18.555204	1.035371	0	0
0	0	0	42.563524	5.909964	36.613999	5.909964	9.379305E+13	0.00047	2129.779885	18.623897	1.032595	0	0
0	0	0	42.429417	5.913741	36.437823	5.913741	8.730714E+13	0.000456	2190.753339	18.627949	1.031405	0	0
0	0	0	42.292614	5.917596	36.258054	5.917596	8.114805E+13	0.000444	2250.255154	18.563745	1.028708	0	0
0	0	0	42.160589	5.921044	36.084794	5.921044	7.561246E+13	0.000432	2312.465753	18.706576	1.026646	0	0
0	0	0	42.033874	5.923991	35.918834	5.923991	7.065174E+13	0.00042	2381.083806	18.524985	1.025179	0	0
0	0	0	41.904707	5.927364	35.749245	5.927364	6.592712E+13	0.00041	2436.712575	18.729442	1.022164	0	0
0	0	0	41.765577	5.930246	35.567311	5.930246	6.11881E+13	0.000397	2519.5654	18.527634	1.021688	0	0
0	0	0	41.635145	5.932901	35.396765	5.932901	5.705295E+13	0.000385	2597.540477	18.69219	1.018159	0	0
0	0	0	41.501242	5.935783	35.221481	5.935783	5.309632E+13	0.000375	2669.114392	18.582386	1.017286	0	0
0	0	0	41.373056	5.938504	35.053686	5.938504	4.956431E+13	0.000366	2735.918704	18.625962	1.013915	0	0
0	0	0	41.238091	5.940742	34.877652	5.940742	4.609764E+13	0.000353	2832.496774	18.662747	1.012686	0	0
0	0	0	41.107005	5.943278	34.706261	5.943278	4.296161E+13	0.000344	2906.596819	18.556285	1.010068	0	0
0	0	0	40.970775	5.945574	34.528475	5.945574	3.992719E+13	0.000334	2998.194761	18.711432	1.008085	0	0
0	0	0	40.836136	5.947954	34.352618	5.947954	3.713787E+13	0.000325	3079.339903	18.511063	1.006578	0	0
0	0	0	40.700069	5.949973	34.175285	5.949973	3.4516E+13	0.000314	3181.717807	18.724567	1.003366	0	0
0	0	0	40.558978	5.951612	33.99188	5.951612	3.199183E+13	0.000301	3317.598379	18.533615	1.002771	0	0
0	0	0	40.423524	5.953544	33.815382	5.953544	2.974167E+13	0.000292	3422.565742	18.683475	0.999281	0	0
0	0	0	40.285618	5.955704	33.635451	5.955704	2.761274E+13	0.000285	3510.627522	18.6155	0.99821	0	0
0	0	0	40.148571	5.957211	33.457327	5.957211	2.564755E+13	0.000274	3647.552465	18.601128	0.99583	0	0
0	0	0	40.00699	5.959045	33.272978	5.959045	2.376367E+13	0.000266	3763.207904	18.671173	0.994323	0	0
0	0	0	39.870433	5.960696	33.095279	5.960696	2.207746E+13	0.000258	3882.489967	18.543237	0.992181	0	0
0	0	0	39.729056	5.962275	32.911437	5.962275	2.045737E+13	0.000249	4016.489924	18.729204	0.989802	0	0
0	0	0	39.592989	5.963605	32.734695	5.963605	1.901021E+13	0.00024	4164.953925	18.523033	0.988731	0	0
0	0	0	39.449612	5.964999	32.548449	5.964999	1.759569E+13	0.000231	4321.701791	18.734952	0.98536	0	0
0	0	0	39.314688	5.966169	32.373329	5.966169	1.636063E+13	0.000223	4487.129296	18.548873	0.984963	0	0
0	0	0	39.173271	5.967581	32.18955	5.967581	1.515889E+13	0.000216	4633.481019	18.672064	0.98187	0	0
0	0	0	39.036345	5.968658	32.011931	5.968658	1.407935E+13	0.000208	4816.808907	18.612638	0.980958	0	0
0	0	0	38.894357	5.969954	31.827516	5.969954	1.304087E+13	0.000201	4976.923752	18.595541	0.978102	0	0
0	0	0	38.756206	5.971078	31.648234	5.971078	1.210392E+13	0.000194	5153.578944	18.704278	0.975921	0	0
0	0	0	38.614585	5.972068	31.464624	5.972068	1.121316E+13	0.000186	5364.390601	18.543036	0.974335	0	0
0	0	0	38.473127	5.973204	31.281036	5.973204	1.038878E+13	0.00018	5544.201398	18.744636	0.971558	0	0
0	0	0	38.330689	5.974304	31.096214	5.974304	9.619839E+12	0.000175	5730.401004	18.528595	0.970567	0	0
0	0	0	38.187394	5.97515	30.91058	5.97515	8.903624E+12	0.000167	5977.670017	18.728933	0.967553	0	0
0	0	0	38.042832	5.976059	30.723228	5.976059	8.235043E+12	0.000161	6215.050375	18.566409	0.966759	0	0
0	0	0	37.897944	5.977139	30.535231	5.977139	7.615274E+12	0.000156	6401.952006	18.672784	0.963349	0	0
0	0	0	37.752402	5.977686	30.347038	5.977686	7.039621E+12	0.000148	6750.896068	18.64908	0.962595	0	0
0	0	0	37.607514	5.978631	30.159182	5.978631	6.509742E+12	0.000143	6974.040459	18.605229	0.960057	0	0
0	0	0	37.46087	5.979437	29.969224	5.979437	6.01401E+12	0.000138	7247.382266	18.714546	0.958471	0	0
0	0	0	37.312511	5.980101	29.777225	5.980101	5.550857E+12	0.000132	7583.350546	18.542271	0.956884	0	0
0	0	0	37.163253	5.980721	29.584115	5.980721	5.120862E+12	0.000126	7948.16567	18.752124	0.954148	0	0
0	0	0	37.013056	5.981641	29.389402	5.981641	4.721759E+12	0.000122	8181.886065	18.545211	0.953434	0	0
0	0	0	36.864247	5.98212	29.197029	5.98212	4.357011E+12	0.000116	8619.324557	18.74186	0.950182	0	0
0	0	0	36.71062	5.982979	28.997952	5.982979	4.009971E+12	0.000113	8883.959761	18.588849	0.949785	0	0
0	0	0	36.555523	5.983624	28.797245	5.983624	3.687628E+12	0.000108	9267.661175	18.665506	0.946692	0	0
0	0	0	36.399282	5.984028	28.595368	5.984028	3.389092E+12	0.000102	9815.898996	18.652356	0.94574	0	0
0	0	0	36.239652	5.984945	28.388444	5.984945	3.109015E+12	9.963212E-5	10036.923998	18.593718	0.94336	0	0
0	0	0	36.081492	5.985359	28.184064	5.985359	2.854341E+12	9.428052E-5	10606.644373	18.737288	0.941496	0	0
0	0	0	35.919207	5.985997	27.974065	5.985997	2.614688E+12	9.066004E-5	11030.218268	18.565108	0.93987	0	0
0	0	0	35.755126	5.986454	27.761981	5.986454	2.392825E+12	8.603451E-5	11623.242394	18.770876	0.937054	0	0
0	0	0	35.586511	5.987031	27.543888	5.987031	2.184424E+12	8.238001E-5	12138.866752	18.559128	0.936618	0	0
0	0	0	35.421082	5.987511	27.330021	5.987511	1.997606E+12	7.85344E-5	12733.273224	18.744699	0.933485	0	0
0	0	0	35.250957	5.987741	27.110433	5.987741	1.82213E+12	7.312221E-5	13675.736074	18.611476	0.93285	0	0
0	0	0	35.076585	5.988459	26.8847	5.988459	1.658254E+12	7.115319E-5	14054.184103	18.676827	0.929836	0	0
0	0	0	34.904949	5.98883	26.66296	5.98883	1.511348E+12	6.725531E-5	14868.714261	18.695445	0.928408	0	0
0	0	0	34.727881	5.98928	26.434102	5.98928	1.373416E+12	6.400112E-5	15624.726135	18.60031	0.926663	0	0
0	0	0	34.551916	5.989656	26.206762	5.989656	1.248814E+12	6.0578E-5	16507.64245	18.749418	0.924482	0	0
0	0	0	34.371337	5.989959	25.97357	5.989959	1.132686E+12	5.68209E-5	17599.157178	18.550434	0.923451	0	0
0	0	0	34.184918	5.9904	25.732649	5.9904	1.024118E+12	5.406509E-5	18496.225219	18.762798	0.920595	0	0
0	0	0	34.000582	5.990992	25.494192	5.990992	9.269979E+11	5.263422E-5	18999.045846	18.558237	0.919802	0	0
0	0	0	33.808119	5.991299	25.245654	5.991299	8.354093E+11	4.937047E-5	20255.021142	18.73848	0.91655	0	0
0	0	0	33.614635	5.991519	24.995921	5.991519	7.524536E+11	4.580536E-5	21831.506638	18.614977	0.916193	0	0
0	0	0	33.418293	5.991963	24.742173	5.991963	6.766882E+11	4.386217E-5	22798.69088	18.655699	0.913496	0	0
0	0	0	33.217622	5.992243	24.483078	5.992243	6.071289E+11	4.102157E-5	24377.419865	18.672892	0.912703	0	0
0	0	0	33.010498	5.992436	24.215785	5.992436	5.428229E+11	3.778619E-5	26464.696646	18.583784	0.910561	0	0
0	0	0	32.795085	5.992649	23.937773	5.992649	4.831577E+11	3.479186E-5	28742.356318	18.742982	0.908578	0	0
0	0	0	32.58543	5.993164	23.666729	5.993164	4.313909E+11	3.389281E-5	29504.781544	18.560291	0.90727	0	0
0	0	0	32.366587	5.993362	23.384305	5.993362	3.83262E+11	3.120319E-5	32048.007319	18.770136	0.904652	0	0
0	0	0	32.149418	5.993553	23.104046	5.993553	3.408108E+11	2.8749E-5	34783.820055	18.567488	0.904335	0	0
0	0	0	31.929105	5.993723	22.819761	5.993723	3.025467E+11	2.637207E-5	37918.904333	18.733346	0.901162	0	0
0	0	0	31.706423	5.994283	22.531822	5.994283	2.682348E+11	2.626099E-5	38079.297162	18.622743	0.900765	0	0
0	0	0	31.47831	5.994333	22.237654	5.994333	2.37117E+11	2.347554E-5	42597.530325	18.672995	0.897949	0	0
0	0	0	31.245133	5.994568	21.93667	5.994568	2.090361E+11	2.183879E-5	45790.07911	18.707983	0.897037	0	0
0	0	0	31.008893	5.99475	21.631815	5.99475	1.839757E+11	2.007899E-5	49803.29774	18.603631	0.895015	0	0
0	0	0	30.768733	5.994899	21.321954	5.994899	1.615769E+11	1.830212E-5	54638.46955	18.76329	0.892992	0	0
0	0	0	30.525102	5.995087	21.007551	5.995087	1.41639E+11	1.685037E-5	59345.866842	18.562411	0.892119	0	0
0	0	0	30.276611	5.995215	20.686975	5.995215	1.238357E+11	1.525558E-5	65549.803416	18.776763	0.889145	0	0
0	0	0	30.025589	5.99574	20.362493	5.99574	1.08122E+11	1.558301E-5	64172.471126	18.567533	0.888788	0	0
0	0	0	29.772157	5.995927	20.03544	5.995927	9.42793E+10	1.446477E-5	69133.46648	18.740681	0.885496	0	0
0	0	0	29.511865	5.995896	19.699893	5.995896	8.190456E+10	1.243274E-5	80432.823878	18.634885	0.88506	0	0
0	0	0	29.247979	5.99595	19.359573	5.99595	7.101597E+10	1.098473E-5	91035.437279	18.672746	0.882403	0	0
0	0	0	28.978865	5.996263	19.012084	5.996263	6.140118E+10	1.065426E-5	93859.202526	18.708197	0.881253	0	0
0	0	0	28.701013	5.996205	18.653939	5.996205	5.283792E+10	8.965608E-6	111537.336507	18.591252	0.879547	0	0
0	0	0	28.421283	5.996629	18.29256	5.996629	4.542277E+10	9.195473E-6	108749.167713	18.763662	0.877564	0	0
0	0	0	28.140899	5.996551	17.931182	5.996551	3.903445E+10	7.630616E-6	131051.021526	18.555027	0.876652	0	0
0	0	0	27.854634	5.996836	17.5616	5.996836	3.343812E+10	7.473077E-6	133813.697125	18.778714	0.873757	0	0
0	0	0	27.564899	5.996876	17.187959	5.996876	2.859044E+10	6.522421E-6	153317.297439	18.582549	0.873281	0	0
0	0	0	27.271814	5.996937	16.809964	5.996937	2.440133E+10	5.744205E-6	174088.497057	18.741327	0.870306	0	0
0	0	0	26.969297	5.997155	16.419526	5.997155	2.072008E+10	5.516307E-6	181280.710612	18.640343	0.869751	0	0
0	0	0	26.664493	5.99742	16.026052	5.99742	1.757246E+10	5.559985E-6	179856.587924	18.67801	0.867015	0	0
0	0	0	26.353481	5.997665	15.624601	5.997665	1.485308E+10	5.691672E-6	175695.301934	18.719225	0.866182	0	0
0	0	0	26.038141	5.997534	15.218241	5.997534	1.252518E+10	4.310575E-6	231987.631648	18.607802	0.864199	0	0
0	0	0	25.721617	5.997739	14.809746	5.997739	1.055537E+10	4.318441E-6	231565.066078	18.776836	0.862255	0	0
0	0	0	25.401499	5.997521	14.397386	5.997521	8.878085E+9	3.026187E-6	330448.854004	18.56463	0.861224	0	0
0	0	0	25.078971	5.997859	13.9809	5.997859	7.457606E+9	3.428092E-6	291707.468643	18.777144	0.858567	0	0
0	0	0	24.750563	5.997753	13.557647	5.997753	6.244519E+9	2.588302E-6	386353.722483	18.553638	0.858329	0	0
0	0	0	24.41848	5.997839	13.129298	5.997839	5.21838E+9	2.351702E-6	425224.005002	18.735265	0.854799	0	0
0	0	0	24.079373	5.998315	12.691149	5.998315	4.344336E+9	3.781302E-6	264459.194903	18.618413	0.85472	0	0
0	0	0	23.736305	5.997985	12.249421	5.997985	3.608953E+9	1.908156E-6	524066.046583	18.663422	0.851746	0	0
0	0	0	23.378209	5.998058	11.787549	5.998058	2.973793E+9	1.72137E-6	580932.610246	18.699795	0.850794	0	0
0	0	0	23.026238	5.998151	11.333533	5.998151	2.458547E+9	1.618186E-6	617975.951898	18.59166	0.84885	0	0
0	0	0	22.673492	5.998349	10.878306	5.998349	2.031721E+9	1.892761E-6	528328.768709	18.749976	0.846828	0	0
0	0	0	22.320133	5.998256	10.422859	5.998256	1.67844E+9	1.310031E-6	763340.591585	18.542781	0.845797	0	0
0	0	0	21.963017	5.998389	9.962122	5.998389	1.383775E+9	1.406358E-6	711056.470087	18.744715	0.843179	0	0
0	0	0	21.599898	5.998356	9.493973	5.998356	1.137145E+9	1.074712E-6	930481.576806	18.547309	0.842663	0	0
0	0	0	21.238331	5.998521	9.027422	5.998521	9.352561E+8	1.362195E-6	734109.21319	18.71832	0.83961	0	0
0	0	0	20.870924	5.9986	8.553513	5.9986	7.667861E+8	1.508781E-6	662786.652464	18.607377	0.839372	0	0
0	0	0	20.502946	5.998779	8.078658	5.998779	6.284688E+8	5.872232E-6	170293.004608	18.644754	0.836635	0	0
0	0	0	20.130067	5.998561	7.598306	5.998561	5.137393E+8	8.602241E-7	1162487.805385	18.682914	0.835763	0	0
0	0	0	19.756085	5.99864	7.115914	5.99864	4.197038E+8	1.001946E-6	998057.86745	18.573707	0.833859	0	0
0	0	0	19.375366	5.998554	6.625181	5.998554	3.416341E+8	5.582487E-7	1791316.384743	18.739637	0.831916	0	0
0	0	0	18.992727	5.99862	6.131652	5.99862	2.777978E+8	5.995083E-7	1668033.606019	18.531271	0.830964	0	0
0	0	0	18.61164	5.9987	5.640092	5.9987	2.260793E+8	7.9306E-7	1260938.642089	18.734784	0.828544	0	0
0	0	0	18.228021	5.99866	5.145524	5.99866	1.837378E+8	4.910344E-7	2036517.131512	18.515223	0.828267	0	0
0	0	0	17.846811	5.998719	4.653846	5.998719	1.495208E+8	6.21813E-7	1608200.537375	18.689561	0.825292	0	0
0	0	0	17.462784	5.998515	4.159119	5.998515	1.214908E+8	1.733143E-7	5769865.293464	18.565475	0.825094	0	0
0	0	0	17.078471	5.998752	3.66304	5.998752	9.870018E+7	5.940478E-7	1683366.105456	18.621425	0.822318	0	0
0	0	0	16.695424	5.998799	3.169018	5.998799	8.023978E+7	1.291184E-6	774482.731075	18.644398	0.821525	0	0
0	0	0	16.315439	5.998647	2.679393	5.998647	6.534022E+7	1.618019E-7	6180398.242078	18.553849	0.819621	0	0
0	0	0	15.937864	5.998673	2.192472	5.998673	5.327667E+7	1.546955E-7	6464310.198441	18.700035	0.817955	0	0
0	0	0	15.563842	5.998819	1.709857	5.998819	4.352388E+7	2.479303E-6	403339.137817	18.501409	0.817003	0	0
0	0	0	15.188349	5.998951	1.225371	5.998951	3.552819E+7	-1.270799E-7	-7869068.122373	18.714848	0.814584	0	0
0	0	0	14.814123	5.998865	0.743024	5.998865	2.902122E+7	-3.357124E-7	-2978740.035253	18.508784	0.814346	0	0
0	0	0	14.4381	5.998779	0.258364	5.998779	2.368299E+7	2.219983E-7	4504539.678441	18.700955	0.811213	0	0
0	0	0	14.060075	5.998984	-0.229566	5.998984	1.930579E+7	-5.455708E-8	-1.832943E+7	18.574109	0.811015	0	0
0	0	0	13.680826	5.998812	-0.718179	5.998812	1.572718E+7	4.854766E-7	2059831.453203	18.629054	0.808516	0	0
0	0	0	13.304598	5.998838	-1.203369	5.998838	1.283287E+7	-4.747442E-7	-2106397.300852	18.628882	0.807723	0	0
0	0	0	12.934006	5.998852	-1.681261	5.998852	1.050315E+7	-1.850944E-7	-5402648.333272	18.542064	0.805899	0	0
0	0	0	12.562434	5.998825	-2.160319	5.998825	8591827	3.207204E-6	311798.064526	18.688478	0.804352	0	0
0	0	0	12.186574	5.998938	-2.645249	5.998938	7012044.5	-2.806192E-8	-3.563547E+7	18.508568	0.803083	0	0
0	0	0	11.816146	5.998977	-3.122999	5.998977	5739564	-1.693009E-8	-5.906642E+7	18.709996	0.800941	0	0
0	0	0	11.444941	5.998977	-3.601651	5.998977	4696031.5	-1.385194E-8	-7.219203E+7	18.489096	0.800624	0	0
0	0	0	11.074022	5.998911	-4.079767	5.998911	3842821.5	-2.017712E-8	-4.95611E+7	18.676176	0.797808	0	0
0	0	0	10.70245	5.999136	-4.559464	5.999136	3143518.5	-4.519368E-9	-2.212699E+8	18.533629	0.79761	0	0
0	0	0	10.331368	5.998911	-5.037385	5.998911	2572153.5	-1.35053E-8	-7.404502E+7	18.6171	0.794992	0	0
0	0	0	9.95318	5.999242	-5.525892	5.999242	2096570.5	-2.246488E-9	-4.451393E+8	18.613198	0.794199	0	0
0	0	0	9.578341	5.999103	-6.008875	5.999103	1712018	-2.755605E-9	-3.628967E+8	18.542123	0.792335	0	0
0	0	0	9.203543	5.999149	-6.492284	5.999149	1398031	-1.927576E-9	-5.187863E+8	18.659984	0.790947	0	0
0	0	0	8.825927	5.999103	-6.979084	5.999103	1139892	-1.83473E-9	-5.450394E+8	18.474782	0.790035	0	0
0	0	0	8.448801	5.998904	-7.464848	5.998904	929663	-5.294213E-9	-1.888855E+8	18.687098	0.787655	0	0
0	0	0	8.063631	5.999123	-7.96209	5.999123	754916.5	-1.133755E-9	-8.820245E+8	18.46414	0.787615	0	0
0	0	0	7.67258	5.999275	-8.466745	5.999275	611071	-6.064933E-10	-1.648823E+9	18.686619	0.784363	0	0
0	0	0	7.27528	5.999242	-8.978961	5.999242	492966.5	-5.282161E-10	-1.893165E+9	18.525039	0.784601	0	0
0	0	0	6.877859	5.999156	-9.491189	5.999156	397662.5	-5.372829E-10	-1.861217E+9	18.623601	0.781706	0	0
0	0	0	6.50208	5.999123	-9.975651	5.999123	324558.5	-4.874311E-10	-2.051572E+9	18.591491	0.781151	0	0
0	0	0	6.146557	5.999136	-10.434122	5.999136	267810	-3.850237E-10	-2.597243E+9	18.529058	0.779445	0	0
0	0	0	5.804469	5.999294	-10.875673	5.999294	222594.5	-2.115683E-10	-4.726607E+9	18.646867	0.778018	0	0
0	0	0	5.475122	5.999367	-11.30056	5.999367	186291.5	-1.532589E-10	-6.524908E+9	18.485405	0.77655	0	0
0	0	0	5.149042	5.999341	-11.720958	5.999341	156185	-1.350953E-10	-7.402184E+9	18.695102	0.774369	0	0
0	0	0	4.819368	5.999327	-12.146026	5.999327	130689.5	-1.160243E-10	-8.618885E+9	18.451342	0.774052	0	0
0	0	0	4.514196	5.999413	-12.539781	5.999413	110814.5	-8.398038E-11	-1.190754E+10	18.664467	0.771355	0	0
0	0	0	4.215558	5.999202	-12.924263	5.999202	94294	-1.117056E-10	-8.952105E+9	18.472944	0.771434	0	0
0	0	0	3.923454	5.999235	-13.301017	5.999235	80520.5	-8.767373E-11	-1.140593E+10	18.595928	0.768737	0	0
0	0	0	3.644336	5.999301	-13.661121	5.999301	69243.5	-6.489715E-11	-1.5409E+10	18.538302	0.76838	0	0
0	0	0	3.372364	5.99901	-14.010979	5.99901	59776	-1.446311E-10	-6.914141E+9	18.525811	0.766001	0	0
0	0	0	3.107988	5.999242	-14.352554	5.999242	51815.5	-5.552055E-11	-1.801135E+10	18.605287	0.765089	0	0
0	0	0	2.84594	5.999043	-14.689877	5.999043	44971.5	-9.223395E-11	-1.084199E+10	18.4564	0.763621	0	0
0	0	0	2.597939	5.999334	-15.010517	5.999334	39329	-3.446122E-11	-2.901813E+10	18.639848	0.761836	0	0
0	0	0	2.353369	5.999129	-15.32528	5.999129	34458.5	-5.06213E-11	-1.975453E+10	18.422743	0.761242	0	0
0	0	0	2.119008	5.998938	-15.626914	5.998938	30358	-1.214896E-10	-8.231156E+9	18.641141	0.758902	0	0
0	0	0	1.894774	5.999142	-15.916661	5.999142	26892.5	-3.785416E-11	-2.641718E+10	18.465769	0.758505	0	0
0	0	0	1.687202	5.999208	-16.184515	5.999208	24038	-2.798416E-11	-3.57345E+10	18.614215	0.75561	0	0
0	0	0	1.499272	5.999301	-16.427121	5.999301	21716	-2.035291E-11	-4.913303E+10	18.530776	0.755372	0	0
0	0	0	1.330371	5.999123	-16.644378	5.999123	19821	-2.976773E-11	-3.359343E+10	18.517846	0.753389	0	0
0	0	0	1.180705	5.999129	-16.837387	5.999129	18280.5	-2.685499E-11	-3.723703E+10	18.570695	0.752556	0	0
0	0	0	1.048191	5.999314	-17.008817	5.999314	17017	-1.551676E-11	-6.444646E+10	18.451907	0.75089	0	0
0	0	0	0.926048	5.9994	-17.166575	5.9994	15929.5	-1.235021E-11	-8.097028E+10	18.613448	0.749185	0	0
0	0	0	0.825754	5.999261	-17.295483	5.999261	15089	-1.543102E-11	-6.480454E+10	18.404884	0.748392	0	0
0	0	0	0.730114	5.999076	-17.418247	5.999076	14328.5	-2.550182E-11	-3.921289E+10	18.613781	0.745972	0	0
0	0	0	0.646114	5.999156	-17.526803	5.999156	13692.5	-1.849997E-11	-5.405414E+10	18.388413	0.746012	0	0
0	0	0	0.572444	5.999182	-17.621877	5.999182	13158	-1.645653E-11	-6.076616E+10	18.559721	0.743355	0	0
0	0	0	0.510209	5.999334	-17.702589	5.999334	12722.5	-1.114783E-11	-8.970359E+10	18.445305	0.743117	0	0
0	0	0	0.46096	5.999208	-17.765712	5.999208	12388.5	-1.442224E-11	-6.933737E+10	18.498866	0.740658	0	0
0	0	0	0.421104	5.999056	-17.816644	5.999056	12124.5	-2.343835E-11	-4.266512E+10	18.506296	0.740023	0	0
0	0	0	0.380512	5.999261	-17.869608	5.999261	11861	-1.212985E-11	-8.244125E+10	18.415043	0.738199	0	0
0	0	0	0.34964	5.999136	-17.909035	5.999136	11665	-1.677047E-11	-5.962861E+10	18.558008	0.736851	0	0
0	0	0	0.318931	5.99903	-17.948312	5.99903	11473	-2.505742E-11	-3.990834E+10	18.358631	0.736137	0	0
0	0	0	0.288058	5.999354	-17.989107	5.999354	11283	-9.514914E-12	-1.050982E+11	18.582496	0.733837	0	0
0	0	0	0.273643	5.999222	-18.007292	5.999222	11195.5	-1.259764E-11	-7.937997E+10	18.374845	0.733638	0	0
0	0	0	0.248774	5.999123	-18.039059	5.999123	11045.5	-1.658844E-11	-6.028295E+10	18.584579	0.730584	0	0
0	0	0	0.222189	5.999334	-18.073983	5.999334	10888.5	-9.540821E-12	-1.048128E+11	18.432271	0.730584	0	0
0	0	0	0.207978	5.999156	-18.091764	5.999156	10805	-1.459866E-11	-6.849943E+10	18.500478	0.728522	0	0
0	0	0	0.193685	5.999076	-18.109952	5.999076	10721.5	-1.908209E-11	-5.240515E+10	18.478121	0.728046	0	0
0	0	0	0.172899	5.999116	-18.136876	5.999116	10602	-1.628574E-11	-6.140342E+10	18.414174	0.726024	0	0
0	0	0	0.153543	5.999347	-18.162541	5.999347	10491.5	-8.959693E-12	-1.11611E+11	18.532637	0.724635	0	0
0	0	0	0.140189	5.999248	-18.179458	5.999248	10416	-1.098591E-11	-9.102566E+10	18.362746	0.723525	0	0
0	0	0	0.128591	5.999255	-18.194433	5.999255	10351	-1.074893E-11	-9.303251E+10	18.567906	0.721502	0	0
0	0	0	0.120057	5.999314	-18.20562	5.999314	10303.5	-9.395129E-12	-1.064381E+11	18.344007	0.721026	0	0
0	0	0	0.107152	5.999321	-18.22228	5.999321	10231.5	-9.204784E-12	-1.086392E+11	18.532559	0.718726	0	0
0	0	0	0.091594	5.99936	-18.242463	5.99936	10146	-8.45022E-12	-1.183401E+11	18.335206	0.718885	0	0
0	0	0	0.079302	5.9994	-18.258435	5.9994	10079	-7.814292E-12	-1.279706E+11	18.477651	0.715831	0	0
0	0	0	0.069378	5.999294	-18.270907	5.999294	10025	-9.52841E-12	-1.049493E+11	18.395997	0.715791	0	0
0	0	0	0.064519	5.999354	-18.277355	5.999354	9999	-8.432121E-12	-1.185941E+11	18.387642	0.71357	0	0
0	0	0	0.059414	5.999248	-18.283614	5.999248	9971	-1.051657E-11	-9.508808E+10	18.459849	0.712698	0	0
0	0	0	0.05627	5.999136	-18.287325	5.999136	9954	-1.431061E-11	-6.987821E+10	18.307355	0.711468	0	0
0	0	0	0.05284	5.999288	-18.292213	5.999288	9936	-9.579079E-12	-1.043942E+11	18.495243	0.709644	0	0
0	0	0	0.047408	5.999215	-18.298994	5.999215	9907	-1.133729E-11	-8.820452E+10	18.280327	0.709208	0	0
0	0	0	0.042875	5.999341	-18.305223	5.999341	9882.5	-8.548061E-12	-1.169856E+11	18.503266	0.706669	0	0
0	0	0	0.038792	5.999202	-18.310065	5.999202	9860.5	-1.168126E-11	-8.56072E+10	18.292773	0.706868	0	0
0	0	0	0.034177	5.999182	-18.315954	5.999182	9836	-1.230175E-11	-8.128926E+10	18.467114	0.703774	0	0
0	0	0	0.027848	5.999162	-18.324056	5.999162	9802.5	-1.298357E-11	-7.702041E+10	18.340146	0.704052	0	0
0	0	0	0.021926	5.999222	-18.331873	5.999222	9771	-1.099473E-11	-9.095266E+10	18.371189	0.70195	0	0
0	0	0	0.018169	5.999334	-18.337061	5.999334	9751	-8.54411E-12	-1.170397E+11	18.404249	0.701236	0	0
0	0	0	0.013555	5.999235	-18.342708	5.999235	9727	-1.059112E-11	-9.441872E+10	18.301996	0.699491	0	0
0	0	0	0.014902	5.999215	-18.34091	5.999215	9734	-1.113931E-11	-8.977216E+10	18.457811	0.697905	0	0
0	0	0	0.009553	5.999202	-18.347767	5.999202	9706	-1.149823E-11	-8.69699E+10	18.255598	0.69723	0	0
0	0	0	0.005755	5.999142	-18.352483	5.999142	9686	-1.363411E-11	-7.334544E+10	18.478608	0.69497	0	0
0	0	0	0.000773	5.999268	-18.359291	5.999268	9660	-9.731116E-12	-1.027631E+11	18.234652	0.69497	0	0
0	0	0	-0.000289	5.999149	-18.360296	5.999149	9654.5	-1.331141E-11	-7.512353E+10	18.427717	0.692313	0	0
0	0	0	-0.00037	5.998944	-18.359774	5.998944	9654	-3.646629E-11	-2.742259E+10	18.257673	0.692313	0	0
0	0	0	-0.004168	5.999175	-18.365379	5.999175	9634	-1.227723E-11	-8.145163E+10	18.35586	0.689774	0	0
0	0	0	-0.004617	5.999367	-18.366545	5.999367	9632	-7.924083E-12	-1.261976E+11	18.327981	0.689536	0	0
0	0	0	-0.005843	5.999162	-18.367498	5.999162	9625.5	-1.274913E-11	-7.843671E+10	18.2779	0.687474	0	0
0	0	0	-0.007639	5.999129	-18.369714	5.999129	9616	-1.41264E-11	-7.078947E+10	18.371251	0.686641	0	0
0	0	0	-0.010212	5.999268	-18.373456	5.999268	9602.5	-9.673193E-12	-1.033785E+11	18.207498	0.68561	0	0
0	0	0	-0.010212	5.99936	-18.373739	5.99936	9602.5	-7.997559E-12	-1.250381E+11	18.41149	0.683667	0	0
0	0	0	-0.010825	5.999301	-18.374347	5.999301	9599.5	-8.996948E-12	-1.111488E+11	18.178181	0.683627	0	0
0	0	0	-0.010947	5.999208	-18.374222	5.999208	9599	-1.11748E-11	-8.948703E+10	18.423904	0.680415	0	0
0	0	0	-0.012826	5.999354	-18.377089	5.999354	9589	-8.08637E-12	-1.236649E+11	18.219313	0.680811	0	0
0	0	0	-0.013561	5.99909	-18.377228	5.99909	9585.5	-1.620338E-11	-6.171553E+10	18.341858	0.678313	0	0
0	0	0	-0.014255	5.999327	-18.378851	5.999327	9582	-8.506764E-12	-1.175535E+11	18.24976	0.678432	0	0
0	0	0	-0.014418	5.999037	-18.378172	5.999037	9581	-2.026762E-11	-4.933979E+10	18.267465	0.676052	0	0
0	0	0	-0.015725	5.999242	-18.380484	5.999242	9574	-1.025859E-11	-9.747932E+10	18.325529	0.675179	0	0
0	0	0	-0.016133	5.999103	-18.380586	5.999103	9572	-1.540674E-11	-6.490667E+10	18.199402	0.673791	0	0
0	0	0	-0.01793	5.999195	-18.383186	5.999195	9562.5	-1.153118E-11	-8.672142E+10	18.363927	0.672324	0	0
0	0	0	-0.018543	5.999103	-18.383692	5.999103	9559.5	-1.538662E-11	-6.499154E+10	18.140571	0.671729	0	0
0	0	0	-0.018869	5.999321	-18.384781	5.999321	9558	-8.598869E-12	-1.162944E+11	18.350954	0.669627	0	0
0	0	0	-0.02038	5.999446	-18.387114	5.999446	9550	-6.851725E-12	-1.459486E+11	18.115872	0.669746	0	0
0	0	0	-0.022341	5.999255	-18.389055	5.999255	9540	-9.906753E-12	-1.009412E+11	18.319467	0.666891	0	0
0	0	0	-0.0223	5.999182	-18.38878	5.999182	9540.5	-1.193217E-11	-8.380705E+10	18.161781	0.667009	0	0
0	0	0	-0.023402	5.999314	-18.390606	5.999314	9534.5	-8.693925E-12	-1.150228E+11	18.236294	0.664313	0	0
0	0	0	-0.025199	5.9994	-18.393186	5.9994	9525.5	-7.385161E-12	-1.354067E+11	18.203723	0.664392	0	0
0	0	0	-0.026792	5.999294	-18.394916	5.999294	9517	-9.045574E-12	-1.105513E+11	18.151854	0.662449	0	0
0	0	0	-0.025485	5.999275	-18.39317	5.999275	9524	-9.45265E-12	-1.057904E+11	18.263074	0.661298	0	0
0	0	0	-0.028956	5.999433	-18.398132	5.999433	9506	-6.968712E-12	-1.434985E+11	18.094079	0.660228	0	0
0	0	0	-0.029079	5.999433	-18.39829	5.999433	9505.5	-6.968345E-12	-1.435061E+11	18.308975	0.658205	0	0
0	0	0	-0.029201	5.999519	-18.398711	5.999519	9505	-6.103795E-12	-1.638325E+11	18.068034	0.658086	0	0
0	0	0	-0.030549	5.999242	-18.399598	5.999242	9497.5	-1.017662E-11	-9.82645E+10	18.280517	0.655667	0	0
0	0	0	-0.031284	5.999288	-18.400688	5.999288	9494	-9.152956E-12	-1.092543E+11	18.068575	0.656024	0	0
0	0	0	-0.031651	5.99942	-18.401567	5.99942	9492	-7.113391E-12	-1.405799E+11	18.221507	0.653366	0	0
0	0	0	-0.032795	5.999248	-18.402515	5.999248	9486	-1.000503E-11	-9.994974E+10	18.147152	0.653208	0	0
0	0	0	-0.032631	5.999288	-18.402426	5.999288	9487	-9.146208E-12	-1.093349E+11	18.169082	0.650908	0	0
0	0	0	-0.035041	5.999493	-18.40616	5.999493	9475	-6.325932E-12	-1.580795E+11	18.216306	0.650233	0	0
0	0	0	-0.032264	5.999195	-18.401668	5.999195	9489	-1.144254E-11	-8.739315E+10	18.081907	0.649123	0	0
0	0	0	-0.03304	5.999255	-18.402851	5.999255	9485	-9.849639E-12	-1.015266E+11	18.255845	0.647417	0	0
0	0	0	-0.03304	5.999222	-18.40275	5.999222	9485	-1.067291E-11	-9.369514E+10	18.024543	0.6471	0	0
0	0	0	-0.032958	5.999294	-18.402867	5.999294	9485.5	-9.015635E-12	-1.109184E+11	18.248004	0.644919	0	0
0	0	0	-0.032182	5.999321	-18.401948	5.999321	9489.5	-8.537243E-12	-1.171338E+11	18.024593	0.644681	0	0
0	0	0	-0.03161	5.999354	-18.401312	5.999354	9492.5	-8.004992E-12	-1.249221E+11	18.216165	0.642024	0	0
0	0	0	-0.03402	5.999248	-18.404095	5.999248	9480	-9.9987E-12	-1.00013E+11	18.049645	0.642262	0	0
0	0	0	-0.034428	5.999314	-18.404824	5.999314	9478	-8.642406E-12	-1.157085E+11	18.125089	0.640041	0	0
0	0	0	-0.030467	5.999228	-18.399453	5.999228	9498.5	-1.051237E-11	-9.512603E+10	18.101358	0.639525	0	0
0	0	0	-0.030508	5.999255	-18.399586	5.999255	9498	-9.863139E-12	-1.013876E+11	18.037703	0.637859	0	0
0	0	0	-0.029895	5.99903	-18.398108	5.99903	9501	-2.075051E-11	-4.81916E+10	18.155638	0.636709	0	0
0	0	0	-0.029283	5.999103	-18.397541	5.999103	9504.5	-1.529809E-11	-6.536763E+10	17.986521	0.635678	0	0
0	0	0	-0.029242	5.999116	-18.397529	5.999116	9504.5	-1.459987E-11	-6.849377E+10	18.180909	0.633854	0	0
0	0	0	-0.029038	5.999354	-18.397994	5.999354	9505.5	-8.015954E-12	-1.247512E+11	17.95547	0.633576	0	0
0	0	0	-0.028915	5.999215	-18.397411	5.999215	9506	-1.087839E-11	-9.192533E+10	18.151747	0.631514	0	0
0	0	0	-0.0272	5.999208	-18.395179	5.999208	9515	-1.107701E-11	-9.027704E+10	17.955258	0.631514	0	0
0	0	0	-0.028139	5.999182	-18.39631	5.999182	9510.5	-1.189465E-11	-8.407141E+10	18.121322	0.628857	0	0
0	0	0	-0.027853	5.999123	-18.395759	5.999123	9512	-1.428539E-11	-7.000161E+10	18.018536	0.628857	0	0
0	0	0	-0.029405	5.999109	-18.397719	5.999109	9503.5	-1.493925E-11	-6.693775E+10	18.040344	0.626636	0	0
0	0	0	-0.027772	5.999242	-18.396018	5.999242	9512	-1.019215E-11	-9.81147E+10	18.074799	0.626041	0	0
0	0	0	-0.029691	5.999288	-18.398634	5.999288	9502	-9.160669E-12	-1.091623E+11	17.946541	0.62493	0	0
0	0	0	-0.029732	5.999222	-18.398485	5.999222	9502	-1.069204E-11	-9.352751E+10	18.098647	0.623503	0	0
0	0	0	-0.028629	5.999235	-18.397103	5.999235	9507.5	-1.035212E-11	-9.659856E+10	17.883021	0.622947	0	0
0	0	0	-0.030222	5.999301	-18.399359	5.999301	9499.5	-8.903225E-12	-1.123189E+11	18.120182	0.620409	0	0
0	0	0	-0.030181	5.999043	-18.398518	5.999043	9500	-1.948395E-11	-5.132429E+10	17.878717	0.620488	0	0
0	0	0	-0.030426	5.999004	-18.398712	5.999004	9498.5	-2.383901E-11	-4.194805E+10	18.077911	0.618029	0	0
0	0	0	-0.031447	5.999294	-18.400919	5.999294	9493.5	-9.023238E-12	-1.10825E+11	17.867906	0.618664	0	0
0	0	0	-0.032754	5.999281	-18.402563	5.999281	9486.5	-9.278619E-12	-1.077747E+11	17.992818	0.616007	0	0
0	0	0	-0.032631	5.999255	-18.402324	5.999255	9487	-9.851716E-12	-1.015052E+11	17.925496	0.615848	0	0
0	0	0	-0.031774	5.999347	-18.401502	5.999347	9491.5	-8.105698E-12	-1.2337E+11	17.920874	0.613865	0	0
0	0	0	-0.033081	5.99936	-18.403227	5.99936	9485	-7.899698E-12	-1.265871E+11	17.983168	0.613191	0	0
0	0	0	-0.036593	5.999255	-18.407432	5.999255	9467	-9.830947E-12	-1.017196E+11	17.844933	0.612001	0	0
0	0	0	-0.036102	5.999242	-18.40676	5.999242	9469.5	-1.014661E-11	-9.855505E+10	18.021871	0.610494	0	0
0	0	0	-0.035817	5.99938	-18.406816	5.99938	9471	-7.605717E-12	-1.3148E+11	17.795984	0.610216	0	0
0	0	0	-0.040431	5.999242	-18.412342	5.999242	9447	-1.01225E-11	-9.878978E+10	18.031988	0.607916	0	0
0	0	0	-0.038267	5.999387	-18.409996	5.999387	9458.5	-7.506129E-12	-1.332245E+11	17.804982	0.608154	0	0
0	0	0	-0.038063	5.999222	-18.409227	5.999222	9459.5	-1.064422E-11	-9.394772E+10	18.014182	0.605299	0	0
0	0	0	-0.04084	5.999308	-18.413071	5.999308	9445	-8.730584E-12	-1.145399E+11	17.856267	0.605854	0	0
0	0	0	-0.040921	5.999479	-18.413702	5.999479	9445	-6.433527E-12	-1.554357E+11	17.933838	0.603355	0	0
0	0	0	-0.040227	5.999334	-18.412362	5.999334	9448.5	-8.279051E-12	-1.207868E+11	17.908372	0.603236	0	0
0	0	0	-0.041697	5.999327	-18.414237	5.999327	9440.5	-8.381142E-12	-1.193155E+11	17.849231	0.601571	0	0
0	0	0	-0.040595	5.999453	-18.4132	5.999453	9446.5	-6.705991E-12	-1.491204E+11	17.961267	0.60042	0	0
0	0	0	-0.040717	5.999156	-18.412447	5.999156	9445.5	-1.276184E-11	-7.835862E+10	17.78016	0.599746	0	0
0	0	0	-0.04231	5.999281	-18.414885	5.999281	9437.5	-9.230693E-12	-1.083342E+11	17.995556	0.597882	0	0
0	0	0	-0.040799	5.99944	-18.413423	5.99944	9445.5	-6.84976E-12	-1.459905E+11	17.752113	0.597843	0	0
0	0	0	-0.042922	5.999374	-18.415958	5.999374	9434.5	-7.667886E-12	-1.30414E+11	17.968884	0.595463	0	0
0	0	0	-0.040799	5.999268	-18.412896	5.999268	9445.5	-9.515037E-12	-1.050968E+11	17.741131	0.595741	0	0
0	0	0	-0.04235	5.999347	-18.41514	5.999347	9437.5	-8.059582E-12	-1.240759E+11	17.8967	0.593242	0	0
0	0	0	-0.042595	5.999248	-18.415153	5.999248	9436	-9.952292E-12	-1.004794E+11	17.772513	0.593361	0	0
0	0	0	-0.040758	5.999314	-18.412985	5.999314	9445.5	-8.612771E-12	-1.161066E+11	17.825319	0.590981	0	0
0	0	0	-0.039329	5.999175	-18.410717	5.999175	9453	-1.204657E-11	-8.301121E+10	17.830326	0.590783	0	0
0	0	0	-0.040145	5.999301	-18.412155	5.999301	9448.5	-8.855426E-12	-1.129251E+11	17.733979	0.589276	0	0
0	0	0	-0.039288	5.999156	-18.410604	5.999156	9453	-1.277197E-11	-7.829645E+10	17.854671	0.588205	0	0
0	0	0	-0.038308	5.999215	-18.409522	5.999215	9458	-1.082346E-11	-9.239186E+10	17.668051	0.587412	0	0
0	0	0	-0.040309	5.999275	-18.412285	5.999275	9447.5	-9.376724E-12	-1.066471E+11	17.887232	0.585707	0	0
0	0	0	-0.037654	5.999341	-18.409064	5.999341	9461.5	-8.183908E-12	-1.22191E+11	17.660753	0.585588	0	0
0	0	0	-0.036225	5.999235	-18.406898	5.999235	9468.5	-1.030966E-11	-9.699645E+10	17.886126	0.583168	0	0
0	0	0	-0.033816	5.999208	-18.40371	5.999208	9481	-1.103743E-11	-9.060078E+10	17.668565	0.583644	0	0
0	0	0	-0.034061	5.999123	-18.403763	5.999123	9480	-1.423733E-11	-7.02379E+10	17.805989	0.581225	0	0
0	0	0	-0.035	5.999294	-18.4055	5.999294	9475	-9.005655E-12	-1.110413E+11	17.710324	0.581423	0	0
0	0	0	-0.034101	5.999261	-18.40424	5.999261	9479.5	-9.694369E-12	-1.031527E+11	17.740772	0.579202	0	0
0	0	0	-0.034347	5.999202	-18.404374	5.999202	9478.5	-1.122872E-11	-8.905732E+10	17.777545	0.578766	0	0
0	0	0	-0.032836	5.999136	-18.402224	5.999136	9486	-1.363778E-11	-7.332571E+10	17.657616	0.577616	0	0
0	0	0	-0.031325	5.999288	-18.400741	5.999288	9494	-9.152956E-12	-1.092543E+11	17.812057	0.576307	0	0
0	0	0	-0.032386	5.999321	-18.402211	5.999321	9488.5	-8.536343E-12	-1.171462E+11	17.585706	0.57595	0	0
0	0	0	-0.03206	5.999275	-18.401648	5.999275	9490	-9.418905E-12	-1.061695E+11	17.800996	0.573888	0	0
0	0	0	-0.032672	5.999367	-18.402721	5.999367	9487	-7.804794E-12	-1.281264E+11	17.556937	0.574047	0	0
0	0	0	-0.032876	5.999433	-18.403187	5.999433	9486	-6.95405E-12	-1.438011E+11	17.787028	0.571429	0	0
0	0	0	-0.033121	5.999123	-18.402552	5.999123	9485	-1.424484E-11	-7.020087E+10	17.575615	0.571984	0	0
0	0	0	-0.034183	5.999116	-18.403901	5.999116	9479	-1.45607E-11	-6.867803E+10	17.688897	0.569525	0	0
0	0	0	-0.033571	5.999037	-18.402868	5.999037	9482.5	-2.005925E-11	-4.985231E+10	17.597874	0.569724	0	0
0	0	0	-0.033326	5.999235	-18.403159	5.999235	9483.5	-1.032599E-11	-9.684303E+10	17.594195	0.567741	0	0
0	0	0	-0.033571	5.999261	-18.403556	5.999261	9482.5	-9.697437E-12	-1.0312E+11	17.657818	0.567384	0	0
0	0	0	-0.033938	5.999327	-18.404232	5.999327	9480.5	-8.416654E-12	-1.188121E+11	17.551489	0.565996	0	0
0	0	0	-0.037246	5.999288	-18.408376	5.999288	9463.5	-9.123552E-12	-1.096064E+11	17.727805	0.564647	0	0
0	0	0	-0.037695	5.999341	-18.409117	5.999341	9461	-8.183476E-12	-1.221975E+11	17.500238	0.564409	0	0
0	0	0	-0.036878	5.999327	-18.408023	5.999327	9465.5	-8.403337E-12	-1.190003E+11	17.713054	0.562268	0	0
0	0	0	-0.037001	5.999334	-18.408202	5.999334	9465	-8.293509E-12	-1.205762E+11	17.469292	0.562664	0	0
0	0	0	-0.038267	5.999301	-18.409733	5.999301	9458.5	-8.864798E-12	-1.128057E+11	17.693935	0.560047	0	0
0	0	0	-0.039696	5.999294	-18.411556	5.999294	9451	-8.982844E-12	-1.113233E+11	17.513307	0.560364	0	0
0	0	0	-0.041452	5.999347	-18.413982	5.999347	9442	-8.063425E-12	-1.240168E+11	17.618287	0.558222	0	0
0	0	0	-0.041575	5.999294	-18.413978	5.999294	9441.5	-8.973814E-12	-1.114353E+11	17.561389	0.558064	0	0
0	0	0	-0.043861	5.999255	-18.416805	5.999255	9430	-9.792524E-12	-1.021187E+11	17.529043	0.556279	0	0
0	0	0	-0.041575	5.999242	-18.413816	5.999242	9441.5	-1.011661E-11	-9.884733E+10	17.596377	0.555803	0	0
0	0	0	-0.043657	5.9994	-18.416987	5.9994	9430.5	-7.311508E-12	-1.367707E+11	17.444576	0.55493	0	0
0	0	0	-0.042677	5.999255	-18.415278	5.999255	9435.5	-9.798236E-12	-1.020592E+11	17.647332	0.553304	0	0
0	0	0	-0.041983	5.9994	-18.414828	5.9994	9439	-7.318098E-12	-1.366475E+11	17.407007	0.553066	0	0
0	0	0	-0.043616	5.999182	-18.416267	5.999182	9431	-1.179522E-11	-8.478011E+10	17.633126	0.550766	0	0
0	0	0	-0.044923	5.999083	-18.417648	5.999083	9424	-1.634074E-11	-6.119674E+10	17.369372	0.551242	0	0
0	0	0	-0.046557	5.99938	-18.420665	5.99938	9416	-7.561549E-12	-1.32248E+11	17.574399	0.548862	0	0
0	0	0	-0.04476	5.999275	-18.418024	5.999275	9425	-9.354392E-12	-1.069017E+11	17.384145	0.549219	0	0
0	0	0	-0.045617	5.999235	-18.419009	5.999235	9420.5	-1.025739E-11	-9.749067E+10	17.512388	0.546919	0	0
0	0	0	-0.045291	5.999096	-18.418163	5.999096	9422.5	-1.553764E-11	-6.435983E+10	17.426446	0.547038	0	0
0	0	0	-0.044106	5.999169	-18.416858	5.999169	9428.5	-1.224721E-11	-8.165124E+10	17.416482	0.545015	0	0
0	0	0	-0.042228	5.999294	-18.41482	5.999294	9438	-8.970488E-12	-1.114767E+11	17.470984	0.544857	0	0
0	0	0	-0.042432	5.999334	-18.415205	5.999334	9437	-8.268974E-12	-1.20934E+11	17.330959	0.543548	0	0
0	0	0	-0.042432	5.999129	-18.414578	5.999129	9437	-1.386344E-11	-7.213219E+10	17.506409	0.5422	0	0
0	0	0	-0.042677	5.999242	-18.415238	5.999242	9435.5	-1.011018E-11	-9.891019E+10	0	0	0	0
0	0	0	-0.042187	5.999142	-18.414302	5.999142	9438.5	-1.328573E-11	-7.526873E+10	0	0	0	0
0	0	0	-0.040023	5.999235	-18.411795	5.999235	9449	-1.028842E-11	-9.719662E+10	0	0	0	0
0	0	0	-0.039206	5.999427	-18.411329	5.999427	9453.5	-7.006532E-12	-1.42724E+11	0	0	0	0
0	0	0	-0.041044	5.999182	-18.412949	5.999182	9444	-1.181148E-11	-8.46634E+10	0	0	0	0
0	0	0	-0.038675	5.999156	-18.409814	5.999156	9456	-1.277602E-11	-7.827161E+10	0	0	0	0
0	0	0	-0.038144	5.999136	-18.409069	5.999136	9459	-1.359896E-11	-7.353502E+10	0	0	0	0
0	0	0	-0.038716	5.999327	-18.410393	5.999327	9456	-8.394903E-12	-1.191199E+11	0	0	0	0
0	0	0	-0.037123	5.999175	-18.407874	5.999175	9464	-1.206058E-11	-8.291473E+10	0	0	0	0
0	0	0	-0.035857	5.999096	-18.405999	5.999096	9470.5	-1.561679E-11	-6.403363E+10	0	0	0	0
0	0	0	-0.035	5.999222	-18.405277	5.999222	9475	-1.066166E-11	-9.379403E+10	0	0	0	0
0	0	0	-0.033856	5.999116	-18.403479	5.999116	9481	-1.456377E-11	-6.866355E+10	0	0	0	0
0	0	0	-0.03353	5.999486	-18.404191	5.999486	9482.5	-6.394363E-12	-1.563877E+11	0	0	0	0
0	0	0	-0.035041	5.99942	-18.405937	5.99942	9475	-7.100651E-12	-1.408322E+11	0	0	0	0
0	0	0	-0.035082	5.999275	-18.405545	5.999275	9474.5	-9.403521E-12	-1.063431E+11	0	0	0	0
0	0	0	-0.035367	5.999301	-18.405994	5.999301	9473	-8.878388E-12	-1.126331E+11	0	0	0	0
0	0	0	-0.034714	5.999162	-18.404727	5.999162	9476.5	-1.255178E-11	-7.966998E+10	0	0	0	0
0	0	0	-0.03402	5.999433	-18.404661	5.999433	9480	-6.949652E-12	-1.438921E+11	0	0	0	0
0	0	0	-0.033734	5.999255	-18.403746	5.999255	9481.5	-9.846004E-12	-1.01564E+11	0	0	0	0
0	0	0	-0.034428	5.999281	-18.404722	5.999281	9478	-9.270305E-12	-1.078713E+11	0	0	0	0
0	0	0	-0.03549	5.999347	-18.406294	5.999347	9472.5	-8.089472E-12	-1.236175E+11	0	0	0	0
0	0	0	-0.036838	5.999215	-18.407627	5.999215	9465.5	-1.083205E-11	-9.231865E+10	0	0	0	0
0	0	0	-0.036225	5.999182	-18.406736	5.999182	9468.5	-1.184212E-11	-8.444433E+10	0	0	0	0
0	0	0	-0.036715	5.999202	-18.407428	5.999202	9466	-1.121392E-11	-8.917492E+10	0	0	0	0
0	0	0	-0.039655	5.999202	-18.41122	5.999202	9451	-1.119615E-11	-8.931645E+10	0	0	0	0
0	0	0	-0.038063	5.999142	-18.408984	5.999142	9459.5	-1.331529E-11	-7.510164E+10	0	0	0	0
0	0	0	-0.039941	5.99944	-18.412317	5.99944	9450	-6.853024E-12	-1.45921E+11	0	0	0	0
0	0	0	-0.04182	5.999334	-18.414415	5.999334	9440	-8.271603E-12	-1.208955E+11	0	0	0	0
0	0	0	-0.041207	5.999175	-18.41314	5.999175	9443.5	-1.203446E-11	-8.309472E+10	0	0	0	0
0	0	0	-0.042881	5.999222	-18.41544	5.999222	9435	-1.061665E-11	-9.419167E+10	0	0	0	0
0	0	0	-0.04476	5.999294	-18.418085	5.999294	9425	-8.958131E-12	-1.116304E+11	0	0	0	0
0	0	0	-0.043984	5.999671	-18.418238	5.999671	9429	-4.965452E-12	-2.013915E+11	0	0	0	0
0	0	0	-0.044637	5.999314	-18.417988	5.999314	9425.5	-8.594534E-12	-1.16353E+11	0	0	0	0
0	0	0	-0.045372	5.999109	-18.418308	5.999109	9422	-1.481114E-11	-6.751676E+10	0	0	0	0
0	0	0	-0.043902	5.999314	-18.41704	5.999314	9429.5	-8.598182E-12	-1.163037E+11	0	0	0	0
0	0	0	-0.045862	5.999532	-18.420236	5.999532	9419.5	-5.935636E-12	-1.684739E+11	0	0	0	0
0	0	0	-0.048068	5.999294	-18.42235	5.999294	9408.5	-8.942449E-12	-1.118262E+11	0	0	0	0
0	0	0	-0.047006	5.999195	-18.420678	5.999195	9413.5	-1.13515E-11	-8.809408E+10	0	0	0	0
0	0	0	-0.046761	5.99936	-18.420868	5.99936	9415	-7.841398E-12	-1.275283E+11	0	0	0	0
0	0	0	-0.046965	5.999301	-18.420949	5.999301	9414	-8.823092E-12	-1.13339E+11	0	0	0	0
0	0	0	-0.047496	5.999288	-18.421593	5.999288	9411	-9.072938E-12	-1.102179E+11	0	0	0	0
0	0	0	-0.045699	5.999288	-18.419276	5.999288	9420.5	-9.082096E-12	-1.101067E+11	0	0	0	0
0	0	0	-0.046924	5.999235	-18.420694	5.999235	9414	-1.025031E-11	-9.755798E+10	0	0	0	0
0	0	0	-0.045617	5.999301	-18.419211	5.999301	9420.5	-8.829184E-12	-1.132608E+11	0	0	0	0
0	0	0	-0.045699	5.999308	-18.419337	5.999308	9420.5	-8.707937E-12	-1.148378E+11	0	0	0	0
0	0	0	-0.045332	5.999208	-18.418559	5.999208	9422	-1.096875E-11	-9.116812E+10	0	0	0	0
0	0	0	-0.044678	5.999288	-18.41796	5.999288	9425.5	-9.086917E-12	-1.100483E+11	0	0	0	0
0	0	0	-0.042187	5.999116	-18.414221	5.999116	9438.5	-1.449848E-11	-6.897273E+10	0	0	0	0
0	0	0	-0.042922	5.999526	-18.416424	5.999526	9434.5	-6.001269E-12	-1.666314E+11	0	0	0	0
0	0	0	-0.043208	5.999268	-18.416003	5.999268	9433	-9.502445E-12	-1.052361E+11	0	0	0	0
0	0	0	-0.041534	5.999374	-18.414168	5.999374	9441.5	-7.673575E-12	-1.303173E+11	0	0	0	0
0	0	0	-0.041248	5.999202	-18.413273	5.999202	9443	-1.118667E-11	-8.939212E+10	0	0	0	0
0	0	0	-0.041738	5.999281	-18.414148	5.999281	9440.5	-9.233627E-12	-1.082998E+11	0	0	0	0
0	0	0	-0.039819	5.999017	-18.410864	5.999017	9450.5	-2.207257E-11	-4.530511E+10	0	0	0	0
0	0	0	-0.036797	5.999268	-18.407736	5.999268	9466	-9.535688E-12	-1.048692E+11	0	0	0	0
0	0	0	-0.037613	5.999215	-18.408627	5.999215	9461.5	-1.082747E-11	-9.235768E+10	0	0	0	0
0	0	0	-0.038961	5.999202	-18.410324	5.999202	9455	-1.120088E-11	-8.927867E+10	0	0	0	0
0	0	0	-0.035449	5.999347	-18.406241	5.999347	9472.5	-8.089472E-12	-1.236175E+11	0	0	0	0
0	0	0	-0.036838	5.999235	-18.407687	5.999235	9465.5	-1.030639E-11	-9.702719E+10	0	0	0	0
0	0	0	-0.037205	5.999261	-18.408242	5.999261	9463.5	-9.678006E-12	-1.033271E+11	0	0	0	0
0	0	0	-0.034918	5.999281	-18.405354	5.999281	9475.5	-9.26786E-12	-1.078998E+11	0	0	0	0
0	0	0	-0.035817	5.99944	-18.406998	5.99944	9471	-6.868253E-12	-1.455974E+11	0	0	0	0
0	0	0	-0.035939	5.9994	-18.407035	5.9994	9470	-7.342132E-12	-1.362002E+11	0	0	0	0
0	0	0	-0.035939	5.999321	-18.406792	5.999321	9470	-8.519699E-12	-1.17375E+11	0	0	0	0
0	0	0	-0.035857	5.999202	-18.406323	5.999202	9470.5	-1.121925E-11	-8.913255E+10	0	0	0	0
0	0	0	-0.03647	5.999189	-18.407072	5.999189	9467.5	-1.162487E-11	-8.602243E+10	0	0	0	0
0	0	0	-0.035898	5.999301	-18.406679	5.999301	9470.5	-8.876045E-12	-1.126628E+11	0	0	0	0
0	0	0	-0.037695	5.999242	-18.408814	5.999242	9461	-1.013751E-11	-9.86436E+10	0	0	0	0
0	0	0	-0.038553	5.99942	-18.410466	5.99942	9457	-7.087162E-12	-1.411002E+11	0	0	0	0
0	0	0	-0.037981	5.999327	-18.409445	5.999327	9460	-8.398454E-12	-1.190695E+11	0	0	0	0
0	0	0	-0.039574	5.999043	-18.410629	5.999043	9451.5	-1.938448E-11	-5.158766E+10	0	0	0	0
0	0	0	-0.04084	5.99938	-18.413293	5.99938	9445	-7.584838E-12	-1.31842E+11	0	0	0	0
0	0	0	-0.040595	0	-0.040595	0	9446.5	0	0	0	0	0	0
0	0	0	-0.041289	0	-0.041289	0	9442.5	0	0	0	0	0	0
