Vload_(V)	ILoad_(A)	RsLoad (ohm)	SunsVoc_Voltage_(V)	SunsVoc_Current_(A)	Model_Voltage_(V)	Model_Current_(A)	Carrier_Density_(cm-3)	Lifetime_(s)	Inverse_Lifetime_(s-1)	Efficiency_(%)	Intensity_(suns)	Dark_IV_Voltage_(V)	Dark_IV_Current_(A)
4.895755	9.30841	0	38.980474	-1.866486	39.695379	-1.866486	8.060217E+14	4.932459E-5	20272.785472	16.005422	1.153641	0	0
4.885668	9.311845	-0.530743	38.930556	-1.368366	39.454396	-1.368366	7.824372E+14	5.011521E-5	19953.003962	16.013912	1.152451	0	0
4.932394	9.312145	-0.535746	38.811836	-0.605349	39.043289	-0.605349	7.288904E+14	5.027871E-5	19888.25272	16.002462	1.152015	0	0
5.636702	9.307721	1.078659	38.694912	0.090738	38.660262	0.090738	6.794998E+14	5.041135E-5	19836.038042	15.994242	1.150706	0	0
8.018402	9.294803	1.930451	38.582285	0.723533	38.30631	0.723533	6.348921E+14	5.057385E-5	19772.394903	15.97402	1.149953	0	0
10.706857	9.26523	1.979849	38.469462	1.316842	37.967777	1.316842	5.929677E+14	5.074103E-5	19707.334875	15.966198	1.148485	0	0
13.221552	9.262481	1.723936	38.360297	1.848046	37.657044	1.848046	5.548911E+14	5.08637E-5	19659.87411	15.957451	1.147613	0	0
15.635453	9.262349	1.464077	38.250855	2.346941	37.358782	2.346941	5.190405E+14	5.098713E-5	19612.345334	15.965112	1.146225	0	0
18.05134	9.258458	1.223354	38.141364	2.810993	37.074136	2.810993	4.853742E+14	5.108533E-5	19574.702054	15.967699	1.145709	0	0
20.454055	9.256383	0.973699	38.032494	3.242296	36.80293	3.242296	4.539604E+14	5.117615E-5	19540.009445	15.974823	1.144956	0	0
22.869971	9.257714	0.706624	37.922937	3.649801	36.540437	3.649801	4.243079E+14	5.127806E-5	19501.217683	15.985618	1.144559	0	0
25.26824	9.254201	0.46382	37.812483	4.027204	36.288808	4.027204	3.962889E+14	5.131437E-5	19487.456356	15.986671	1.144638	0	0
27.670201	9.222962	0.308394	37.703972	4.373178	36.051299	4.373178	3.704927E+14	5.133721E-5	19478.820308	16.002227	1.144321	0	0
28.577356	9.162149	0.327927	37.597551	4.689754	35.827239	4.689754	3.467631E+14	5.134256E-5	19476.818857	16.008764	1.144162	0	0
29.458619	9.054132	0.350128	37.493778	4.978084	35.616693	4.978084	3.250354E+14	5.132988E-5	19481.654967	16.007138	1.143924	0	0
30.348345	8.882294	0.36198	37.389922	5.248393	35.413094	5.248393	3.046073E+14	5.130653E-5	19490.543937	16.00837	1.143528	0	0
31.225371	8.627506	0.366654	37.287765	5.499025	35.218785	5.499025	2.857261E+14	5.129266E-5	19495.829739	15.991368	1.143528	0	0
32.102048	8.256627	0.367637	37.185167	5.735112	35.029716	5.735112	2.679056E+14	5.127112E-5	19504.038193	15.985363	1.143052	0	0
32.959296	7.752301	0.366624	37.082978	5.955092	34.847287	5.955092	2.512294E+14	5.123372E-5	19518.289202	15.97403	1.142536	0	0
33.791563	7.104294	0.364523	36.980298	6.160064	34.670188	6.160064	2.354905E+14	5.115065E-5	19550.002676	15.970107	1.141822	0	0
34.612122	6.30073	0.361477	36.87708	6.352791	34.497319	6.352791	2.206374E+14	5.104943E-5	19588.778199	15.961665	1.141188	0	0
35.408431	5.365699	0.356649	36.774237	6.532609	34.329806	6.532609	2.067479E+14	5.093461E-5	19632.945773	15.964091	1.140395	0	0
36.175655	4.322122	0.352758	36.672766	6.699309	34.168679	6.699309	1.938816E+14	5.081662E-5	19678.537703	15.96218	1.139403	0	0
36.90657	3.197836	0.352826	36.572618	6.852707	34.013941	6.852707	1.819517E+14	5.066879E-5	19735.961805	15.965285	1.138451	0	0
37.584421	2.053688	0.363671	36.475117	6.993779	33.866496	6.993779	1.710285E+14	5.052972E-5	19790.286305	15.974457	1.137024	0	0
38.177669	0.992657	0.385255	36.378253	7.125349	33.72332	7.125349	1.608138E+14	5.037529E-5	19850.957702	15.9762	1.135992	0	0
30.84167	8.757101	0.36317	36.282826	7.248711	33.584697	7.248711	1.513367E+14	5.024592E-5	19902.073461	15.985834	1.134446	0	0
38.758856	0	0	36.186615	7.365254	33.447943	7.365254	1.423376E+14	5.009245E-5	19963.055636	15.988508	1.133018	0	0
0	0	0	36.090371	7.473909	33.314178	7.473909	1.338623E+14	4.99E-5	20040.049132	15.986143	1.131749	0	0
0	0	0	35.99465	7.575899	33.183475	7.575899	1.259261E+14	4.9705E-5	20118.672246	15.978651	1.1304	0	0
0	0	0	35.898553	7.671157	33.054983	7.671157	1.184253E+14	4.946399E-5	20216.705481	15.980544	1.128893	0	0
0	0	0	35.803616	7.761374	32.929554	7.761374	1.114481E+14	4.926428E-5	20298.660659	15.97813	1.127426	0	0
0	0	0	35.708631	7.845188	32.806514	7.845188	1.048734E+14	4.901346E-5	20402.542413	15.975949	1.126315	0	0
0	0	0	35.613514	7.92433	32.685139	7.92433	9.867367E+13	4.875291E-5	20511.581946	15.976875	1.125205	0	0
0	0	0	35.519949	7.998648	32.567107	7.998648	9.29288E+13	4.85197E-5	20610.172554	15.976952	1.124134	0	0
0	0	0	35.425551	8.068575	32.449943	8.068575	8.746809E+13	4.82443E-5	20727.824389	15.97993	1.123143	0	0
0	0	0	35.333244	8.135984	32.335783	8.135984	8.243567E+13	4.808284E-5	20797.428466	15.982938	1.122111	0	0
0	0	0	35.241084	8.198161	32.22374	8.198161	7.769739E+13	4.78571E-5	20895.531637	15.995217	1.120803	0	0
0	0	0	35.149692	8.256796	32.113788	8.256796	7.326518E+13	4.764326E-5	20989.317357	15.995505	1.119811	0	0
0	0	0	35.058038	8.311141	32.005202	8.311141	6.907207E+13	4.736422E-5	21112.974207	15.996146	1.118701	0	0
0	0	0	34.965519	8.362881	31.896776	8.362881	6.508076E+13	4.706932E-5	21245.252563	15.997947	1.117273	0	0
0	0	0	34.876054	8.411331	31.792545	8.411331	6.143906E+13	4.683539E-5	21351.368307	15.987971	1.116242	0	0
0	0	0	34.786442	8.456642	31.689356	8.456642	5.79942E+13	4.656113E-5	21477.134556	15.988266	1.114497	0	0
0	0	0	34.697909	8.498881	31.588366	8.498881	5.477923E+13	4.62747E-5	21610.074595	15.982765	1.11295	0	0
0	0	0	34.610094	8.539147	31.48882	8.539147	5.176534E+13	4.601765E-5	21730.78751	15.982178	1.111126	0	0
0	0	0	34.522703	8.57735	31.390467	8.57735	4.892966E+13	4.576983E-5	21848.451161	15.982265	1.109341	0	0
0	0	0	34.435787	8.612737	31.293624	8.612737	4.626257E+13	4.547629E-5	21989.476288	15.97915	1.107358	0	0
0	0	0	34.349507	8.646833	31.197892	8.646833	4.375806E+13	4.523121E-5	22108.624894	15.974918	1.10593	0	0
0	0	0	34.26313	8.678619	31.10293	8.678619	4.138583E+13	4.493821E-5	22252.776274	15.977453	1.104106	0	0
0	0	0	34.17734	8.708753	31.009159	8.708753	3.915644E+13	4.465404E-5	22394.387444	15.987272	1.102083	0	0
0	0	0	34.091534	8.737301	30.915969	8.737301	3.704621E+13	4.435936E-5	22543.156516	15.993878	1.10014	0	0
0	0	0	34.005255	8.764229	30.82293	8.764229	3.503848E+13	4.403142E-5	22711.05399	16.001867	1.098157	0	0
0	0	0	33.921523	8.789531	30.732958	8.789531	3.319372E+13	4.374717E-5	22858.620105	16.006015	1.096491	0	0
0	0	0	33.836665	8.813541	30.642383	8.813541	3.142282E+13	4.342256E-5	23029.502373	16.000694	1.094984	0	0
0	0	0	33.752966	8.83631	30.553393	8.83631	2.976835E+13	4.312022E-5	23190.976294	16.003417	1.093041	0	0
0	0	0	33.669905	8.857762	30.465509	8.857762	2.82123E+13	4.281162E-5	23358.144969	16.002576	1.091454	0	0
0	0	0	33.586304	8.878148	30.377505	8.878148	2.672801E+13	4.248095E-5	23539.962187	16.008255	1.089432	0	0
0	0	0	33.5037	8.897962	30.290682	8.897962	2.533788E+13	4.221556E-5	23687.945688	16.004899	1.088044	0	0
0	0	0	33.420998	8.916769	30.204141	8.916769	2.401831E+13	4.193869E-5	23844.32911	16.006617	1.086061	0	0
0	0	0	33.338279	8.934072	30.118139	8.934072	2.276703E+13	4.159131E-5	24043.482123	16.002578	1.084593	0	0
0	0	0	33.255185	8.950951	30.031938	8.950951	2.157552E+13	4.127578E-5	24227.282791	16.002075	1.083046	0	0
0	0	0	33.173479	8.967173	29.947324	8.967173	2.046459E+13	4.101171E-5	24383.281692	15.999854	1.08146	0	0
0	0	0	33.090205	8.982015	29.861705	8.982015	1.939103E+13	4.062728E-5	24614.002086	16.007169	1.079636	0	0
0	0	0	33.007437	8.996632	29.776664	8.996632	1.837968E+13	4.031369E-5	24805.467533	16.00842	1.07797	0	0
0	0	0	32.925274	9.010149	29.692611	9.010149	1.742779E+13	3.995818E-5	25026.161789	16.015446	1.075987	0	0
0	0	0	32.842996	9.023476	29.608524	9.023476	1.652387E+13	3.965769E-5	25215.789082	16.015975	1.073964	0	0
0	0	0	32.760948	9.03591	29.524986	9.03591	1.566906E+13	3.932208E-5	25431.005402	16.01088	1.072299	0	0
0	0	0	32.679046	9.047711	29.441825	9.047711	1.48598E+13	3.897923E-5	25654.688793	16.015981	1.070038	0	0
0	0	0	32.598532	9.058652	29.360316	9.058652	1.410494E+13	3.862002E-5	25893.306837	16.014752	1.068055	0	0
0	0	0	32.517398	9.069622	29.278207	9.069622	1.338298E+13	3.832662E-5	26091.523307	16.021443	1.065913	0	0
0	0	0	32.43548	9.079741	29.195652	9.079741	1.269148E+13	3.795462E-5	26347.250746	16.019654	1.063653	0	0
0	0	0	32.353954	9.089588	29.113579	9.089588	1.20387E+13	3.762268E-5	26579.708745	16.023227	1.06159	0	0
0	0	0	32.272526	9.098942	29.031783	9.098942	1.142018E+13	3.728337E-5	26821.609534	16.014289	1.059845	0	0
0	0	0	32.190117	9.107916	28.949183	9.107916	1.082651E+13	3.692727E-5	27080.260635	16.015376	1.057862	0	0
0	0	0	32.108575	9.116419	28.86759	9.116419	1.026943E+13	3.657859E-5	27338.39406	16.024074	1.055602	0	0
0	0	0	32.026787	9.124939	28.785762	9.124939	9.739431E+12	3.630172E-5	27546.902219	16.029129	1.053619	0	0
0	0	0	31.941553	9.132638	28.70091	9.132638	9.216148E+12	3.585579E-5	27889.495545	16.031069	1.051715	0	0
0	0	0	31.858034	9.140103	28.617798	9.140103	8.730647E+12	3.547347E-5	28190.083487	16.032835	1.049692	0	0
0	0	0	31.776132	9.147112	28.53641	9.147112	8.279368E+12	3.510183E-5	28488.539977	16.034395	1.047828	0	0
0	0	0	31.690621	9.154034	28.451581	9.154034	7.833045E+12	3.469847E-5	28819.715219	16.034876	1.045925	0	0
0	0	0	31.608457	9.160468	28.370154	9.160468	7.426861E+12	3.433012E-5	29128.943749	16.044825	1.043823	0	0
0	0	0	31.525526	9.166738	28.28805	9.166738	7.038218E+12	3.397336E-5	29434.830852	16.045011	1.041998	0	0
0	0	0	31.442661	9.172617	28.206151	9.172617	6.670177E+12	3.359085E-5	29770.009166	16.044066	1.040015	0	0
0	0	0	31.360024	9.178374	28.124519	9.178374	6.322305E+12	3.324846E-5	30076.580651	16.045948	1.037755	0	0
0	0	0	31.274659	9.18401	28.040306	9.18401	5.981974E+12	3.288403E-5	30409.89372	16.041642	1.035851	0	0
0	0	0	31.189931	9.189077	27.956911	9.189077	5.662289E+12	3.244845E-5	30818.117426	16.041842	1.033709	0	0
0	0	0	31.105792	9.193906	27.874169	9.193906	5.36172E+12	3.202178E-5	31228.74075	16.04306	1.031647	0	0
0	0	0	31.021472	9.198466	27.791352	9.198466	5.076504E+12	3.157591E-5	31669.713144	16.045966	1.029466	0	0
0	0	0	30.937153	9.203466	27.708383	9.203466	4.806451E+12	3.132055E-5	31927.921424	16.050902	1.027205	0	0
0	0	0	30.851902	9.207798	27.624756	9.207798	4.54801E+12	3.091245E-5	32349.425118	16.05041	1.025302	0	0
0	0	0	30.767028	9.211984	27.541544	9.211984	4.304506E+12	3.052738E-5	32757.475996	16.056739	1.022922	0	0
0	0	0	30.681222	9.216036	27.457485	9.216036	4.071575E+12	3.014196E-5	33176.348105	16.056603	1.020899	0	0
0	0	0	30.595563	9.219809	27.373668	9.219809	3.851608E+12	2.972782E-5	33638.525524	16.061929	1.018559	0	0
0	0	0	30.50863	9.223306	27.288723	9.223306	3.640512E+12	2.925306E-5	34184.460034	16.064327	1.016497	0	0
0	0	0	30.421044	9.227048	27.203066	9.227048	3.439522E+12	2.89094E-5	34590.819624	16.069273	1.014117	0	0
0	0	0	30.332967	9.230051	27.117197	9.230051	3.248593E+12	2.835101E-5	35272.109818	16.067446	1.011976	0	0
0	0	0	30.244025	9.23374	27.030257	9.23374	3.066535E+12	2.808421E-5	35607.1935	16.065138	1.010072	0	0
0	0	0	30.155165	9.236596	26.943689	9.236596	2.89483E+12	2.756594E-5	36276.649203	16.062138	1.00801	0	0
0	0	0	30.066059	9.239963	26.856709	9.239963	2.732302E+12	2.729825E-5	36632.381348	16.072771	1.005591	0	0
0	0	0	29.975451	9.242797	26.768469	9.242797	2.576384E+12	2.685251E-5	37240.459736	16.073655	1.003568	0	0
0	0	0	29.884026	9.245674	26.67943	9.245674	2.428075E+12	2.646705E-5	37782.822327	16.077877	1.001228	0	0
0	0	0	29.790919	9.248132	26.588918	9.248132	2.285805E+12	2.593221E-5	38562.075652	16.081455	0.999364	0	0
0	0	0	29.69675	9.25101	26.49724	9.25101	2.150387E+12	2.561906E-5	39033.432042	16.077471	0.997381	0	0
0	0	0	29.602434	9.252881	26.40577	9.252881	2.022798E+12	2.4911E-5	40142.914487	16.078372	0.995477	0	0
0	0	0	29.508771	9.255478	26.314681	9.255478	1.903583E+12	2.459304E-5	40661.911985	16.080226	0.993455	0	0
0	0	0	29.416774	9.257796	26.225293	9.257796	1.793329E+12	2.423004E-5	41271.089935	16.087186	0.991234	0	0
0	0	0	29.323716	9.260105	26.134889	9.260105	1.688297E+12	2.39009E-5	41839.421819	16.088777	0.989251	0	0
0	0	0	29.229628	9.261613	26.043771	9.261613	1.588355E+12	2.321067E-5	43083.638343	16.089411	0.987228	0	0
0	0	0	29.135247	9.263653	25.952188	9.263653	1.494043E+12	2.282791E-5	43806.0232	16.08635	0.985245	0	0
0	0	0	29.040963	9.265796	25.860665	9.265796	1.405419E+12	2.255341E-5	44339.186639	16.082306	0.983103	0	0
0	0	0	28.945487	9.26723	25.768239	9.26723	1.32103E+12	2.193771E-5	45583.61286	16.086526	0.980922	0	0
0	0	0	28.850011	9.269023	25.675691	9.269023	1.241706E+12	2.155897E-5	46384.411406	16.087742	0.97886	0	0
0	0	0	28.753947	9.270497	25.582688	9.270497	1.166701E+12	2.104425E-5	47518.914257	16.093301	0.976797	0	0
0	0	0	28.65723	9.271991	25.489049	9.271991	1.09576E+12	2.057571E-5	48600.986136	16.098004	0.974735	0	0
0	0	0	28.560006	9.273423	25.394946	9.273423	1.028795E+12	2.010891E-5	49729.199283	16.102701	0.972395	0	0
0	0	0	28.461688	9.2747	25.299842	9.2747	9.652365E+11	1.958111E-5	51069.628507	16.094725	0.970769	0	0
0	0	0	28.361638	9.276243	25.202982	9.276243	9.045875E+11	1.923132E-5	51998.513239	16.094013	0.968628	0	0
0	0	0	28.262324	9.277346	25.106981	9.277346	8.481531E+11	1.86718E-5	53556.705388	16.100107	0.966684	0	0
0	0	0	28.159023	9.278799	25.007023	9.278799	7.93186E+11	1.831846E-5	54589.745363	16.101868	0.964582	0	0
0	0	0	28.050741	9.280068	24.902333	9.280068	7.393876E+11	1.78402E-5	56053.168876	16.114665	0.962282	0	0
0	0	0	27.944517	9.281119	24.799699	9.281119	6.901586E+11	1.729399E-5	57823.556772	16.11404	0.960299	0	0
0	0	0	27.839306	9.281893	24.698135	9.281893	6.446303E+11	1.662433E-5	60152.787236	16.111521	0.958475	0	0
0	0	0	27.733	9.283128	24.595362	9.283128	6.016779E+11	1.627459E-5	61445.484738	16.111941	0.956531	0	0
0	0	0	27.624881	9.283829	24.491024	9.283829	5.609272E+11	1.560542E-5	64080.2949	16.112199	0.954707	0	0
0	0	0	27.514524	9.285218	24.384301	9.285218	5.221778E+11	1.539723E-5	64946.757353	16.115853	0.952645	0	0
0	0	0	27.401129	9.28595	24.274875	9.28595	4.85148E+11	1.477177E-5	67696.705083	16.119189	0.950582	0	0
0	0	0	27.288093	9.287143	24.16564	9.287143	4.50849E+11	1.449768E-5	68976.531062	16.114952	0.948877	0	0
0	0	0	27.172068	9.28806	24.053621	9.28806	4.181632E+11	1.405204E-5	71164.023788	16.112164	0.947013	0	0
0	0	0	27.054067	9.288627	23.939817	9.288627	3.8735E+11	1.338991E-5	74683.099517	16.116466	0.944951	0	0
0	0	0	26.934416	9.289676	23.824264	9.289676	3.584235E+11	1.308382E-5	76430.294322	16.1144	0.943126	0	0
0	0	0	26.812167	9.290346	23.706338	9.290346	3.310988E+11	1.253448E-5	79779.949368	16.126551	0.940945	0	0
0	0	0	26.686374	9.291211	23.584935	9.291211	3.051546E+11	1.213303E-5	82419.62413	16.125469	0.939081	0	0
0	0	0	26.558409	9.29187	23.46151	9.29187	2.808473E+11	1.161177E-5	86119.503393	16.12205	0.937534	0	0
0	0	0	26.426703	9.29255	23.334477	9.29255	2.578497E+11	1.111793E-5	89944.787574	16.127233	0.935432	0	0
0	0	0	26.294049	9.293168	23.206553	9.293168	2.365898E+11	1.061498E-5	94206.526018	16.119376	0.933806	0	0
0	0	0	26.158063	9.293909	23.07538	9.293909	2.16614E+11	1.021544E-5	97891.01006	16.123769	0.931744	0	0
0	0	0	26.02033	9.294455	22.94259	9.294455	1.981E+11	9.707932E-6	103008.55474	16.124616	0.929681	0	0
0	0	0	25.879427	9.29537	22.806628	9.29537	1.807964E+11	9.481877E-6	105464.351442	16.131095	0.927659	0	0
0	0	0	25.736973	9.295691	22.669369	9.295691	1.648382E+11	8.862746E-6	112831.847914	16.132082	0.925517	0	0
0	0	0	25.591055	9.296534	22.528604	9.296534	1.499512E+11	8.634916E-6	115808.890931	16.12548	0.923772	0	0
0	0	0	25.44277	9.29707	22.385661	9.29707	1.361993E+11	8.213441E-6	121751.65719	16.123223	0.921908	0	0
0	0	0	25.294222	9.297462	22.242514	9.297462	1.236876E+11	7.725838E-6	129435.800364	16.127044	0.919965	0	0
0	0	0	25.144761	9.297915	22.098467	9.297915	1.122586E+11	7.314689E-6	136711.214106	16.135226	0.917863	0	0
0	0	0	24.99373	9.298624	21.952827	9.298624	1.017821E+11	7.112758E-6	140592.443106	16.13959	0.915919	0	0
0	0	0	24.840953	9.298954	21.805629	9.298954	9.217873E+10	6.666299E-6	150008.264468	16.132842	0.914214	0	0
0	0	0	24.686492	9.299448	21.656758	9.299448	8.339037E+10	6.362985E-6	157158.942799	16.133834	0.91235	0	0
0	0	0	24.530235	9.299798	21.506204	9.299798	7.535202E+10	5.983401E-6	167129.024748	16.13741	0.910446	0	0
0	0	0	24.370597	9.299994	21.352445	9.299994	6.793932E+10	5.520586E-6	181140.197747	16.135882	0.908701	0	0
0	0	0	24.210501	9.300682	21.198087	9.300682	6.123767E+10	5.41926E-6	184527.048205	16.142083	0.906837	0	0
0	0	0	24.049344	9.30095	21.042844	9.30095	5.515907E+10	5.056534E-6	197763.909365	16.146825	0.904973	0	0
0	0	0	23.889199	9.301095	20.888615	9.301095	4.971649E+10	4.647664E-6	215161.850623	16.141383	0.903268	0	0
0	0	0	23.725836	9.301239	20.731289	9.301239	4.471749E+10	4.264581E-6	234489.615206	16.141979	0.901523	0	0
0	0	0	23.561559	9.301804	20.572947	9.301804	4.019728E+10	4.161296E-6	240309.738439	16.144284	0.899619	0	0
0	0	0	23.395958	9.302082	20.413425	9.302082	3.610299E+10	3.901414E-6	256317.336141	16.142079	0.898112	0	0
0	0	0	23.227924	9.302544	20.2515	9.302544	3.237456E+10	3.774134E-6	264961.414976	16.148741	0.89605	0	0
0	0	0	23.058828	9.302924	20.08858	9.302924	2.901119E+10	3.616345E-6	276522.297928	16.1555	0.894146	0	0
0	0	0	22.887412	9.303181	19.923466	9.303181	2.595815E+10	3.39479E-6	294568.992098	16.15013	0.89252	0	0
0	0	0	22.712043	9.303356	19.754574	9.303356	2.316691E+10	3.134597E-6	319020.288509	16.145339	0.890854	0	0
0	0	0	22.535188	9.303654	19.584211	9.303654	2.065589E+10	2.969883E-6	336713.560462	16.151603	0.888752	0	0
0	0	0	22.357418	9.303716	19.413043	9.303716	1.84061E+10	2.681346E-6	372947.001986	16.154685	0.887166	0	0
0	0	0	22.178587	9.303993	19.240784	9.303993	1.639007E+10	2.537541E-6	394082.377547	16.154075	0.885302	0	0
0	0	0	21.996162	9.304465	19.065005	9.304465	1.456086E+10	2.524125E-6	396176.877829	16.155758	0.883676	0	0
0	0	0	21.810257	9.30466	18.885964	9.30466	1.290664E+10	2.353836E-6	424838.516938	16.156139	0.881852	0	0
0	0	0	21.622262	9.304927	18.704888	9.304927	1.142485E+10	2.243294E-6	445773.00983	16.157813	0.880107	0	0
0	0	0	21.431816	9.304825	18.521569	9.304825	1.009712E+10	1.926033E-6	519201.840674	16.155438	0.878481	0	0
0	0	0	21.241028	9.304887	18.337868	9.304887	8.921699E+9	1.731656E-6	577481.814783	16.154509	0.876854	0	0
0	0	0	21.047446	9.305143	18.151418	9.305143	7.868843E+9	1.647271E-6	607064.66562	16.161391	0.875149	0	0
0	0	0	20.849911	9.305287	17.961197	9.305287	6.922461E+9	1.515876E-6	659684.357292	16.162625	0.873563	0	0
0	0	0	20.647166	9.305513	17.765934	9.305513	6.06935E+9	1.432655E-6	698004.849463	16.164628	0.871937	0	0
0	0	0	20.440189	9.305431	17.566694	9.305431	5.30679E+9	1.218235E-6	820859.624493	16.167763	0.87039	0	0
0	0	0	20.234373	9.305728	17.368453	9.305728	4.643531E+9	1.184265E-6	844405.721573	16.164457	0.868724	0	0
0	0	0	20.026842	9.305903	17.168599	9.305903	4.058651E+9	1.107139E-6	903228.757358	16.162512	0.867257	0	0
0	0	0	19.816745	9.305903	16.96633	9.305903	3.541542E+9	9.661284E-7	1035059.08664	16.169529	0.865432	0	0
0	0	0	19.60451	9.306119	16.761936	9.306119	3.086032E+9	9.210293E-7	1085741.764392	16.165415	0.863965	0	0
0	0	0	19.390411	9.306262	16.55577	9.306262	2.685862E+9	8.552206E-7	1169288.890683	16.171097	0.86222	0	0
0	0	0	19.175578	9.306467	16.348879	9.306467	2.336468E+9	8.225531E-7	1215727.013836	16.1635	0.860753	0	0
0	0	0	18.955763	9.306683	16.137188	9.306683	2.025968E+9	8.022098E-7	1246556.674867	16.166455	0.859087	0	0
0	0	0	18.735001	9.306539	15.924694	9.306539	1.755652E+9	6.418445E-7	1558009.676843	16.160705	0.85758	0	0
0	0	0	18.512784	9.306642	15.710726	9.306642	1.519968E+9	5.879325E-7	1700875.504772	16.162835	0.855954	0	0
0	0	0	18.287105	9.306909	15.493375	9.306909	1.312971E+9	5.980801E-7	1672016.93806	16.169892	0.854169	0	0
0	0	0	18.057963	9.307001	15.272743	9.307001	1.131619E+9	5.492556E-7	1820646.128616	16.17122	0.852583	0	0
0	0	0	17.827089	9.306847	15.050517	9.306847	9.742204E+8	4.263267E-7	2345618.793874	16.171567	0.851036	0	0
0	0	0	17.594075	9.307196	14.826082	9.307196	8.375516E+8	4.717949E-7	2119564.896958	16.166477	0.849608	0	0
0	0	0	17.35982	9.307278	14.600531	9.307278	7.194757E+8	4.346675E-7	2300608.827986	16.168994	0.848101	0	0
0	0	0	17.122723	9.307104	14.372319	9.307104	6.169075E+8	3.229687E-7	3096275.329717	16.171156	0.846237	0	0
0	0	0	16.880644	9.307411	14.139169	9.307411	5.272545E+8	3.610819E-7	2769454.875041	16.171421	0.844651	0	0
0	0	0	16.635102	9.307493	13.902752	9.307493	4.496194E+8	3.354846E-7	2980762.565626	16.175075	0.843104	0	0
0	0	0	16.392042	9.307801	13.668659	9.307801	3.840336E+8	4.313475E-7	2318316.252403	16.179423	0.841398	0	0
0	0	0	16.145879	9.307739	13.431687	9.307739	3.27355E+8	3.33947E-7	2994487.502275	16.181172	0.839733	0	0
0	0	0	15.900304	9.307606	13.195302	9.307606	2.79148E+8	2.375358E-7	4209891.870362	16.16762	0.838583	0	0
0	0	0	15.654076	9.307555	12.958263	9.307555	2.379392E+8	1.903296E-7	5254044.45656	16.172893	0.836838	0	0
0	0	0	15.4061	9.308027	12.719391	9.308027	2.025839E+8	3.615452E-7	2765905.963094	16.171106	0.83533	0	0
0	0	0	15.155755	9.307791	12.478443	9.307791	1.722173E+8	1.902503E-7	5256233.076361	16.175474	0.833546	0	0
0	0	0	14.906407	9.307893	12.238357	9.307893	1.464971E+8	1.939727E-7	5155365.463449	16.173245	0.832078	0	0
0	0	0	14.656634	9.307965	11.99787	9.307965	1.245839E+8	1.915888E-7	5219510.446371	16.177852	0.830452	0	0
0	0	0	14.406698	9.307842	11.757283	9.307842	1.059373E+8	1.276036E-7	7836772.213883	16.177372	0.828945	0	0
0	0	0	14.154115	9.307883	11.514101	9.307883	8.992699E+7	1.167555E-7	8564909.167647	16.174503	0.827359	0	0
0	0	0	13.90346	9.307709	11.272835	9.307709	7.643185E+7	7.455774E-8	1.341242E+7	16.176187	0.825852	0	0
0	0	0	13.652707	9.307914	11.031368	9.307914	6.495776E+7	8.956993E-8	1.116446E+7	16.178794	0.824265	0	0
0	0	0	13.401317	9.307873	10.789357	9.307873	5.518338E+7	7.027972E-8	1.422886E+7	16.182006	0.82252	0	0
0	0	0	13.147657	9.308098	10.545085	9.308098	4.681078E+7	1.028157E-7	9726143.046953	16.178044	0.821093	0	0
0	0	0	12.893261	9.308098	10.30017	9.308098	3.968956E+7	8.717523E-8	1.147115E+7	16.172785	0.819625	0	0
0	0	0	12.644844	9.308242	10.06097	9.308242	3.378245E+7	1.376946E-7	7262446.864548	16.172942	0.818039	0	0
0	0	0	12.399335	9.30814	9.824637	9.30814	2.880879E+7	7.28788E-8	1.372141E+7	16.171742	0.816492	0	0
0	0	0	12.157092	9.308191	9.591407	9.308191	2.46195E+7	7.685977E-8	1.301071E+7	16.176725	0.814707	0	0
0	0	0	11.917986	9.307883	9.361296	9.307883	2.108226E+7	2.737299E-8	3.653236E+7	16.176516	0.813359	0	0
0	0	0	11.681721	9.30815	9.133762	9.30815	1.808655E+7	4.755904E-8	2.10265E+7	16.188477	0.811376	0	0
0	0	0	11.448348	9.308621	8.908957	9.308621	1.554564E+7	-5.022768E-8	-1.990934E+7	16.174552	0.810146	0	0
0	0	0	11.217475	9.308324	8.686768	9.308324	1.338338E+7	1.06752E-7	9367502.132934	16.170624	0.808838	0	0
0	0	0	10.991028	9.308098	8.468821	9.308098	1.155501E+7	2.538044E-8	3.940041E+7	16.176168	0.806934	0	0
0	0	0	10.767504	9.308232	8.253591	9.308232	9995354.5	3.839522E-8	2.604491E+7	16.176284	0.805467	0	0
0	0	0	10.54568	9.308498	8.039961	9.308498	8655752	-6.680938E-8	-1.496796E+7	16.179683	0.803761	0	0
0	0	0	10.32611	9.308468	7.828581	9.308468	7506655.5	-8.876E-8	-1.126634E+7	16.175793	0.802333	0	0
0	0	0	10.111015	9.308016	7.621623	9.308016	6529036	1.135021E-8	8.810412E+7	16.171458	0.800866	0	0
0	0	0	9.898943	9.308416	7.417346	9.308416	5689878.5	-5.930015E-7	-1686336.388455	16.163964	0.799637	0	0
0	0	0	9.687752	9.30814	7.214099	9.30814	4961413.5	1.255143E-8	7.967221E+7	16.165223	0.79801	0	0
0	0	0	9.478685	9.308119	7.012829	9.308119	4332176	1.01867E-8	9.816724E+7	16.167589	0.796503	0	0
0	0	0	9.265894	9.308283	6.807923	9.308283	3773614.5	2.035968E-8	4.911668E+7	16.173287	0.794758	0	0
0	0	0	9.05833	9.308591	6.608013	9.308591	3298235	-1.246867E-8	-8.020101E+7	16.182385	0.793013	0	0
0	0	0	8.856891	9.308181	6.414189	9.308181	2894218.5	8.631641E-9	1.158528E+8	16.16948	0.791824	0	0
0	0	0	8.656236	9.308181	6.221011	9.308181	2540984	7.578167E-9	1.31958E+8	16.160288	0.790475	0	0
0	0	0	8.458391	9.308437	6.030472	9.308437	2234931	-5.645519E-8	-1.771316E+7	16.165773	0.788889	0	0
0	0	0	8.263356	9.308478	5.842694	9.308478	1969326.5	-1.977825E-8	-5.05606E+7	16.168053	0.787263	0	0
0	0	0	8.069562	9.308632	5.656081	9.308632	1736685.5	-5.3518E-9	-1.86853E+8	16.178881	0.785597	0	0
0	0	0	7.878888	9.308068	5.472659	9.308068	1534629.5	3.067695E-9	3.259776E+8	16.175115	0.784169	0	0
0	0	0	7.688556	9.308539	5.289298	9.308539	1356383.5	-7.156022E-9	-1.397425E+8	16.174049	0.782622	0	0
0	0	0	7.501035	9.308437	5.108791	9.308437	1201028	-3.033812E-8	-3.296183E+7	16.170724	0.781155	0	0
0	0	0	7.315947	9.308683	4.930538	9.308683	1065146.5	-2.66631E-9	-3.750501E+8	16.168878	0.779688	0	0
0	0	0	7.133783	9.30858	4.755189	9.30858	946431.5	-3.792902E-9	-2.636504E+8	16.171074	0.778101	0	0
0	0	0	6.951374	9.308314	4.579645	9.308314	840814.5	5.99044E-9	1.669327E+8	16.170106	0.776673	0	0
0	0	0	6.770419	9.308427	4.405405	9.308427	747688.5	-3.040299E-8	-3.28915E+7	16.17161	0.775206	0	0
0	0	0	6.590085	9.308755	4.231708	9.308755	665144.5	-1.318546E-9	-7.58411E+8	16.167364	0.773699	0	0
0	0	0	6.411613	9.308734	4.059892	9.308734	592428.5	-1.248633E-9	-8.008758E+8	16.166445	0.772311	0	0
0	0	0	6.23412	9.308868	3.88898	9.308868	527997.5	-7.887565E-10	-1.267818E+9	16.171443	0.770645	0	0
0	0	0	6.056481	9.308642	3.718018	9.308642	470529.5	-1.385944E-9	-7.215297E+8	16.169538	0.769257	0	0
0	0	0	5.877062	9.30855	3.545308	9.30855	418832	-2.047675E-9	-4.883588E+8	16.177628	0.76775	0	0
0	0	0	5.696156	9.308673	3.371112	9.308673	372455.5	-9.687053E-10	-1.032306E+9	16.174134	0.766203	0	0
0	0	0	5.514024	9.308621	3.195781	9.308621	330950.5	-1.069273E-9	-9.352147E+8	16.169378	0.765053	0	0
0	0	0	5.334572	9.308765	3.022981	9.308765	294582.5	-5.671061E-10	-1.763338E+9	16.162877	0.763546	0	0
0	0	0	5.160379	9.30857	2.855328	9.30857	263107	-1.12184E-9	-8.913926E+8	16.163848	0.762158	0	0
0	0	0	4.989193	9.308611	2.69051	9.308611	235453.5	-7.994641E-10	-1.250838E+9	16.169553	0.760572	0	0
0	0	0	4.81977	9.308529	2.527421	9.308529	210947.5	-1.208528E-9	-8.274529E+8	16.177543	0.758985	0	0
0	0	0	4.6551	9.308683	2.368851	9.308683	189576	-4.745526E-10	-2.107248E+9	16.180257	0.757557	0	0
0	0	0	4.49226	9.308806	2.212049	9.308806	170571.5	-2.943775E-10	-3.396999E+9	16.169252	0.756288	0	0
0	0	0	4.332949	9.308232	2.058815	9.308232	153824.5	5.908958E-10	1.692346E+9	16.170696	0.754781	0	0
0	0	0	4.175777	9.30896	1.907322	9.30896	138914	-1.727E-10	-5.790386E+9	16.158862	0.753631	0	0
0	0	0	4.02063	9.308704	1.75802	9.308704	125613.5	-2.924816E-10	-3.419019E+9	16.169626	0.751926	0	0
0	0	0	3.866366	9.308652	1.609517	9.308652	113652	-3.20601E-10	-3.119142E+9	16.169502	0.750617	0	0
0	0	0	3.715483	9.30895	1.464185	9.30895	103055	-1.305535E-10	-7.659697E+9	16.17446	0.748911	0	0
0	0	0	3.566119	9.309062	1.32036	9.309062	93538.5	-9.801565E-11	-1.020245E+10	16.173118	0.747682	0	0
0	0	0	3.418356	9.30857	1.178222	9.30857	84989	-3.623775E-10	-2.759553E+9	16.171805	0.746056	0	0
0	0	0	3.272096	9.308621	1.0374	9.308621	77296	-2.497368E-10	-4.004216E+9	16.164958	0.744708	0	0
0	0	0	3.126521	9.308673	0.897239	9.308673	70331	-1.829212E-10	-5.466836E+9	16.168029	0.743359	0	0
0	0	0	2.980686	9.308734	0.756823	9.308734	63982	-1.348517E-10	-7.415552E+9	16.162887	0.74209	0	0
0	0	0	2.835226	9.308991	0.616723	9.308991	58221	-6.85475E-11	-1.458842E+10	16.163839	0.740623	0	0
0	0	0	2.689488	9.308427	0.476551	9.308427	52969	-2.15384E-9	-4.642871E+8	16.162617	0.739314	0	0
0	0	0	2.54393	9.308909	0.336303	9.308909	48196.5	-6.607804E-11	-1.513362E+10	16.165402	0.737648	0	0
0	0	0	2.396935	9.309032	0.194756	9.309032	43813	-4.818135E-11	-2.075492E+10	16.160124	0.736339	0	0
0	0	0	2.247114	9.309062	0.050511	9.309062	39755.5	-4.165837E-11	-2.400478E+10	16.165394	0.734793	0	0
0	0	0	2.098713	9.308837	-0.092305	9.308837	36106.5	-5.782423E-11	-1.729379E+10	16.164044	0.733603	0	0
0	0	0	1.955671	9.308755	-0.229998	9.308755	32907	-6.523302E-11	-1.532966E+10	16.169362	0.732135	0	0
0	0	0	1.821417	9.308632	-0.35922	9.308632	30162.5	-9.294912E-11	-1.075857E+10	16.162361	0.730866	0	0
0	0	0	1.703693	9.308406	-0.472504	9.308406	27944.5	5.17641E-9	1.931841E+8	16.166406	0.729319	0	0
0	0	0	1.593794	9.308673	-0.57837	9.308673	26022	-6.767961E-11	-1.47755E+10	16.15878	0.72805	0	0
0	0	0	1.494038	9.308734	-0.674423	9.308734	24391	-5.140772E-11	-1.945233E+10	16.158009	0.726702	0	0
0	0	0	1.403185	9.308806	-0.761907	9.308806	22995	-3.968547E-11	-2.519814E+10	16.157141	0.725353	0	0
0	0	0	1.320123	9.308837	-0.84188	9.308837	21789	-3.489488E-11	-2.86575E+10	16.155834	0.724005	0	0
0	0	0	1.24335	9.308683	-0.915756	9.308683	20730.5	-5.189323E-11	-1.927033E+10	16.156198	0.722736	0	0
0	0	0	1.172295	9.308734	-0.984176	9.308734	19796.5	-4.172411E-11	-2.396696E+10	16.156576	0.721229	0	0
0	0	0	1.105911	9.308755	-1.048091	9.308755	18962	-3.758922E-11	-2.660337E+10	16.156424	0.71992	0	0
0	0	0	1.047204	9.308919	-1.104648	9.308919	18253.5	-2.452164E-11	-4.07803E+10	16.14947	0.71873	0	0
0	0	0	0.993888	9.308683	-1.155922	9.308683	17633	-4.413948E-11	-2.265546E+10	16.15597	0.717144	0	0
0	0	0	0.945325	9.308888	-1.202723	9.308888	17086	-2.442964E-11	-4.093388E+10	16.16084	0.715557	0	0
0	0	0	0.900927	9.308909	-1.24547	9.308909	16601	-2.276019E-11	-4.393637E+10	16.158704	0.714288	0	0
0	0	0	0.861234	9.309062	-1.28372	9.309062	16179	-1.69534E-11	-5.898523E+10	16.157358	0.713019	0	0
0	0	0	0.824302	9.30897	-1.319255	9.30897	15796	-1.927843E-11	-5.187145E+10	16.155881	0.711552	0	0
0	0	0	0.79026	9.308745	-1.351976	9.308745	15451.5	-3.156863E-11	-3.167702E+10	16.153728	0.710441	0	0
0	0	0	0.761381	9.308478	-1.379718	9.308478	15164.5	-1.522984E-10	-6.566059E+9	16.148762	0.709133	0	0
0	0	0	0.734069	9.30856	-1.40603	9.30856	14898.5	-6.786356E-11	-1.473545E+10	16.156916	0.707546	0	0
0	0	0	0.70813	9.308642	-1.431022	9.308642	14649.5	-4.315008E-11	-2.317493E+10	16.153911	0.706317	0	0
0	0	0	0.684379	9.308642	-1.453887	9.308642	14425.5	-4.249028E-11	-2.353479E+10	16.145565	0.705167	0	0
0	0	0	0.662964	9.308786	-1.474537	9.308786	14226.5	-2.589273E-11	-3.862088E+10	16.145792	0.703897	0	0
0	0	0	0.643248	9.308837	-1.49353	9.308837	14045.5	-2.249374E-11	-4.445681E+10	16.143691	0.702628	0	0
0	0	0	0.624284	9.308663	-1.511748	9.308663	13874	-3.754881E-11	-2.6632E+10	16.147149	0.70124	0	0
0	0	0	0.606724	9.308786	-1.528681	9.308786	13717	-2.496542E-11	-4.005541E+10	16.147671	0.699852	0	0
0	0	0	0.58936	9.308734	-1.545386	9.308734	13563	-2.858607E-11	-3.498207E+10	16.152968	0.698504	0	0
0	0	0	0.571637	9.308816	-1.562468	9.308816	13408	-2.255618E-11	-4.433375E+10	16.149282	0.697195	0	0
0	0	0	0.556103	9.308775	-1.577413	9.308775	13274	-2.483701E-11	-4.02625E+10	16.14424	0.695926	0	0
0	0	0	0.540357	9.308539	-1.592519	9.308539	13139	-6.93187E-11	-1.442612E+10	16.146194	0.694498	0	0
0	0	0	0.526554	9.308468	-1.605791	9.308468	13022	-1.539692E-10	-6.494807E+9	16.143932	0.693348	0	0
0	0	0	0.511673	9.308837	-1.620202	9.308837	12896.5	-2.065363E-11	-4.841765E+10	16.147783	0.691841	0	0
0	0	0	0.498115	9.308878	-1.633264	9.308878	12783.5	-1.867839E-11	-5.353782E+10	16.144685	0.690651	0	0
0	0	0	0.483594	9.308663	-1.647195	9.308663	12664	-3.427405E-11	-2.91766E+10	16.146196	0.689303	0	0
0	0	0	0.470493	9.308642	-1.659802	9.308642	12557	-3.698662E-11	-2.70368E+10	16.139894	0.688033	0	0
0	0	0	0.457948	9.308601	-1.671871	9.308601	12455	-4.455875E-11	-2.244228E+10	16.135947	0.686923	0	0
0	0	0	0.445077	9.308929	-1.684338	9.308929	12351.5	-1.626527E-11	-6.14807E+10	16.131198	0.685535	0	0
0	0	0	0.43325	9.308724	-1.695676	9.308724	12257	-2.667661E-11	-3.748603E+10	16.140895	0.683988	0	0
0	0	0	0.421261	9.308816	-1.70724	9.308816	12162	-2.046004E-11	-4.887575E+10	16.139749	0.68264	0	0
0	0	0	0.410986	9.308827	-1.717134	9.308827	12081.5	-1.98245E-11	-5.044262E+10	16.136284	0.681569	0	0
0	0	0	0.399813	9.308621	-1.727844	9.308621	11994	-3.875159E-11	-2.580539E+10	16.138509	0.680101	0	0
0	0	0	0.38967	9.308919	-1.737677	9.308919	11915.5	-1.600721E-11	-6.247184E+10	16.127273	0.678951	0	0
0	0	0	0.379689	9.308806	-1.74726	9.308806	11838.5	-2.043124E-11	-4.894465E+10	16.123387	0.677801	0	0
0	0	0	0.369268	9.309073	-1.757354	9.309073	11758.5	-1.21307E-11	-8.243549E+10	16.124164	0.676334	0	0
0	0	0	0.359614	9.308457	-1.766508	9.308457	11685.5	-1.67944E-10	-5.954366E+9	16.131551	0.674985	0	0
0	0	0	0.350532	9.308919	-1.775357	9.308919	11616.5	-1.560554E-11	-6.407982E+10	16.132257	0.673597	0	0
0	0	0	0.340176	9.308888	-1.78532	9.308888	11539	-1.649851E-11	-6.061152E+10	16.131044	0.672249	0	0
0	0	0	0.331224	9.308847	-1.793928	9.308847	11472	-1.794143E-11	-5.573691E+10	16.125986	0.67098	0	0
0	0	0	0.322943	9.308704	-1.801869	9.308704	11410.5	-2.656849E-11	-3.763857E+10	16.111411	0.670107	0	0
0	0	0	0.313681	9.30856	-1.810752	9.30856	11342.5	-5.166577E-11	-1.935518E+10	16.117511	0.668798	0	0
0	0	0	0.305677	9.308724	-1.818496	9.308724	11283.5	-2.455785E-11	-4.072019E+10	16.128479	0.667133	0	0
0	0	0	0.298147	9.308601	-1.825717	9.308601	11228.5	-4.017085E-11	-2.489367E+10	16.119075	0.666339	0	0
0	0	0	0.291776	9.308437	-1.831813	9.308437	11182	-2.82456E-10	-3.540375E+9	16.126432	0.664753	0	0
0	0	0	0.283609	9.308827	-1.839765	9.308827	11123	-1.82517E-11	-5.47894E+10	16.11896	0.663563	0	0
0	0	0	0.275327	9.308775	-1.847726	9.308775	11063.5	-2.070094E-11	-4.830699E+10	16.110374	0.662413	0	0
0	0	0	0.268467	9.308652	-1.854303	9.308652	11014.5	-3.10708E-11	-3.218455E+10	16.1172	0.661025	0	0
0	0	0	0.260936	9.308509	-1.86152	9.308509	10960.5	-7.582083E-11	-1.318899E+10	16.116749	0.659796	0	0
0	0	0	0.254076	9.308652	-1.868157	9.308652	10912	-3.078166E-11	-3.248687E+10	16.122924	0.658447	0	0
0	0	0	0.247003	9.308468	-1.874925	9.308468	10862	-1.284298E-10	-7.786354E+9	16.118903	0.657099	0	0
0	0	0	0.239914	9.30858	-1.881775	9.30858	10812	-4.332992E-11	-2.307874E+10	16.115449	0.655909	0	0
0	0	0	0.234033	9.308837	-1.887495	9.308837	10771	-1.724966E-11	-5.797216E+10	16.107081	0.654759	0	0
0	0	0	0.226781	9.30896	-1.894505	9.30896	10720.5	-1.332789E-11	-7.503062E+10	16.104221	0.653529	0	0
0	0	0	0.220067	9.308621	-1.900892	9.308621	10674	-3.448678E-11	-2.899662E+10	16.114161	0.652181	0	0
0	0	0	0.212618	9.30897	-1.908142	9.30897	10622.5	-1.296436E-11	-7.713452E+10	16.113001	0.650951	0	0
0	0	0	0.20744	9.308529	-1.913027	9.308529	10587	-6.06534E-11	-1.648712E+10	16.106742	0.64992	0	0
0	0	0	0.201152	9.308796	-1.919142	9.308796	10544	-1.868061E-11	-5.353145E+10	16.108344	0.648453	0	0
0	0	0	0.195042	9.308847	-1.925035	9.308847	10502	-1.642442E-11	-6.088496E+10	16.101767	0.647303	0	0
0	0	0	0.18859	9.30896	-1.931273	9.30896	10458	-1.300155E-11	-7.691392E+10	16.10412	0.646073	0	0
0	0	0	0.183216	9.308775	-1.936404	9.308775	10422	-1.950063E-11	-5.12804E+10	16.108109	0.644764	0	0
0	0	0	0.178005	9.308991	-1.94147	9.308991	10386.5	-1.222872E-11	-8.177468E+10	16.10711	0.643575	0	0
0	0	0	0.172517	9.308683	-1.946684	9.308683	10349.5	-2.590719E-11	-3.859932E+10	16.108402	0.642306	0	0
0	0	0	0.166604	9.308591	-1.952356	9.308591	10310	-3.897582E-11	-2.565693E+10	16.104822	0.640997	0	0
0	0	0	0.161344	9.309001	-1.957513	9.309001	10275	-1.188757E-11	-8.412149E+10	16.098042	0.639966	0	0
0	0	0	0.156052	9.308909	-1.962587	9.308909	10240	-1.403917E-11	-7.122926E+10	16.095171	0.638697	0	0
0	0	0	0.151674	9.30857	-1.966724	9.30857	10210.5	-4.353569E-11	-2.296966E+10	16.098329	0.637467	0	0
0	0	0	0.147117	9.30857	-1.971112	9.30857	10180.5	-4.340778E-11	-2.303735E+10	16.100208	0.636079	0	0
0	0	0	0.1422	9.309001	-1.975943	9.309001	10148	-1.174064E-11	-8.517425E+10	16.104251	0.63485	0	0
0	0	0	0.137757	9.308621	-1.980135	9.308621	10119	-3.269363E-11	-3.0587E+10	16.10761	0.633461	0	0
0	0	0	0.132562	9.309114	-1.985247	9.309114	10085	-9.797918E-12	-1.020625E+11	16.097534	0.632589	0	0
0	0	0	0.127597	9.308642	-1.989921	9.308642	10052.5	-2.960962E-11	-3.377281E+10	16.099171	0.63128	0	0
0	0	0	0.123399	9.30856	-1.993944	9.30856	10025.5	-4.566675E-11	-2.189777E+10	16.085938	0.630447	0	0
0	0	0	0.119936	9.30896	-1.997368	9.30896	10003	-1.243588E-11	-8.041245E+10	16.096259	0.628901	0	0
0	0	0	0.11577	9.308611	-2.001299	9.308611	9975.5	-3.387103E-11	-2.952376E+10	16.091727	0.62783	0	0
0	0	0	0.111687	9.308929	-2.005303	9.308929	9949	-1.31015E-11	-7.632716E+10	16.089717	0.626719	0	0
0	0	0	0.107178	9.308909	-2.009639	9.308909	9920	-1.360045E-11	-7.352698E+10	16.081145	0.625688	0	0
0	0	0	0.103487	9.309032	-2.013221	9.309032	9896.5	-1.088323E-11	-9.188453E+10	16.089388	0.62434	0	0
0	0	0	0.099844	9.308745	-2.016662	9.308745	9873	-2.017131E-11	-4.957535E+10	16.084022	0.62315	0	0
0	0	0	0.096038	9.309021	-2.020389	9.309021	9849	-1.10126E-11	-9.080512E+10	16.095842	0.621722	0	0
0	0	0	0.09251	9.308991	-2.023779	9.308991	9826.5	-1.15694E-11	-8.643491E+10	16.089202	0.62081	0	0
0	0	0	0.089717	9.308621	-2.026384	9.308621	9808.5	-3.169043E-11	-3.155527E+10	16.0842	0.61958	0	0
0	0	0	0.085796	9.308827	-2.030205	9.308827	9783.5	-1.605372E-11	-6.229085E+10	16.082211	0.61851	0	0
0	0	0	0.083199	9.30896	-2.032736	9.30896	9767	-1.214249E-11	-8.235546E+10	16.074971	0.617399	0	0
0	0	0	0.079458	9.308878	-2.036319	9.308878	9743.5	-1.423654E-11	-7.024177E+10	16.073333	0.616209	0	0
0	0	0	0.075963	9.308427	-2.039581	9.308427	9721.5	-3.95298E-10	-2.529737E+9	16.075545	0.61498	0	0
0	0	0	0.072925	9.308786	-2.042588	9.308786	9702.5	-1.765889E-11	-5.66287E+10	16.077978	0.61383	0	0
0	0	0	0.069805	9.308847	-2.045606	9.308847	9682.5	-1.514278E-11	-6.603809E+10	16.075952	0.612759	0	0
0	0	0	0.067077	9.308816	-2.048225	9.308816	9665.5	-1.62602E-11	-6.149986E+10	16.073725	0.611648	0	0
0	0	0	0.064496	9.308796	-2.050705	9.308796	9649.5	-1.709584E-11	-5.849377E+10	16.066972	0.610538	0	0
0	0	0	0.062029	9.308755	-2.05307	9.308755	9634	-1.909791E-11	-5.236175E+10	16.065445	0.609467	0	0
0	0	0	0.060004	9.308416	-2.054943	9.308416	9621	-1.002479E-9	-9.975268E+8	16.073263	0.608198	0	0
0	0	0	0.057243	9.308642	-2.057652	9.308642	9604	-2.828856E-11	-3.534997E+10	16.067196	0.607127	0	0
0	0	0	0.054091	9.308929	-2.060753	9.308929	9584.5	-1.26215E-11	-7.922989E+10	16.078103	0.605818	0	0
0	0	0	0.052392	9.30898	-2.0624	9.30898	9574	-1.14747E-11	-8.714822E+10	16.064383	0.604867	0	0
0	0	0	0.048488	9.308652	-2.066084	9.308652	9549.5	-2.693819E-11	-3.712202E+10	16.058655	0.603835	0	0
0	0	0	0.046136	9.308868	-2.068397	9.308868	9535	-1.424399E-11	-7.020504E+10	16.057221	0.602606	0	0
0	0	0	0.04282	9.308601	-2.071529	9.308601	9514.5	-3.403888E-11	-2.937817E+10	16.046387	0.601773	0	0
0	0	0	0.04068	9.308868	-2.073649	9.308868	9501.5	-1.419395E-11	-7.045257E+10	16.060286	0.600385	0	0
0	0	0	0.038083	9.30857	-2.076082	9.30857	9485.5	-4.044442E-11	-2.472529E+10	16.057626	0.599394	0	0
0	0	0	0.035486	9.308765	-2.078627	9.308765	9469.5	-1.82299E-11	-5.485493E+10	16.050867	0.598521	0	0
0	0	0	0.032839	9.30896	-2.081219	9.30896	9453	-1.175212E-11	-8.509106E+10	16.044432	0.597371	0	0
0	0	0	0.030504	9.30856	-2.083377	9.30856	9439	-4.299521E-11	-2.32584E+10	16.044877	0.596102	0	0
0	0	0	0.028527	9.308745	-2.085322	9.308745	9426.5	-1.925908E-11	-5.192356E+10	16.045164	0.59511	0	0
0	0	0	0.026142	9.309114	-2.087701	9.309114	9412.5	-9.144562E-12	-1.093546E+11	16.05041	0.593841	0	0
0	0	0	0.022826	9.308827	-2.090829	9.308827	9392	-1.541131E-11	-6.488741E+10	16.05577	0.59277	0	0
0	0	0	0.020343	9.30896	-2.093249	9.30896	9377	-1.165763E-11	-8.578072E+10	16.043396	0.591818	0	0
0	0	0	0.017501	9.30897	-2.095988	9.30897	9359.5	-1.142292E-11	-8.754329E+10	16.043124	0.590549	0	0
0	0	0	0.014904	9.308632	-2.098411	9.308632	9344	-2.879458E-11	-3.472876E+10	16.029767	0.589796	0	0
0	0	0	0.012617	9.309032	-2.100704	9.309032	9330	-1.026024E-11	-9.746358E+10	16.031308	0.588606	0	0
0	0	0	0.010722	9.308816	-2.102479	9.308816	9318.5	-1.567644E-11	-6.378998E+10	16.033396	0.587456	0	0
0	0	0	0.007749	9.308868	-2.105353	9.308868	9300.5	-1.389368E-11	-7.197517E+10	16.04047	0.586147	0	0
0	0	0	0.006279	9.308755	-2.106743	9.308755	9291.5	-1.841896E-11	-5.429189E+10	16.03519	0.585076	0	0
0	0	0	0.004058	9.308642	-2.108856	9.308642	9278.5	-2.732981E-11	-3.659009E+10	16.026782	0.584124	0	0
0	0	0	0.002245	9.308745	-2.110625	9.308745	9267.5	-1.893423E-11	-5.28144E+10	16.027444	0.582895	0	0
0	0	0	-0.000124	9.308683	-2.112891	9.308683	9253.5	-2.316365E-11	-4.317109E+10	16.02356	0.581943	0	0
0	0	0	-0.001823	9.308632	-2.114515	9.308632	9243	-2.848334E-11	-3.510824E+10	16.028547	0.580872	0	0
0	0	0	-0.003717	9.308796	-2.116376	9.308796	9231.5	-1.635527E-11	-6.114235E+10	16.033479	0.579722	0	0
0	0	0	-0.005188	9.308878	-2.11781	9.308878	9223	-1.347602E-11	-7.420587E+10	16.027042	0.578731	0	0
0	0	0	-0.007523	9.308683	-2.120015	9.308683	9209	-2.305226E-11	-4.33797E+10	16.013012	0.577779	0	0
0	0	0	-0.008651	9.308857	-2.121139	9.308857	9202	-1.406153E-11	-7.1116E+10	16.006374	0.576708	0	0
0	0	0	-0.01048	9.308847	-2.122898	9.308847	9191.5	-1.437489E-11	-6.956577E+10	16.011497	0.575598	0	0
0	0	0	-0.012146	9.308765	-2.124484	9.308765	9181.5	-1.767547E-11	-5.657559E+10	16.013436	0.574447	0	0
0	0	0	-0.014351	9.308468	-2.126539	9.308468	9168	-1.084004E-10	-9.225062E+9	16.021614	0.573218	0	0
0	0	0	-0.01538	9.308868	-2.127621	9.308868	9162	-1.368678E-11	-7.30632E+10	16.015171	0.572226	0	0
0	0	0	-0.0169	9.308683	-2.129041	9.308683	9153	-2.291208E-11	-4.364511E+10	16.012271	0.571116	0	0
0	0	0	-0.018076	9.30858	-2.13015	9.30858	9146	-3.66533E-11	-2.728267E+10	15.996291	0.570402	0	0
0	0	0	-0.018631	9.308652	-2.130701	9.308652	9143	-2.579149E-11	-3.877248E+10	16.008018	0.569014	0	0
0	0	0	-0.019954	9.308642	-2.131973	9.308642	9135	-2.690713E-11	-3.716488E+10	16.006075	0.567983	0	0
0	0	0	-0.021163	9.308734	-2.133157	9.308734	9128	-1.923864E-11	-5.197873E+10	16.006111	0.566912	0	0
0	0	0	-0.022731	9.308539	-2.134623	9.308539	9118.5	-4.810736E-11	-2.078684E+10	16.003541	0.565762	0	0
0	0	0	-0.022927	9.308868	-2.134886	9.308868	9117	-1.361956E-11	-7.342383E+10	15.996896	0.56477	0	0
0	0	0	-0.023793	9.308878	-2.135722	9.308878	9112	-1.331384E-11	-7.510982E+10	15.984968	0.564017	0	0
0	0	0	-0.025083	9.308632	-2.136908	9.308632	9104.5	-2.805653E-11	-3.564232E+10	15.994705	0.562668	0	0
0	0	0	-0.025524	9.308806	-2.137373	9.308806	9102	-1.570851E-11	-6.365978E+10	15.997842	0.561717	0	0
0	0	0	-0.025949	9.309083	-2.137844	9.309083	9099.5	-9.244515E-12	-1.081722E+11	16.003373	0.560447	0	0
0	0	0	-0.027141	9.308847	-2.138939	9.308847	9092.5	-1.422006E-11	-7.032321E+10	15.996188	0.559496	0	0
0	0	0	-0.028121	9.30896	-2.139908	9.30896	9087	-1.12971E-11	-8.85183E+10	15.991867	0.558544	0	0
0	0	0	-0.029232	9.308847	-2.140952	9.308847	9080	-1.420051E-11	-7.042002E+10	15.976932	0.55783	0	0
0	0	0	-0.030082	9.308775	-2.141753	9.308775	9075	-1.698025E-11	-5.889194E+10	15.972019	0.55664	0	0
0	0	0	-0.03031	9.308775	-2.141973	9.308775	9074	-1.697838E-11	-5.889843E+10	15.980721	0.555411	0	0
0	0	0	-0.031682	9.308601	-2.143255	9.308601	9065.5	-3.243255E-11	-3.083323E+10	15.976213	0.554578	0	0
0	0	0	-0.032287	9.308888	-2.143902	9.308888	9062.5	-1.29576E-11	-7.717477E+10	15.97726	0.553348	0	0
0	0	0	-0.033038	9.308529	-2.144544	9.308529	9057.5	-5.189082E-11	-1.927123E+10	15.97486	0.552436	0	0
0	0	0	-0.033953	9.308304	-2.145373	9.308304	9052.5	5.826986E-11	1.716153E+10	15.968558	0.551445	0	0
0	0	0	-0.03477	9.308734	-2.146257	9.308734	9047.5	-1.906897E-11	-5.244121E+10	15.962517	0.550413	0	0
0	0	0	-0.035913	9.308652	-2.147339	9.308652	9041	-2.550376E-11	-3.920991E+10	15.962035	0.549462	0	0
0	0	0	-0.036321	9.30855	-2.147709	9.30855	9038.5	-4.418931E-11	-2.262991E+10	15.963277	0.54847	0	0
0	0	0	-0.037285	9.308611	-2.148651	9.308611	9033	-3.067084E-11	-3.260426E+10	15.974235	0.547201	0	0
0	0	0	-0.038233	9.308683	-2.149579	9.308683	9027.5	-2.259792E-11	-4.425186E+10	15.961284	0.546249	0	0
0	0	0	-0.039098	9.308745	-2.150427	9.308745	9022	-1.843265E-11	-5.425155E+10	15.958447	0.545377	0	0
0	0	0	-0.040291	9.309021	-2.151638	9.309021	9015	-1.008006E-11	-9.920572E+10	15.946458	0.544504	0	0
0	0	0	-0.041075	9.308755	-2.152332	9.308755	9010.5	-1.786192E-11	-5.598503E+10	15.944347	0.543473	0	0
0	0	0	-0.041859	9.308673	-2.153068	9.308673	9006	-2.342336E-11	-4.269243E+10	15.94211	0.542323	0	0
0	0	0	-0.042414	9.308919	-2.153659	9.308919	9003	-1.209458E-11	-8.268169E+10	0	0	0	0
0	0	0	-0.042823	9.308755	-2.154015	9.308755	9000.5	-1.784209E-11	-5.604723E+10	0	0	0	0
0	0	0	-0.043656	9.308478	-2.154754	9.308478	8995.5	-9.034256E-11	-1.106898E+10	0	0	0	0
0	0	0	-0.044162	9.308827	-2.15532	9.308827	8992.5	-1.475577E-11	-6.777009E+10	0	0	0	0
0	0	0	-0.045403	9.308745	-2.156497	9.308745	8985.5	-1.835808E-11	-5.447192E+10	0	0	0	0
0	0	0	-0.04591	9.308457	-2.156919	9.308457	8982.5	-1.290965E-10	-7.746144E+9	0	0	0	0
0	0	0	-0.045975	9.30898	-2.157101	9.30898	8982	-1.076518E-11	-9.289212E+10	0	0	0	0
0	0	0	-0.046857	9.308324	-2.157801	9.308324	8977	7.160777E-11	1.396497E+10	0	0	0	0
0	0	0	-0.047315	9.30898	-2.15839	9.30898	8974.5	-1.075619E-11	-9.296975E+10	0	0	0	0
0	0	0	-0.047576	9.308796	-2.1586	9.308796	8972.5	-1.589641E-11	-6.290729E+10	0	0	0	0
0	0	0	-0.047462	9.309114	-2.158562	9.309114	8973.5	-8.718058E-12	-1.147044E+11	0	0	0	0
0	0	0	-0.047919	9.308919	-2.158958	9.308919	8970.5	-1.205092E-11	-8.298124E+10	0	0	0	0
0	0	0	-0.04854	9.309114	-2.1596	9.309114	8967	-8.711743E-12	-1.147876E+11	0	0	0	0
0	0	0	-0.048654	9.308775	-2.159633	9.308775	8966.5	-1.677724E-11	-5.960457E+10	0	0	0	0
0	0	0	-0.048883	9.309134	-2.159935	9.309134	8965	-8.463204E-12	-1.181586E+11	0	0	0	0
0	0	0	-0.049585	9.308591	-2.160488	9.308591	8961	-3.387607E-11	-2.951936E+10	0	0	0	0
0	0	0	-0.048997	9.308683	-2.159943	9.308683	8964.5	-2.244022E-11	-4.456285E+10	0	0	0	0
0	0	0	-0.049601	9.308355	-2.16045	9.308355	8961	1.114877E-10	8.969601E+9	0	0	0	0
0	0	0	-0.049422	9.308929	-2.160407	9.308929	8962	-1.180175E-11	-8.473319E+10	0	0	0	0
0	0	0	-0.049601	9.308663	-2.16052	9.308663	8961	-2.425219E-11	-4.123339E+10	0	0	0	0
0	0	0	-0.050239	9.308939	-2.161196	9.308939	8957	-1.156675E-11	-8.645467E+10	0	0	0	0
0	0	0	-0.049585	9.308601	-2.16049	9.308601	8961	-3.205869E-11	-3.119279E+10	0	0	0	0
0	0	0	-0.049585	9.308468	-2.16046	9.308468	8961	-1.059528E-10	-9.438162E+9	0	0	0	0
0	0	0	-0.050124	9.309021	-2.161105	9.309021	8958	-1.001633E-11	-9.983697E+10	0	0	0	0
0	0	0	-0.049552	9.308714	-2.160484	9.308714	8961.5	-2.016219E-11	-4.959779E+10	0	0	0	0
0	0	0	-0.050141	9.308786	-2.161067	9.308786	8957.5	-1.630296E-11	-6.133854E+10	0	0	0	0
0	0	0	-0.049961	9.308693	-2.160873	9.308693	8959	-2.161507E-11	-4.626401E+10	0	0	0	0
0	0	0	-0.050206	9.309062	-2.161193	9.309062	8957.5	-9.386244E-12	-1.065389E+11	0	0	0	0
0	0	0	-0.050631	9.308714	-2.161522	9.308714	8955	-2.014757E-11	-4.963379E+10	0	0	0	0
0	0	0	-0.050173	9.308478	-2.161029	9.308478	8957.5	-8.996093E-11	-1.111594E+10	0	0	0	0
0	0	0	-0.05068	9.308498	-2.161521	9.308498	8954.5	-6.911348E-11	-1.446896E+10	0	0	0	0
0	0	0	-0.050353	9.308724	-2.161257	9.308724	8956.5	-1.949327E-11	-5.129975E+10	0	0	0	0
0	0	0	-0.050892	9.308796	-2.161793	9.308796	8953.5	-1.586275E-11	-6.304078E+10	0	0	0	0
0	0	0	-0.050696	9.308734	-2.16159	9.308734	8954.5	-1.887296E-11	-5.298586E+10	0	0	0	0
0	0	0	-0.050843	9.308601	-2.161701	9.308601	8953.5	-3.203186E-11	-3.121892E+10	0	0	0	0
0	0	0	-0.051774	9.308591	-2.162595	9.308591	8948.5	-3.382882E-11	-2.956059E+10	0	0	0	0
0	0	0	-0.051643	9.308457	-2.162439	9.308457	8949	-1.28615E-10	-7.775141E+9	0	0	0	0
0	0	0	-0.051921	9.308714	-2.162765	9.308714	8947.5	-2.013069E-11	-4.967539E+10	0	0	0	0
0	0	0	-0.052215	9.308857	-2.16308	9.308857	8946	-1.367034E-11	-7.315107E+10	0	0	0	0
0	0	0	-0.052362	9.308642	-2.163173	9.308642	8945	-2.634748E-11	-3.795429E+10	0	0	0	0
0	0	0	-0.052346	9.308847	-2.163204	9.308847	8945	-1.398938E-11	-7.148282E+10	0	0	0	0
0	0	0	-0.053277	9.308745	-2.164077	9.308745	8939.5	-1.82641E-11	-5.475222E+10	0	0	0	0
0	0	0	-0.053048	9.308816	-2.163873	9.308816	8941	-1.504138E-11	-6.648327E+10	0	0	0	0
0	0	0	-0.05375	9.308816	-2.164549	9.308816	8937	-1.503465E-11	-6.651303E+10	0	0	0	0
0	0	0	-0.053685	9.308857	-2.164496	9.308857	8937	-1.365659E-11	-7.322473E+10	0	0	0	0
0	0	0	-0.054371	9.308775	-2.165138	9.308775	8933	-1.671456E-11	-5.98281E+10	0	0	0	0
0	0	0	-0.053848	9.308488	-2.164569	9.308488	8936.5	-7.800264E-11	-1.282008E+10	0	0	0	0
0	0	0	-0.054665	9.309021	-2.165476	9.309021	8931.5	-9.986699E-12	-1.001332E+11	0	0	0	0
0	0	0	-0.054894	9.308786	-2.165643	9.308786	8930.5	-1.625382E-11	-6.152399E+10	0	0	0	0
0	0	0	-0.054959	9.309052	-2.165766	9.309052	8930	-9.506812E-12	-1.051877E+11	0	0	0	0
0	0	0	-0.055335	9.308837	-2.166079	9.308837	8928	-1.429811E-11	-6.993931E+10	0	0	0	0
0	0	0	-0.055482	9.308991	-2.166256	9.308991	8926.5	-1.050977E-11	-9.514957E+10	0	0	0	0
0	0	0	-0.056184	9.308652	-2.166855	9.308652	8922.5	-2.516948E-11	-3.973066E+10	0	0	0	0
0	0	0	-0.055874	9.308724	-2.166573	9.308724	8924.5	-1.942363E-11	-5.148369E+10	0	0	0	0
0	0	0	-0.05607	9.308939	-2.16681	9.308939	8923.5	-1.152349E-11	-8.677924E+10	0	0	0	0
0	0	0	-0.056282	9.308663	-2.166952	9.308663	8922	-2.414664E-11	-4.141363E+10	0	0	0	0
0	0	0	-0.056854	9.308929	-2.167563	9.308929	8919	-1.174513E-11	-8.514171E+10	0	0	0	0
0	0	0	-0.056462	9.308847	-2.167167	9.308847	8921	-1.395184E-11	-7.167513E+10	0	0	0	0
0	0	0	-0.056413	9.308519	-2.167045	9.308519	8921.5	-5.59154E-11	-1.788416E+10	0	0	0	0
0	0	0	-0.057132	9.30896	-2.167837	9.30896	8917.5	-1.108637E-11	-9.020082E+10	0	0	0	0
0	0	0	-0.056609	9.309062	-2.167357	9.309062	8920	-9.346949E-12	-1.069868E+11	0	0	0	0
0	0	0	-0.056887	9.30857	-2.167513	9.30857	8919	-3.802897E-11	-2.629574E+10	0	0	0	0
0	0	0	-0.056821	9.309103	-2.167571	9.309103	8919	-8.793216E-12	-1.13724E+11	0	0	0	0
0	0	0	-0.056707	9.309062	-2.167451	9.309062	8919.5	-9.346425E-12	-1.069928E+11	0	0	0	0
0	0	0	-0.056217	9.308724	-2.166903	9.308724	8922.5	-1.941927E-11	-5.149523E+10	0	0	0	0
0	0	0	-0.056821	9.30858	-2.167452	9.30858	8919	-3.574358E-11	-2.797705E+10	0	0	0	0
0	0	0	-0.056413	9.308683	-2.167082	9.308683	8921.5	-2.233258E-11	-4.477764E+10	0	0	0	0
0	0	0	-0.056495	9.30895	-2.167221	9.30895	8921	-1.130142E-11	-8.848449E+10	0	0	0	0
0	0	0	-0.056495	9.308683	-2.167161	9.308683	8921	-2.233133E-11	-4.478015E+10	0	0	0	0
0	0	0	-0.056625	9.308796	-2.167312	9.308796	8920	-1.58034E-11	-6.327754E+10	0	0	0	0
0	0	0	-0.056478	9.308816	-2.167175	9.308816	8921	-1.500773E-11	-6.663232E+10	0	0	0	0
0	0	0	-0.056413	9.308714	-2.167089	9.308714	8921.5	-2.007219E-11	-4.982016E+10	0	0	0	0
0	0	0	-0.056054	9.308868	-2.166778	9.308868	8923.5	-1.333049E-11	-7.501598E+10	0	0	0	0
0	0	0	-0.056135	9.308509	-2.166775	9.308509	8923	-6.172613E-11	-1.620059E+10	0	0	0	0
0	0	0	-0.055368	9.308796	-2.166101	9.308796	8927.5	-1.581668E-11	-6.322438E+10	0	0	0	0
0	0	0	-0.055939	0	-0.055939	0	8924	0	0	0	0	0	0
0	0	0	-0.055841	0	-0.055841	0	8924.5	0	0	0	0	0	0
