Vload_(V)	ILoad_(A)	RsLoad (ohm)	SunsVoc_Voltage_(V)	SunsVoc_Current_(A)	Model_Voltage_(V)	Model_Current_(A)	Carrier_Density_(cm-3)	Lifetime_(s)	Inverse_Lifetime_(s-1)	Efficiency_(%)	Intensity_(suns)	Dark_IV_Voltage_(V)	Dark_IV_Current_(A)
3.273916	5.998713	0	51.737353	-0.440489	51.967059	-0.440489	7.045057E+15	0.000487	1972.267257	18.962553	1.149106	0	0
3.247768	6.000288	-0.548094	52.296896	-0.697339	52.639779	-0.697339	8.614101E+15	0.000572	1624.257428	18.884185	1.147572	0	0
3.390982	5.998893	1.580926	52.433781	-0.541933	52.696302	-0.541933	9.039412E+15	0.000615	1490.928473	18.845195	1.144796	0	0
6.241799	5.995119	4.030574	52.405848	-0.203628	52.504792	-0.203628	8.951225E+15	0.000642	1424.626383	18.793074	1.143302	0	0
11.090291	5.970927	4.63319	52.317764	0.164273	52.237173	0.164273	8.677833E+15	0.000662	1386.395487	18.700898	1.143104	0	0
15.275812	5.963015	4.082376	52.20873	0.527972	51.946648	0.527972	8.349137E+15	0.000679	1357.263529	18.693096	1.142192	0	0
19.587798	5.958852	3.424089	52.088262	0.871926	51.649854	0.871926	7.998137E+15	0.000694	1334.75747	18.748436	1.140394	0	0
23.968796	5.948441	2.822576	51.970857	1.189401	51.36539	1.189401	7.667998E+15	0.000709	1312.309899	18.699994	1.13812	0	0
28.270547	5.94611	2.124996	51.843365	1.496568	51.07138	1.496568	7.322436E+15	0.000724	1293.145894	18.69173	1.134127	0	0
32.585936	5.939297	1.466291	51.711586	1.782516	50.779597	1.782516	6.978973E+15	0.000736	1277.215192	18.719085	1.129527	0	0
36.875405	5.906409	0.980407	51.585482	2.043321	50.503419	2.043321	6.662946E+15	0.000749	1260.793845	18.664952	1.125191	0	0
37.934321	5.879063	0.933937	51.461584	2.283906	50.237058	2.283906	6.36411E+15	0.000762	1244.938209	18.594285	1.121357	0	0
38.973133	5.837976	0.902289	51.339687	2.510357	49.977463	2.510357	6.081035E+15	0.000775	1228.155894	18.628906	1.11747	0	0
40.026731	5.782937	0.864831	51.209826	2.730455	49.709299	2.730455	5.791032E+15	0.000788	1213.010505	18.617168	1.114258	0	0
41.085618	5.703681	0.831886	51.084826	2.930446	49.454899	2.930446	5.522801E+15	0.000801	1198.262	18.60605	1.109737	0	0
42.136978	5.596918	0.79545	50.959416	3.115177	49.205952	3.115177	5.264119E+15	0.000812	1185.378395	18.649815	1.104197	0	0
43.187137	5.455384	0.755617	50.835886	3.285754	48.964807	3.285754	5.019207E+15	0.000823	1173.247044	18.644673	1.098671	0	0
44.207628	5.266155	0.720319	50.716357	3.448766	48.730513	3.448766	4.791293E+15	0.000836	1158.275428	18.574042	1.093383	0	0
45.226325	5.008835	0.690109	50.588988	3.602788	48.490036	3.602788	4.55794E+15	0.000846	1147.184554	18.590325	1.08795	0	0
46.204473	4.685251	0.661329	50.467213	3.73925	48.264527	3.73925	4.343733E+15	0.000855	1138.000946	18.615337	1.08253	0	0
47.173305	4.266585	0.637848	50.34454	3.867139	48.041273	3.867139	4.136465E+15	0.000863	1130.008529	18.57835	1.077678	0	0
48.130824	3.731148	0.622272	50.222765	3.986279	47.822705	3.986279	3.938915E+15	0.000871	1122.760606	18.601362	1.072033	0	0
49.030829	3.118639	0.611295	50.102256	4.101005	47.606822	4.101005	3.751215E+15	0.000879	1113.873433	18.639031	1.066031	0	0
49.873211	2.443859	0.612643	49.97648	4.208824	47.387267	4.208824	3.563326E+15	0.000886	1108.100691	18.58702	1.060109	0	0
50.675461	1.711643	0.640946	49.856461	4.308001	47.17872	4.308001	3.391434E+15	0.000892	1101.577555	18.584596	1.053499	0	0
51.359149	1.031823	0.644623	49.733625	4.402655	46.96827	4.402655	3.222751E+15	0.000898	1096.063122	18.620973	1.047153	0	0
42.221165	5.585332	0.794878	49.617199	4.487666	46.770644	4.487666	3.069428E+15	0.000904	1091.015897	18.582304	1.041667	0	0
52.231481	0	0	49.493628	4.57152	46.56382	4.57152	2.913453E+15	0.000908	1087.11047	18.573093	1.035612	0	0
0	0	0	49.37316	4.64849	46.364223	4.64849	2.767885E+15	0.000912	1083.885348	18.625567	1.029465	0	0
0	0	0	49.256245	4.720887	46.171073	4.720887	2.63254E+15	0.000916	1079.656288	18.605055	1.023463	0	0
0	0	0	49.129774	4.792352	45.965644	4.792352	2.492498E+15	0.000919	1077.700668	18.581776	1.017157	0	0
0	0	0	49.013512	4.855599	45.777581	4.855599	2.369405E+15	0.000922	1075.211669	18.633151	1.01056	0	0
0	0	0	48.891533	4.917812	45.582219	4.917812	2.245877E+15	0.000924	1073.538673	18.609465	1.004757	0	0
0	0	0	48.770044	4.974502	45.39042	4.974502	2.128374E+15	0.000924	1074.245737	18.579451	0.998794	0	0
0	0	0	48.655375	5.026257	45.209918	5.026257	2.022357E+15	0.000925	1074.15612	18.625036	0.992898	0	0
0	0	0	48.533478	5.077313	45.020085	5.077313	1.914688E+15	0.000924	1075.701492	18.622693	0.9872	0	0
0	0	0	48.420197	5.124069	44.843561	5.124069	1.819119E+15	0.000925	1075.348734	18.5919	0.981476	0	0
0	0	0	48.30026	5.169112	44.659191	5.169112	1.722483E+15	0.000924	1077.770282	18.659003	0.975157	0	0
0	0	0	48.18261	5.210613	44.479684	5.210613	1.632076E+15	0.000921	1081.085238	18.662056	0.969327	0	0
0	0	0	48.06741	5.249583	44.304607	5.249583	1.547612E+15	0.000919	1084.16928	18.61334	0.963616	0	0
0	0	0	47.946207	5.287734	44.121952	5.287734	1.462923E+15	0.000915	1088.961648	18.638114	0.95772	0	0
0	0	0	47.830885	5.322751	43.948638	5.322751	1.386173E+15	0.000912	1093.027366	18.651737	0.952458	0	0
0	0	0	47.710457	5.357242	43.768721	5.357242	1.30986E+15	0.000908	1098.04092	18.614006	0.94717	0	0
0	0	0	47.590806	5.38937	43.591114	5.38937	1.23777E+15	0.000904	1104.115101	18.66607	0.941155	0	0
0	0	0	47.473605	5.419114	43.418039	5.419114	1.17062E+15	0.000898	1110.745636	18.678034	0.935841	0	0
0	0	0	47.355261	5.447589	43.244077	5.447589	1.106153E+15	0.000893	1117.989386	18.633307	0.93046	0	0
0	0	0	47.239775	5.47384	43.075139	5.47384	1.046349E+15	0.000887	1125.819773	18.653871	0.924683	0	0
0	0	0	47.122329	5.499676	42.903662	5.499676	9.885476E+14	0.000881	1133.196788	18.684393	0.91925	0	0
0	0	0	47.002555	5.524025	42.730001	5.524025	9.326046E+14	0.000874	1142.757091	18.639783	0.914081	0	0
0	0	0	46.887028	5.5463	42.563147	5.5463	8.81398E+14	0.000867	1152.573438	18.660592	0.908264	0	0
0	0	0	46.767745	5.568343	42.391331	5.568343	8.312401E+14	0.000859	1162.729061	18.681411	0.902804	0	0
0	0	0	46.651891	5.588623	42.225083	5.588623	7.850499E+14	0.000852	1173.261255	18.633364	0.897556	0	0
0	0	0	46.533139	5.608553	42.0551	5.608553	7.401717E+14	0.000844	1184.044769	18.639092	0.892017	0	0
0	0	0	46.411976	5.626974	41.882948	5.626974	6.968415E+14	0.000834	1198.405748	18.68434	0.886543	0	0
0	0	0	46.297675	5.644173	41.720471	5.644173	6.581368E+14	0.000826	1210.271364	18.632438	0.881758	0	0
0	0	0	46.177697	5.660984	41.550715	5.660984	6.196729E+14	0.000816	1224.53433	18.645642	0.876417	0	0
0	0	0	46.06021	5.676714	41.384879	5.676714	5.84054E+14	0.000807	1238.779041	18.692595	0.871182	0	0
0	0	0	45.93962	5.691654	41.215459	5.691654	5.494989E+14	0.000796	1255.663212	18.644016	0.866476	0	0
0	0	0	45.82103	5.705896	41.049038	5.705896	5.174012E+14	0.000786	1271.768565	18.640576	0.861188	0	0
0	0	0	45.701706	5.719573	40.881956	5.719573	4.868971E+14	0.000776	1288.378072	18.688148	0.856164	0	0
0	0	0	45.581564	5.732191	40.714533	5.732191	4.5791E+14	0.000764	1308.06503	18.631571	0.851511	0	0
0	0	0	45.462281	5.744347	40.548464	5.744347	4.307562E+14	0.000753	1327.14548	18.635932	0.846143	0	0
0	0	0	45.343283	5.755943	40.383096	5.755943	4.051994E+14	0.000742	1346.57186	18.6814	0.841172	0	0
0	0	0	45.224612	5.766766	40.218679	5.766766	3.811583E+14	0.000731	1367.72394	18.634914	0.836519	0	0
0	0	0	45.101326	5.777305	40.048341	5.777305	3.576305E+14	0.000719	1391.501932	18.612243	0.831667	0	0
0	0	0	44.982737	5.787154	39.884614	5.787154	3.363176E+14	0.000707	1413.885687	18.676027	0.826498	0	0
0	0	0	44.865046	5.796495	39.72239	5.796495	3.163764E+14	0.000696	1436.669178	18.622135	0.822096	0	0
0	0	0	44.742944	5.805435	39.554634	5.805435	2.968935E+14	0.000683	1463.282941	18.605646	0.817125	0	0
0	0	0	44.626397	5.813852	39.394505	5.813852	2.793805E+14	0.000672	1487.313529	18.637461	0.8123	0	0
0	0	0	44.504254	5.822001	39.227187	5.822001	2.621002E+14	0.00066	1515.505373	18.589484	0.807898	0	0
0	0	0	44.384889	5.8301	39.063446	5.8301	2.462158E+14	0.00065	1539.349393	18.572856	0.803231	0	0
0	0	0	44.264993	5.837097	38.899919	5.837097	2.31203E+14	0.000636	1571.288354	18.63499	0.798313	0	0
0	0	0	44.141993	5.844183	38.732153	5.844183	2.167277E+14	0.000624	1602.753602	18.587886	0.794109	0	0
0	0	0	44.027038	5.850377	38.575675	5.850377	2.039995E+14	0.000612	1634.520528	18.572137	0.789469	0	0
0	0	0	43.904569	5.857086	38.408782	5.857086	1.912416E+14	0.000601	1664.71555	18.613415	0.784578	0	0
0	0	0	43.78161	5.863302	38.241623	5.863302	1.792178E+14	0.000589	1698.433084	18.544923	0.78044	0	0
0	0	0	43.661796	5.869182	38.07883	5.869182	1.682141E+14	0.000578	1730.965914	18.531711	0.775734	0	0
0	0	0	43.534794	5.874638	37.906934	5.874638	1.572728E+14	0.000564	1773.419643	18.58258	0.771226	0	0
0	0	0	43.414734	5.879838	37.744326	5.879838	1.475729E+14	0.000552	1810.785855	18.533707	0.767101	0	0
0	0	0	43.291163	5.884966	37.577109	5.884966	1.38203E+14	0.00054	1850.143632	18.518613	0.762672	0	0
0	0	0	43.167224	5.889718	37.409709	5.889718	1.293932E+14	0.000528	1893.564733	18.560596	0.758125	0	0
0	0	0	43.040753	5.894529	37.238863	5.894529	1.209733E+14	0.000517	1935.956524	18.499639	0.754198	0	0
0	0	0	42.914363	5.898736	37.068657	5.898736	1.130985E+14	0.000503	1987.137236	18.495805	0.74973	0	0
0	0	0	42.789363	5.902803	36.90036	5.902803	1.058079E+14	0.000491	2037.660766	18.53204	0.745552	0	0
0	0	0	42.661136	5.906693	36.727947	5.906693	9.881114E+13	0.000478	2093.462197	18.486384	0.741586	0	0
0	0	0	42.537605	5.910552	36.561684	5.910552	9.250344E+13	0.000467	2142.425204	18.473354	0.737263	0	0
0	0	0	42.403947	5.914313	36.382155	5.914313	8.612642E+13	0.000454	2202.888551	18.510131	0.73294	0	0
0	0	0	42.268002	5.917844	36.199802	5.917844	8.008652E+13	0.000441	2269.907043	18.42687	0.729265	0	0
0	0	0	42.136345	5.921125	36.023295	5.921125	7.463734E+13	0.000428	2336.814577	18.437187	0.724942	0	0
0	0	0	42.008526	5.924333	35.851866	5.924333	6.969885E+13	0.000417	2398.929249	18.471758	0.720818	0	0
0	0	0	41.878707	5.927473	35.677834	5.927473	6.501465E+13	0.000406	2463.218463	18.414906	0.717024	0	0
0	0	0	41.741251	5.930374	35.493962	5.930374	6.039493E+13	0.000393	2543.644074	18.413475	0.712859	0	0
0	0	0	41.611513	5.933269	35.32021	5.933269	5.633398E+13	0.000383	2611.494061	18.444042	0.708867	0	0
0	0	0	41.478549	5.935911	35.142442	5.935911	5.245332E+13	0.000372	2691.445668	18.364994	0.705258	0	0
0	0	0	41.349015	5.938468	34.969244	5.938468	4.892839E+13	0.000361	2767.880511	18.375231	0.700935	0	0
0	0	0	41.21499	5.940994	34.79013	5.940994	4.552891E+13	0.000351	2849.81131	18.388103	0.697207	0	0
0	0	0	41.08566	5.943274	34.617431	5.943274	4.247143E+13	0.000341	2934.293242	18.327592	0.693585	0	0
0	0	0	40.949756	5.945528	34.436073	5.945528	3.947839E+13	0.00033	3028.423232	18.340884	0.6895	0	0
0	0	0	40.815485	5.947599	34.257036	5.947599	3.672755E+13	0.00032	3128.501758	18.35932	0.685481	0	0
0	0	0	40.679622	5.949938	34.075573	5.949938	3.413826E+13	0.000311	3211.75264	18.28303	0.681925	0	0
0	0	0	40.539757	5.951814	33.889325	5.951814	3.166248E+13	0.0003	3329.683203	18.311567	0.677787	0	0
0	0	0	40.404465	5.953652	33.709115	5.953652	2.943799E+13	0.000291	3440.962565	18.302491	0.674283	0	0
0	0	0	40.268193	5.955672	33.527382	5.955672	2.735478E+13	0.000283	3537.021192	18.242981	0.670621	0	0
0	0	0	40.131187	5.957414	33.344968	5.957414	2.540845E+13	0.000274	3653.863831	18.265631	0.666642	0	0
0	0	0	39.992097	5.958853	33.160132	5.958853	2.35737E+13	0.000263	3800.959215	18.263826	0.662888	0	0
0	0	0	39.85407	5.960408	32.97654	5.960408	2.188359E+13	0.000254	3934.785071	18.177564	0.659398	0	0
0	0	0	39.712612	5.961988	32.788378	5.961988	2.027679E+13	0.000246	4071.484438	18.218284	0.655286	0	0
0	0	0	39.575686	5.963452	32.606298	5.963452	1.883367E+13	0.000238	4208.709351	18.193672	0.651994	0	0
0	0	0	39.432309	5.964956	32.41565	5.964956	1.743225E+13	0.00023	4353.035662	18.141558	0.648306	0	0
0	0	0	39.291954	5.966437	32.228987	5.966437	1.616122E+13	0.000223	4489.388573	18.183266	0.644221	0	0
0	0	0	39.148087	5.967637	32.038011	5.967637	1.495432E+13	0.000214	4671.348922	18.144177	0.641022	0	0
0	0	0	39.008875	5.968835	31.853152	5.968835	1.387219E+13	0.000207	4841.717879	18.077205	0.637426	0	0
0	0	0	38.861169	5.970246	31.656826	5.970246	1.280938E+13	0.0002	4995.766106	18.136429	0.633394	0	0
0	0	0	38.719262	5.971215	31.468655	5.971215	1.186495E+13	0.000192	5209.735926	18.07585	0.630287	0	0
0	0	0	38.570616	5.972351	31.271388	5.972351	1.095016E+13	0.000185	5411.878231	18.059797	0.626546	0	0
0	0	0	38.4263	5.973515	31.079772	5.973515	1.012944E+13	0.000179	5592.072987	18.099629	0.622977	0	0
0	0	0	38.275817	5.974532	30.880193	5.974532	9.339021E+12	0.000172	5820.572232	18.033339	0.619711	0	0
0	0	0	38.125538	5.975457	30.68098	5.975457	8.611159E+12	0.000165	6070.844895	17.993913	0.616301	0	0
0	0	0	37.975995	5.97634	30.482775	5.97634	7.943118E+12	0.000158	6331.545901	18.034114	0.612612	0	0
0	0	0	37.830167	5.977361	30.289281	5.977361	7.341573E+12	0.000153	6537.711773	17.937373	0.609585	0	0
0	0	0	37.677439	5.978164	30.086951	5.978164	6.760297E+12	0.000146	6832.982102	17.934733	0.606015	0	0
0	0	0	37.529651	5.978954	29.891137	5.978954	6.241644E+12	0.000141	7116.292819	17.956179	0.602684	0	0
0	0	0	37.378351	5.979617	29.690844	5.979617	5.751831E+12	0.000134	7463.011322	17.890775	0.599471	0	0
0	0	0	37.227869	5.980652	29.491136	5.980652	5.302768E+12	0.000131	7656.311054	17.90093	0.595876	0	0
0	0	0	37.07371	5.981134	29.287286	5.981134	4.879045E+12	0.000123	8099.003418	17.901993	0.592571	0	0
0	0	0	36.924371	5.981987	29.089296	5.981987	4.500863E+12	0.00012	8353.679419	17.80958	0.589543	0	0
0	0	0	36.771642	5.982502	28.887269	5.982502	4.144382E+12	0.000114	8793.134355	17.831621	0.585921	0	0
0	0	0	36.617811	5.983193	28.683545	5.983193	3.813848E+12	0.000109	9147.684001	17.821222	0.582775	0	0
0	0	0	36.460549	5.983943	28.47521	5.983943	3.503165E+12	0.000106	9477.808949	17.739189	0.579681	0	0
0	0	0	36.304267	5.984305	28.268675	5.984305	3.219485E+12	9.940306E-5	10060.052683	17.770458	0.576138	0	0
0	0	0	36.144106	5.985051	28.0565	5.985051	2.952571E+12	9.614015E-5	10401.481295	17.725278	0.573217	0	0
0	0	0	35.983741	5.985491	27.844459	5.985491	2.70748E+12	9.109196E-5	10977.917415	17.678614	0.569859	0	0
0	0	0	35.821293	5.98632	27.629132	5.98632	2.479934E+12	8.901752E-5	11233.743948	17.713746	0.566474	0	0
0	0	0	35.65419	5.986374	27.408719	5.986374	2.265799E+12	8.169118E-5	12241.224019	17.65123	0.563685	0	0
0	0	0	35.489251	5.987014	27.190347	5.987014	2.072571E+12	7.881324E-5	12688.223041	17.612458	0.560393	0	0
0	0	0	35.3208	5.987701	26.967269	5.987701	1.892223E+12	7.643994E-5	13082.166777	17.655843	0.557128	0	0
0	0	0	35.151655	5.987962	26.743859	5.987962	1.726917E+12	7.145914E-5	13994.011425	17.583058	0.554286	0	0
0	0	0	34.978957	5.988513	26.51535	5.988513	1.573026E+12	6.86084E-5	14575.474985	17.572296	0.550862	0	0
0	0	0	34.805687	5.98899	26.286183	5.98899	1.432403E+12	6.553805E-5	15258.311579	17.557692	0.547821	0	0
0	0	0	34.63254	5.989326	26.05737	5.989326	1.304435E+12	6.182238E-5	16175.372745	17.47588	0.54519	0	0
0	0	0	34.454901	5.989703	25.822569	5.989703	1.185018E+12	5.850692E-5	17091.994391	17.501089	0.541647	0	0
0	0	0	34.274607	5.990091	25.584244	5.990091	1.074988E+12	5.546365E-5	18029.826586	17.494688	0.538765	0	0
0	0	0	34.092109	5.990538	25.342917	5.990538	9.740111E+11	5.300124E-5	18867.483291	17.414819	0.535963	0	0
0	0	0	33.906302	5.990918	25.097316	5.990918	8.80942E+11	5.027566E-5	19890.34234	17.461159	0.532644	0	0
0	0	0	33.719597	5.99131	24.850507	5.99131	7.963781E+11	4.785463E-5	20896.620312	17.386657	0.530172	0	0
0	0	0	33.526889	5.991615	24.595901	5.991615	7.175987E+11	4.49774E-5	22233.386345	17.342876	0.526986	0	0
0	0	0	33.333814	5.991835	24.340933	5.991835	6.464832E+11	4.181416E-5	23915.343685	17.36728	0.523946	0	0
0	0	0	33.13788	5.992193	24.081981	5.992193	5.815156E+11	3.967567E-5	25204.364683	17.28262	0.521474	0	0
0	0	0	32.930103	5.992399	23.807634	5.992399	5.197387E+11	3.661929E-5	27308.01461	17.252527	0.518407	0	0
0	0	0	32.722327	5.99267	23.533182	5.99267	4.645243E+11	3.419869E-5	29240.888769	17.293546	0.515379	0	0
0	0	0	32.519206	5.993126	23.26458	5.993126	4.162213E+11	3.313988E-5	30175.127178	17.210228	0.512814	0	0
0	0	0	32.302772	5.993085	22.979181	5.993085	3.702666E+11	2.926994E-5	34164.747461	17.217223	0.5098	0	0
0	0	0	32.091116	5.993513	22.69935	5.993513	3.302374E+11	2.825338E-5	35393.996736	17.192916	0.507275	0	0
0	0	0	31.875458	5.99359	22.414785	5.99359	2.93899E+11	2.552373E-5	39179.223624	17.106189	0.504605	0	0
0	0	0	31.655798	5.993985	22.124436	5.993985	2.609939E+11	2.455611E-5	40723.058301	17.134295	0.501379	0	0
0	0	0	31.430706	5.994061	21.827421	5.994061	2.310932E+11	2.210177E-5	45245.254231	17.089775	0.499039	0	0
0	0	0	31.201246	5.994475	21.524099	5.994475	2.041353E+11	2.142818E-5	46667.527371	17.019871	0.49629	0	0
0	0	0	30.969335	5.994564	21.218062	5.994564	1.800834E+11	1.930991E-5	51786.893072	17.068434	0.493408	0	0
0	0	0	30.73481	5.994944	20.908099	5.994944	1.58641E+11	1.872458E-5	53405.740043	16.992776	0.49112	0	0
0	0	0	30.495549	5.995125	20.592206	5.995125	1.393942E+11	1.72839E-5	57857.309118	16.987053	0.488225	0	0
0	0	0	30.251101	5.995174	20.269688	5.995174	1.221397E+11	1.535328E-5	65132.661462	16.978708	0.485489	0	0
0	0	0	30.002528	5.99548	19.941296	5.99548	1.067825E+11	1.469465E-5	68051.955	16.878	0.483307	0	0
0	0	0	29.75269	5.995687	19.611394	5.995687	9.329238E+10	1.371586E-5	72908.317849	16.87332	0.480426	0	0
0	0	0	29.495828	5.995814	19.272358	5.995814	8.11976E+10	1.246258E-5	80240.195276	16.867842	0.477901	0	0
0	0	0	29.234596	5.996094	18.927293	5.996094	7.050409E+10	1.197514E-5	83506.327993	16.782793	0.475362	0	0
0	0	0	28.969689	5.996108	18.57783	5.996108	6.109737E+10	1.043623E-5	95820.001522	16.826672	0.472454	0	0
0	0	0	28.695308	5.996176	18.215778	5.996176	5.267522E+10	9.237157E-6	108258.422232	16.740561	0.470233	0	0
0	0	0	28.421254	5.996389	17.853899	5.996389	4.542207E+10	8.694337E-6	115017.394663	16.687603	0.467642	0	0
0	0	0	28.14136	5.996628	17.484263	5.996628	3.904419E+10	8.330268E-6	120044.160642	16.720222	0.464879	0	0
0	0	0	27.858117	5.996602	17.110678	5.996602	3.350115E+10	7.061369E-6	141615.600328	16.623983	0.462605	0	0
0	0	0	27.572016	5.996821	16.73288	5.996821	2.870066E+10	6.749696E-6	148154.817588	16.611938	0.459895	0	0
0	0	0	27.283383	5.99706	16.3517	5.99706	2.455441E+10	6.608355E-6	151323.58851	16.614822	0.457542	0	0
0	0	0	26.98597	5.996955	15.959563	5.996955	2.090769E+10	5.290659E-6	189012.381797	16.520899	0.455162	0	0
0	0	0	26.684882	5.997173	15.56198	5.997173	1.776722E+10	5.134696E-6	194753.477977	16.55336	0.452346	0	0
0	0	0	26.380078	5.997299	15.159662	5.997299	1.506817E+10	4.743223E-6	210827.104729	16.491311	0.450178	0	0
0	0	0	26.069189	5.99732	14.749512	5.99732	1.273718E+10	4.06787E-6	245828.921568	16.427235	0.447653	0	0
0	0	0	25.758137	5.99732	14.339184	5.99732	1.076583E+10	3.439243E-6	290761.640578	16.446746	0.445036	0	0
0	0	0	25.439448	5.99775	13.917958	5.99775	9.062097E+9	4.187899E-6	238783.24357	16.331823	0.443053	0	0
0	0	0	25.121903	5.997592	13.499365	5.997592	7.632705E+9	3.029129E-6	330127.866979	16.328906	0.440105	0	0
0	0	0	24.79962	5.997519	13.07436	5.997519	6.412334E+9	2.390318E-6	418354.44689	16.31268	0.438016	0	0
0	0	0	24.470927	5.997876	12.640053	5.997876	5.368446E+9	2.855665E-6	350181.170087	16.217883	0.435808	0	0
0	0	0	24.14113	5.99791	12.204924	5.99791	4.491818E+9	2.488215E-6	401894.541962	16.260946	0.433111	0	0
0	0	0	23.807005	5.998062	11.763844	5.998062	3.749553E+9	2.562605E-6	390227.921829	16.187699	0.431115	0	0
0	0	0	23.462916	5.997817	11.310418	5.997817	3.113132E+9	1.546883E-6	646461.203468	16.126116	0.428616	0	0
0	0	0	23.114417	5.998154	10.849994	5.998154	2.578578E+9	2.055313E-6	486543.983568	16.130977	0.426263	0	0
0	0	0	22.766162	5.998188	10.390507	5.998188	2.136094E+9	1.810115E-6	552451.094073	16.014796	0.424373	0	0
0	0	0	22.422482	5.998042	9.937424	5.998042	1.773921E+9	1.177329E-6	849380.506646	16.018626	0.421716	0	0
0	0	0	22.075166	5.998201	9.478914	5.998201	1.470262E+9	1.278452E-6	782196.230638	15.997782	0.419653	0	0
0	0	0	21.722624	5.998313	9.013601	5.998313	1.215146E+9	1.354151E-6	738469.950162	15.932687	0.417446	0	0
0	0	0	21.368653	5.998287	8.546694	5.998287	1.003521E+9	1.048982E-6	953304.948204	15.960467	0.414894	0	0
0	0	0	21.016927	5.998142	8.083008	5.998142	8.29758E+8	6.465307E-7	1546716.974223	15.875699	0.412977	0	0
0	0	0	20.663241	5.998373	7.615922	5.998373	6.853564E+8	8.978061E-7	1113826.266668	15.823951	0.410677	0	0
0	0	0	20.308453	5.998195	7.148271	5.998195	5.657475E+8	4.858641E-7	2058188.817843	15.835201	0.408244	0	0
0	0	0	19.952358	5.998386	6.678085	5.998386	4.66683E+8	6.362061E-7	1571817.641753	15.703488	0.406354	0	0
0	0	0	19.594793	5.998433	6.206276	5.998433	3.846593E+8	6.110504E-7	1636526.096111	15.726618	0.403816	0	0
0	0	0	19.234288	5.998294	5.731004	5.998294	3.165485E+8	3.362377E-7	2974086.680837	15.662304	0.401753	0	0
0	0	0	18.873905	5.998723	5.254608	5.998723	2.605151E+8	-1.075497E-5	-92980.310018	15.604813	0.39948	0	0
0	0	0	18.514257	5.998571	4.780496	5.998571	2.144856E+8	6.756749E-7	1480001.804723	15.617712	0.397153	0	0
0	0	0	18.154895	5.998737	4.306036	5.998737	1.766162E+8	-3.271932E-6	-305629.801112	15.5265	0.395328	0	0
0	0	0	17.795002	5.998512	3.831776	5.998512	1.453913E+8	3.222999E-7	3102699.923392	15.515648	0.39283	0	0
0	0	0	17.432046	5.998684	3.352554	5.998684	1.194888E+8	1.842905E-6	542621.459477	15.485083	0.39082	0	0
0	0	0	17.066967	5.998578	2.871181	5.998578	9.808831E+7	3.242372E-7	3084161.446976	15.375995	0.388798	0	0
0	0	0	16.701561	5.998492	2.389333	5.998492	8.050646E+7	1.624301E-7	6156494.899454	15.419823	0.386273	0	0
0	0	0	16.338647	5.99875	1.909949	5.99875	6.616511E+7	-7.900182E-7	-1265793.608811	15.281377	0.384805	0	0
0	0	0	15.975895	5.998723	1.431459	5.998723	5.438331E+7	-2.23487E-6	-447453.255617	15.294099	0.382135	0	0
0	0	0	15.614042	5.99871	0.954123	5.99871	4.472118E+7	8.323787E-6	120137.626195	15.26877	0.380337	0	0
0	0	0	15.250188	5.998697	0.474147	5.998697	3.673593E+7	1.047196E-6	954930.888755	15.189687	0.378354	0	0
0	0	0	14.886661	5.998763	-0.005593	5.998763	3.018183E+7	-2.659601E-7	-3759962.516751	15.205029	0.376067	0	0
0	0	0	14.519254	5.998869	-0.490554	5.998869	2.47451E+7	-7.046265E-8	-1.419192E+7	15.122	0.374494	0	0
0	0	0	14.150704	5.998823	-0.976644	5.998823	2.027517E+7	-8.202214E-8	-1.219183E+7	15.082349	0.37222	0	0
0	0	0	13.779622	5.998829	-1.466206	5.998829	1.658996E+7	-6.330852E-8	-1.579566E+7	15.079146	0.370263	0	0
0	0	0	13.40854	5.999008	-1.956209	5.999008	1.357457E+7	-2.046949E-8	-4.885318E+7	14.94798	0.368584	0	0
0	0	0	13.044155	5.999008	-2.436923	5.999008	1.114755E+7	-1.680968E-8	-5.948954E+7	14.996169	0.366139	0	0
0	0	0	12.677973	5.998935	-2.919818	5.998935	9145567.5	-1.830035E-8	-5.464378E+7	14.871491	0.364737	0	0
0	0	0	12.309464	5.998862	-3.405781	5.998862	7493686.5	-2.228049E-8	-4.488233E+7	14.851751	0.362503	0	0
0	0	0	11.943405	5.998889	-3.888771	5.998889	6148307.5	-1.55355E-8	-6.436869E+7	14.849611	0.360811	0	0
0	0	0	11.577713	5.998737	-4.370803	5.998737	5045473.5	-9.330892E-8	-1.071709E+7	14.751134	0.358894	0	0
0	0	0	11.211572	5.998829	-4.854076	5.998829	4139452	-1.579604E-8	-6.330699E+7	14.761299	0.356819	0	0
0	0	0	10.844615	5.99877	-5.33802	5.99877	3394626.5	-2.644752E-8	-3.781073E+7	14.673079	0.355364	0	0
0	0	0	10.476473	5.998908	-5.824063	5.998908	2782039	-6.318104E-9	-1.582753E+8	14.650496	0.353011	0	0
0	0	0	10.106575	5.998908	-6.312048	5.998908	2277834	-5.173034E-9	-1.933101E+8	14.615584	0.351504	0	0
0	0	0	9.732961	5.999074	-6.805391	5.999074	1861266	-2.292971E-9	-4.361154E+8	14.481586	0.349812	0	0
0	0	0	9.358653	5.999127	-7.299344	5.999127	1520309.5	-1.633732E-9	-6.120954E+8	14.517932	0.347776	0	0
0	0	0	8.981527	5.998975	-7.796444	5.998975	1239920.5	-2.105528E-9	-4.749403E+8	14.414427	0.346322	0	0
0	0	0	8.606075	5.998988	-8.291794	5.998988	1012159.5	-1.636209E-9	-6.111687E+8	14.401874	0.344141	0	0
0	0	0	8.225642	5.998875	-8.793361	5.998875	824013.5	-2.251098E-9	-4.442276E+8	14.384131	0.342541	0	0
0	0	0	7.840838	5.999107	-9.30167	5.999107	669258.5	-7.553647E-10	-1.323864E+9	14.282028	0.340889	0	0
0	0	0	7.452687	5.99906	-9.813608	5.99906	542584	-6.938275E-10	-1.44128E+9	14.306184	0.338906	0	0
0	0	0	7.067108	5.998842	-10.321651	5.998842	440498.5	-1.509745E-9	-6.623636E+8	14.190511	0.337531	0	0
0	0	0	6.685122	5.999067	-10.826237	5.999067	358315.5	-4.496527E-10	-2.223939E+9	14.211221	0.335244	0	0
0	0	0	6.307833	5.998988	-11.323743	5.998988	292206	-4.723661E-10	-2.117002E+9	14.14248	0.333922	0	0
0	0	0	5.936179	5.999212	-11.814711	5.999212	239021	-2.127085E-10	-4.70127E+9	14.056411	0.332111	0	0
0	0	0	5.571631	5.998902	-12.294719	5.998902	196268.5	-4.612941E-10	-2.167814E+9	14.054372	0.330352	0	0
0	0	0	5.212228	5.999008	-12.769176	5.999008	161612	-2.436967E-10	-4.103461E+9	13.937447	0.328845	0	0
0	0	0	4.84719	5.999014	-13.250772	5.999014	132670	-1.956714E-10	-5.110609E+9	13.955586	0.32673	0	0
0	0	0	4.503917	5.9991	-13.703894	5.9991	110200.5	-1.264998E-10	-7.90515E+9	13.873872	0.325461	0	0
0	0	0	4.169956	5.998994	-14.144151	5.998994	91998	-1.452317E-10	-6.885549E+9	13.820812	0.323518	0	0
0	0	0	3.847633	5.998895	-14.569071	5.998895	77287	-1.882213E-10	-5.312896E+9	13.834994	0.321905	0	0
0	0	0	3.537887	5.999226	-14.97872	5.999226	65371.5	-5.667652E-11	-1.764399E+10	13.716033	0.320649	0	0
0	0	0	3.239168	5.999047	-15.372255	5.999047	55623.5	-7.393752E-11	-1.352493E+10	13.764926	0.318534	0	0
0	0	0	2.949269	5.999127	-15.754951	5.999127	47555	-5.11028E-11	-1.95684E+10	13.630653	0.317383	0	0
0	0	0	2.67207	5.998875	-16.11986	5.998875	40937	-1.118344E-10	-8.941789E+9	13.645066	0.315268	0	0
0	0	0	2.410634	5.998684	-16.464154	5.998684	35542	5.48726E-10	1.822403E+9	13.574119	0.314078	0	0
0	0	0	2.161817	5.999087	-16.793675	5.999087	31069	-3.692362E-11	-2.708294E+10	13.498821	0.31232	0	0
0	0	0	1.930028	5.999252	-17.099987	5.999252	27410	-2.259989E-11	-4.424801E+10	13.491942	0.310628	0	0
0	0	0	1.718086	5.999054	-17.378962	5.999054	24443	-3.186167E-11	-3.138568E+10	13.376114	0.309213	0	0
0	0	0	1.526481	5.998975	-17.631484	5.998975	22038	-3.742301E-11	-2.672152E+10	13.380485	0.307614	0	0
0	0	0	1.357295	5.999008	-17.854788	5.999008	20111.5	-3.032638E-11	-3.29746E+10	13.281988	0.306358	0	0
0	0	0	1.202279	5.998836	-18.058741	5.998836	18495	-6.678957E-11	-1.49724E+10	13.253487	0.304586	0	0
0	0	0	1.067927	5.99906	-18.236707	5.99906	17199.5	-2.19938E-11	-4.546737E+10	13.230143	0.303132	0	0
0	0	0	0.945335	5.999001	-18.398244	5.999001	16096.5	-2.48283E-11	-4.027662E+10	13.129775	0.301757	0	0
0	0	0	0.8372	5.999219	-18.541605	5.999219	15182.5	-1.333485E-11	-7.499149E+10	13.153249	0.300012	0	0
0	0	0	0.742745	5.999001	-18.66551	5.999001	14427	-2.225315E-11	-4.493746E+10	13.033575	0.298743	0	0
0	0	0	0.654538	5.999179	-18.782455	5.999179	13755	-1.310721E-11	-7.629391E+10	13.080438	0.296853	0	0
0	0	0	0.580542	5.999133	-18.879925	5.999133	13216	-1.397881E-11	-7.153687E+10	12.946459	0.295835	0	0
0	0	0	0.515612	5.999087	-18.965434	5.999087	12760	-1.516448E-11	-6.594355E+10	12.942718	0.294037	0	0
0	0	0	0.465261	5.998922	-19.031324	5.998922	12417.5	-2.641788E-11	-3.785315E+10	12.853712	0.292887	0	0
0	0	0	0.420095	5.99916	-19.091681	5.99916	12117.5	-1.205895E-11	-8.292593E+10	12.805092	0.291208	0	0
0	0	0	0.381872	5.999252	-19.142408	5.999252	11870	-9.786963E-12	-1.021767E+11	12.775075	0.289767	0	0
0	0	0	0.349203	5.999087	-19.18497	5.999087	11662	-1.385958E-11	-7.215227E+10	12.671691	0.288498	0	0
0	0	0	0.319351	5.9991	-19.224395	5.9991	11475.5	-1.317279E-11	-7.591404E+10	12.665048	0.286872	0	0
0	0	0	0.287295	5.998975	-19.266276	5.998975	11278.5	-1.915217E-11	-5.221341E+10	12.559242	0.285629	0	0
0	0	0	0.270062	5.99912	-19.289485	5.99912	11173.5	-1.220188E-11	-8.195457E+10	12.57836	0.283831	0	0
0	0	0	0.248418	5.99908	-19.317909	5.99908	11043.5	-1.336041E-11	-7.484799E+10	12.490623	0.282694	0	0
0	0	0	0.221139	5.99914	-19.35409	5.99914	10882	-1.133203E-11	-8.824546E+10	12.432003	0.28124	0	0
0	0	0	0.20358	5.999047	-19.376954	5.999047	10779.5	-1.432865E-11	-6.979026E+10	12.386203	0.279892	0	0
0	0	0	0.193371	5.998968	-19.390164	5.998968	10720	-1.867488E-11	-5.354786E+10	12.316527	0.278437	0	0
0	0	0	0.174667	5.999166	-19.415485	5.999166	10612.5	-1.040736E-11	-9.608583E+10	12.316922	0.276996	0	0
0	0	0	0.152942	5.999034	-19.443714	5.999034	10488	-1.451441E-11	-6.889705E+10	12.198181	0.275727	0	0
0	0	0	0.136649	5.999292	-19.466052	5.999292	10396	-7.984802E-12	-1.252379E+11	12.220157	0.274181	0	0
0	0	0	0.127664	5.999146	-19.477429	5.999146	10346	-1.060973E-11	-9.425315E+10	12.108491	0.27303	0	0
0	0	0	0.120763	5.999008	-19.48608	5.999008	10307.5	-1.55428E-11	-6.433845E+10	12.105507	0.271431	0	0
0	0	0	0.111493	5.999001	-19.498288	5.999001	10256	-1.581953E-11	-6.321301E+10	11.990931	0.270386	0	0
0	0	0	0.098425	5.999094	-19.51583	5.999094	10184	-1.189309E-11	-8.408245E+10	11.948779	0.26876	0	0
0	0	0	0.086256	5.999259	-19.532425	5.999259	10116.5	-8.240247E-12	-1.213556E+11	11.884923	0.267623	0	0
0	0	0	0.076986	5.998968	-19.543703	5.998968	10066	-1.753558E-11	-5.702693E+10	11.811412	0.266169	0	0
0	0	0	0.069513	5.9991	-19.553994	5.9991	10025.5	-1.150833E-11	-8.689358E+10	11.763956	0.265046	0	0
0	0	0	0.06204	5.99916	-19.564048	5.99916	9985.5	-9.937255E-12	-1.006314E+11	11.667335	0.263578	0	0
0	0	0	0.059141	5.998955	-19.567203	5.998955	9969.5	-1.831547E-11	-5.459864E+10	11.666238	0.262097	0	0
0	0	0	0.054649	5.999021	-19.573345	5.999021	9945.5	-1.435385E-11	-6.966773E+10	11.536531	0.261185	0	0
0	0	0	0.052239	5.998875	-19.576048	5.998875	9932.5	-2.713427E-11	-3.685377E+10	11.559797	0.25944	0	0
0	0	0	0.050973	5.998823	-19.577545	5.998823	9926	-4.015329E-11	-2.490456E+10	11.402808	0.258554	0	0
0	0	0	0.046686	5.998842	-19.583266	5.998842	9902.5	-3.393936E-11	-2.946432E+10	11.441928	0.256836	0	0
0	0	0	0.04444	5.99912	-19.587138	5.99912	9891	-1.080134E-11	-9.258107E+10	11.28609	0.256122	0	0
0	0	0	0.039131	5.998895	-19.593406	5.998895	9862.5	-2.401868E-11	-4.163425E+10	11.326884	0.254337	0	0
0	0	0	0.034557	5.998994	-19.599764	5.998994	9838	-1.553066E-11	-6.438877E+10	11.177127	0.253637	0	0
0	0	0	0.032229	5.998928	-19.602619	5.998928	9825.5	-2.026305E-11	-4.935092E+10	11.202657	0.251826	0	0
0	0	0	0.028268	5.999113	-19.60845	5.999113	9804.5	-1.088345E-11	-9.188265E+10	11.066966	0.251059	0	0
0	0	0	0.022224	5.999226	-19.616791	5.999226	9772.5	-8.472672E-12	-1.180265E+11	11.07445	0.249419	0	0
0	0	0	0.017406	5.999054	-19.622586	5.999054	9747.5	-1.270595E-11	-7.870327E+10	10.980662	0.248653	0	0
0	0	0	0.013281	5.999008	-19.627876	5.999008	9725.5	-1.46652E-11	-6.818864E+10	10.976878	0.246987	0	0
0	0	0	0.008013	5.999305	-19.635799	5.999305	9698	-7.282501E-12	-1.373155E+11	10.889885	0.245956	0	0
0	0	0	0.004052	5.998915	-19.639748	5.998915	9677	-2.125946E-11	-4.703788E+10	10.832966	0.244634	0	0
0	0	0	-0.000767	5.999146	-19.646863	5.999146	9652	-9.898035E-12	-1.010302E+11	10.770578	0.243775	0	0
0	0	0	-0.004238	5.998988	-19.650922	5.998988	9634	-1.557386E-11	-6.421017E+10	10.722704	0.242201	0	0
0	0	0	-0.006157	5.999219	-19.654212	5.999219	9624	-8.452795E-12	-1.183041E+11	10.656604	0.241197	0	0
0	0	0	-0.009301	5.998994	-19.657624	5.998994	9607.5	-1.516678E-11	-6.593357E+10	10.590344	0.239967	0	0
0	0	0	-0.009546	5.999001	-19.657969	5.999001	9606	-1.481692E-11	-6.749039E+10	10.552224	0.238857	0	0
0	0	0	-0.012691	5.999041	-19.662247	5.999041	9590	-1.30043E-11	-7.689763E+10	10.4862	0.237614	0	0
0	0	0	-0.013508	5.999094	-19.663498	5.999094	9585.5	-1.119415E-11	-8.933239E+10	10.423939	0.236675	0	0
0	0	0	-0.017183	5.999153	-19.668542	5.999153	9567	-9.663646E-12	-1.034806E+11	10.364713	0.23534	0	0
0	0	0	-0.017346	5.999179	-19.668844	5.999179	9566	-9.115488E-12	-1.097034E+11	10.30821	0.234256	0	0
0	0	0	-0.01947	5.999212	-19.671753	5.999212	9554.5	-8.502697E-12	-1.176097E+11	10.215691	0.233119	0	0
0	0	0	-0.019184	5.999034	-19.670792	5.999034	9556	-1.322461E-11	-7.561661E+10	10.192896	0.231956	0	0
0	0	0	-0.020368	5.998975	-19.672159	5.998975	9550.5	-1.621783E-11	-6.166054E+10	10.107274	0.230819	0	0
0	0	0	-0.021716	5.999133	-19.674457	5.999133	9543.5	-1.009434E-11	-9.906546E+10	10.074197	0.229748	0	0
0	0	0	-0.022655	5.999107	-19.675609	5.999107	9538.5	-1.076571E-11	-9.288751E+10	9.964708	0.22881	0	0
0	0	0	-0.022369	5.999054	-19.675059	5.999054	9540	-1.243547E-11	-8.04151E+10	9.93779	0.227607	0	0
0	0	0	-0.023553	5.999146	-19.676924	5.999146	9534	-9.777027E-12	-1.022806E+11	9.861028	0.226456	0	0
0	0	0	-0.023349	5.998955	-19.676027	5.998955	9535	-1.751723E-11	-5.708665E+10	9.842125	0.225399	0	0
0	0	0	-0.024697	5.999179	-19.678541	5.999179	9528	-9.079278E-12	-1.101409E+11	9.752345	0.224249	0	0
0	0	0	-0.026371	5.99916	-19.680685	5.99916	9519	-9.473009E-12	-1.055631E+11	9.718799	0.223204	0	0
0	0	0	-0.027433	5.999265	-19.682432	5.999265	9514	-7.656836E-12	-1.306022E+11	9.624112	0.222054	0	0
0	0	0	-0.027678	5.999107	-19.682236	5.999107	9512.5	-1.073637E-11	-9.314139E+10	9.575137	0.221036	0	0
0	0	0	-0.028903	5.999087	-19.683787	5.999087	9506	-1.12973E-11	-8.85167E+10	9.504564	0.219833	0	0
0	0	0	-0.027637	5.998981	-19.68177	5.998981	9512.5	-1.575583E-11	-6.346858E+10	9.476027	0.218961	0	0
0	0	0	-0.028331	5.999239	-19.683531	5.999239	9509	-8.037183E-12	-1.244217E+11	9.409996	0.217758	0	0
0	0	0	-0.02825	5.9991	-19.682968	5.9991	9510	-1.091658E-11	-9.160374E+10	9.352628	0.216819	0	0
0	0	0	-0.029066	5.999193	-19.684349	5.999193	9505.5	-8.808447E-12	-1.135274E+11	9.265923	0.215722	0	0
0	0	0	-0.02923	5.998915	-19.683655	5.998915	9504.5	-2.088049E-11	-4.789159E+10	9.179436	0.214862	0	0
0	0	0	-0.02878	5.999312	-19.684361	5.999312	9507	-7.060311E-12	-1.416368E+11	9.143571	0.21362	0	0
0	0	0	-0.02878	5.999206	-19.684015	5.999206	9507	-8.573775E-12	-1.166347E+11	9.066255	0.212708	0	0
0	0	0	-0.028413	5.998823	-19.682274	5.998823	9509	-3.846642E-11	-2.59967E+10	9.048472	0.211359	0	0
0	0	0	-0.029107	5.999239	-19.684554	5.999239	9505.5	-8.034224E-12	-1.244675E+11	8.921809	0.210672	0	0
0	0	0	-0.02776	5.999153	-19.682495	5.999153	9512	-9.608091E-12	-1.04079E+11	8.894289	0.209508	0	0
0	0	0	-0.029189	5.998862	-19.683428	5.998862	9505	-2.826025E-11	-3.53854E+10	8.768277	0.208583	0	0
0	0	0	-0.029475	5.999021	-19.684325	5.999021	9503.5	-1.371593E-11	-7.290792E+10	8.767709	0.20742	0	0
0	0	0	-0.028903	5.998948	-19.683332	5.998948	9506	-1.795396E-11	-5.569801E+10	8.674651	0.206507	0	0
0	0	0	-0.027882	5.999014	-19.682202	5.999014	9511.5	-1.402825E-11	-7.128471E+10	8.656468	0.205688	0	0
0	0	0	-0.028413	5.999074	-19.683097	5.999074	9509	-1.171452E-11	-8.536417E+10	8.616619	0.204432	0	0
0	0	0	-0.026861	5.99906	-19.681007	5.99906	9517	-1.216983E-11	-8.217043E+10	8.529585	0.203612	0	0
0	0	0	-0.027923	5.999113	-19.682581	5.999113	9511	-1.055765E-11	-9.471806E+10	8.485602	0.202502	0	0
0	0	0	-0.028862	5.999021	-19.683516	5.999021	9506.5	-1.372026E-11	-7.288492E+10	8.3432	0.20188	0	0
0	0	0	-0.02923	5.999464	-19.685452	5.999464	9504.5	-5.629869E-12	-1.77624E+11	8.378943	0.200413	0	0
0	0	0	-0.03021	5.999027	-19.685316	5.999027	9499.5	-1.342237E-11	-7.450249E+10	8.237511	0.199765	0	0
0	0	0	-0.031272	5.999087	-19.686912	5.999087	9494	-1.128304E-11	-8.862858E+10	8.257104	0.198655	0	0
0	0	0	-0.029801	5.998915	-19.684409	5.998915	9501.5	-2.08739E-11	-4.790671E+10	8.116658	0.197967	0	0
0	0	0	-0.030006	5.999014	-19.685003	5.999014	9500.5	-1.401203E-11	-7.136725E+10	8.109126	0.19691	0	0
0	0	0	-0.030577	5.999193	-19.686342	5.999193	9497.5	-8.801034E-12	-1.13623E+11	8.00735	0.195826	0	0
0	0	0	-0.029965	5.999094	-19.685209	5.999094	9501	-1.109547E-11	-9.01269E+10	7.950042	0.195019	0	0
0	0	0	-0.030741	5.999107	-19.686276	5.999107	9497	-1.071887E-11	-9.329341E+10	7.876764	0.193869	0	0
0	0	0	-0.032292	5.999133	-19.68841	5.999133	9489	-1.003669E-11	-9.963444E+10	7.734713	0.193327	0	0
0	0	0	-0.033273	5.999127	-19.689681	5.999127	9484	-1.019155E-11	-9.812055E+10	7.696072	0.192203	0	0
0	0	0	-0.033518	5.99908	-19.689853	5.99908	9482.5	-1.147192E-11	-8.71694E+10	7.63089	0.191106	0	0
0	0	0	-0.033722	5.999173	-19.690425	5.999173	9481.5	-9.164706E-12	-1.091143E+11	7.547028	0.190472	0	0
0	0	0	-0.035641	5.999206	-19.693066	5.999206	9472	-8.542211E-12	-1.170657E+11	7.532709	0.189321	0	0
0	0	0	-0.035151	5.999232	-19.692506	5.999232	9474	-8.109426E-12	-1.233133E+11	7.410375	0.188793	0	0
0	0	0	-0.037724	5.999199	-19.695792	5.999199	9461	-8.648156E-12	-1.156316E+11	7.446802	0.187603	0	0
0	0	0	-0.039357	5.999008	-19.697319	5.999008	9452.5	-1.425354E-11	-7.015801E+10	7.333376	0.18673	0	0
0	0	0	-0.040419	5.999133	-19.699131	5.999133	9447.5	-9.992795E-12	-1.000721E+11	7.299412	0.186003	0	0
0	0	0	-0.039725	5.999457	-19.699276	5.999457	9451	-5.647879E-12	-1.770576E+11	7.25027	0.184813	0	0
0	0	0	-0.039316	5.999133	-19.697676	5.999133	9453	-9.998612E-12	-1.000139E+11	7.128563	0.184271	0	0
0	0	0	-0.03903	5.999146	-19.697342	5.999146	9454.5	-9.6955E-12	-1.031406E+11	7.067407	0.183174	0	0
0	0	0	-0.039929	5.999179	-19.698636	5.999179	9450	-9.004951E-12	-1.1105E+11	6.970828	0.182262	0	0
0	0	0	-0.040215	5.999232	-19.699186	5.999232	9448.5	-8.087599E-12	-1.236461E+11	6.869854	0.181667	0	0
0	0	0	-0.04144	5.99916	-19.700564	5.99916	9442	-9.396381E-12	-1.064239E+11	6.879362	0.180583	0	0
0	0	0	-0.04193	5.999021	-19.700756	5.999021	9439.5	-1.362356E-11	-7.340224E+10	6.753577	0.179869	0	0
0	0	0	-0.040786	5.999146	-19.699659	5.999146	9445.5	-9.686271E-12	-1.032389E+11	6.724081	0.179142	0	0
0	0	0	-0.041481	5.999305	-19.701095	5.999305	9442	-7.090264E-12	-1.410385E+11	6.674418	0.177952	0	0
0	0	0	-0.040296	5.999034	-19.698644	5.999034	9448	-1.307515E-11	-7.648098E+10	6.565734	0.17749	0	0
0	0	0	-0.040746	5.999252	-19.699952	5.999252	9445.5	-7.787933E-12	-1.284038E+11	6.515504	0.176485	0	0
0	0	0	-0.040786	5.999272	-19.700071	5.999272	9445.5	-7.511895E-12	-1.331222E+11	6.440472	0.175639	0	0
0	0	0	-0.040174	5.998981	-19.69831	5.998981	9448.5	-1.564982E-11	-6.389849E+10	6.357264	0.175044	0	0
0	0	0	-0.040623	5.999133	-19.6994	5.999133	9446	-9.991208E-12	-1.00088E+11	6.341741	0.174079	0	0
0	0	0	-0.040051	5.999153	-19.698711	5.999153	9449	-9.544454E-12	-1.047729E+11	6.269102	0.173206	0	0
0	0	0	-0.040011	5.999186	-19.698765	5.999186	9449.5	-8.878784E-12	-1.12628E+11	6.201734	0.172519	0	0
0	0	0	-0.038418	5.998975	-19.695971	5.998975	9457.5	-1.60599E-11	-6.226687E+10	6.153739	0.171673	0	0
0	0	0	-0.036907	5.999047	-19.694216	5.999047	9465.5	-1.258201E-11	-7.947854E+10	6.045529	0.170866	0	0
0	0	0	-0.035968	5.998942	-19.692631	5.998942	9470	-1.840231E-11	-5.434101E+10	5.993856	0.170047	0	0
0	0	0	-0.035845	5.999312	-19.693682	5.999312	9470.5	-7.033205E-12	-1.421827E+11	5.957477	0.169227	0	0
0	0	0	-0.036539	5.999193	-19.694208	5.999193	9467	-8.772771E-12	-1.139891E+11	5.877609	0.168526	0	0
0	0	0	-0.03752	5.998988	-19.694829	5.998988	9462	-1.529581E-11	-6.537738E+10	5.781478	0.167892	0	0
0	0	0	-0.035437	5.999226	-19.692861	5.999226	9472.5	-8.212574E-12	-1.217645E+11	5.765611	0.166808	0	0
0	0	0	-0.035437	5.99916	-19.692645	5.99916	9472.5	-9.426734E-12	-1.060813E+11	5.64905	0.16612	0	0
0	0	0	-0.034375	5.999193	-19.691352	5.999193	9478.5	-8.783427E-12	-1.138508E+11	5.571368	0.165486	0	0
0	0	0	-0.033518	5.99916	-19.690113	5.99916	9482.5	-9.436686E-12	-1.059694E+11	5.488938	0.164785	0	0
0	0	0	-0.03217	5.999067	-19.688032	5.999067	9489.5	-1.190844E-11	-8.397407E+10	5.455447	0.163794	0	0
0	0	0	-0.033436	5.999034	-19.689594	5.999034	9483	-1.312358E-11	-7.61987E+10	5.345863	0.163067	0	0
0	0	0	-0.034375	5.999067	-19.690941	5.999067	9478.5	-1.189463E-11	-8.407152E+10	5.298246	0.162353	0	0
0	0	0	-0.033722	5.999094	-19.690166	5.999094	9481.5	-1.107269E-11	-9.031226E+10	5.203046	0.161692	0	0
0	0	0	-0.034089	5.99906	-19.690542	5.99906	9480	-1.212251E-11	-8.249114E+10	5.144169	0.160687	0	0
0	0	0	-0.032619	5.999166	-19.688949	5.999166	9487	-9.303618E-12	-1.074851E+11	5.036856	0.160171	0	0
0	0	0	-0.032456	5.999087	-19.688474	5.999087	9488	-1.127591E-11	-8.868463E+10	5.003696	0.15918	0	0
0	0	0	-0.033518	5.998968	-19.689485	5.998968	9482.5	-1.651908E-11	-6.053604E+10	4.895433	0.158572	0	0
0	0	0	-0.03511	5.998895	-19.691348	5.998895	9474.5	-2.307377E-11	-4.333926E+10	4.810665	0.157831	0	0
0	0	0	-0.037438	5.999279	-19.695674	5.999279	9462.5	-7.437543E-12	-1.34453E+11	4.689415	0.157223	0	0
0	0	0	-0.037275	5.999146	-19.695026	5.999146	9463.5	-9.70473E-12	-1.030425E+11	4.643499	0.15643	0	0
0	0	0	-0.036866	5.999107	-19.694357	5.999107	9465.5	-1.068332E-11	-9.360388E+10	4.55596	0.155716	0	0
0	0	0	-0.036866	5.999094	-19.694314	5.999094	9465.5	-1.105401E-11	-9.046491E+10	4.503295	0.154923	0	0
0	0	0	-0.037846	5.999219	-19.696018	5.999219	9460.5	-8.309193E-12	-1.203486E+11	4.393242	0.154434	0	0
0	0	0	-0.038173	5.999212	-19.696428	5.999212	9459	-8.41771E-12	-1.187972E+11	4.365677	0.153588	0	0
0	0	0	-0.040011	5.999285	-19.69909	5.999285	9449.5	-7.341598E-12	-1.362101E+11	4.302863	0.152821	0	0
0	0	0	-0.042257	5.999074	-19.70136	5.999074	9438	-1.162705E-11	-8.600634E+10	4.254712	0.152054	0	0
0	0	0	-0.042624	5.999318	-19.702646	5.999318	9436	-6.931115E-12	-1.442769E+11	4.1287	0.151486	0	0
0	0	0	-0.043523	5.999279	-19.703702	5.999279	9431.5	-7.413177E-12	-1.348949E+11	4.090249	0.150547	0	0
0	0	0	-0.042379	5.999001	-19.701284	5.999001	9437.5	-1.455702E-11	-6.869538E+10	3.97786	0.149913	0	0
0	0	0	-0.043237	5.999199	-19.703065	5.999199	9433	-8.622561E-12	-1.159748E+11	3.91309	0.149252	0	0
0	0	0	-0.044339	5.999094	-19.704173	5.999094	9427.5	-1.100963E-11	-9.082956E+10	3.827345	0.148723	0	0
0	0	0	-0.044462	5.999166	-19.704573	5.999166	9426.5	-9.244287E-12	-1.081749E+11	3.819294	0.147943	0	0
0	0	0	-0.044911	5.999272	-19.705512	5.999272	9424.5	-7.495194E-12	-1.334188E+11	3.754875	0.147322	0	0
0	0	0	-0.044788	5.999265	-19.705329	5.999265	9425	-7.585209E-12	-1.318355E+11	3.715524	0.146555	0	0
0	0	0	-0.045891	5.99914	-19.706372	5.99914	9419.5	-9.809045E-12	-1.019467E+11	3.656418	0.146013	0	0
0	0	0	-0.047075	5.999199	-19.708129	5.999199	9413.5	-8.604737E-12	-1.162151E+11	3.631988	0.145286	0	0
0	0	0	-0.045033	5.999153	-19.705284	5.999153	9424	-9.519202E-12	-1.050508E+11	3.583505	0.144638	0	0
0	0	0	-0.04487	5.999173	-19.705133	5.999173	9424.5	-9.10961E-12	-1.097742E+11	3.562001	0.144043	0	0
0	0	0	-0.045687	5.999186	-19.706254	5.999186	9420.5	-8.851535E-12	-1.129747E+11	3.525247	0.143316	0	0
0	0	0	-0.045728	5.998902	-19.705376	5.998902	9420.5	-2.21412E-11	-4.516467E+10	3.505361	0.142655	0	0
0	0	0	-0.044707	5.998948	-19.704181	5.998948	9425.5	-1.780192E-11	-5.61737E+10	3.481333	0.141928	0	0
0	0	0	-0.043645	5.99906	-19.703149	5.99906	9431	-1.205986E-11	-8.291973E+10	3.442693	0.141373	0	0
0	0	0	-0.04389	5.999212	-19.70397	5.999212	9429.5	-8.391457E-12	-1.191688E+11	3.396791	0.140725	0	0
0	0	0	-0.044094	5.99914	-19.704001	5.99914	9428.5	-9.818417E-12	-1.018494E+11	3.394214	0.139971	0	0
0	0	0	-0.042583	5.998908	-19.70125	5.998908	9436	-2.14294E-11	-4.666487E+10	3.355438	0.139363	0	0
0	0	0	-0.041236	5.999193	-19.700403	5.999193	9443	-8.750531E-12	-1.142788E+11	3.307439	0.138861	0	0
0	0	0	-0.041399	5.999153	-19.700489	5.999153	9442.5	-9.537888E-12	-1.04845E+11	3.273695	0.138147	0	0
0	0	0	-0.041481	5.999186	-19.700705	5.999186	9442	-8.871737E-12	-1.127175E+11	3.245836	0.137578	0	0
0	0	0	-0.04046	5.999027	-19.698838	5.999027	9447	-1.334819E-11	-7.491652E+10	3.212055	0.136944	0	0
0	0	0	-0.039806	5.998902	-19.697565	5.998902	9450.5	-2.221171E-11	-4.50213E+10	3.1801	0.136283	0	0
0	0	0	-0.03752	5.998928	-19.694635	5.998928	9462	-1.95134E-11	-5.124683E+10	3.150209	0.135688	0	0
0	0	0	-0.035927	5.999047	-19.692923	5.999047	9470.5	-1.258866E-11	-7.943658E+10	3.093321	0.135238	0	0
0	0	0	-0.035069	5.999027	-19.691727	5.999027	9475	-1.338775E-11	-7.469513E+10	3.08345	0.134379	0	0
0	0	0	-0.035764	5.99916	-19.693076	5.99916	9471	-9.425241E-12	-1.060981E+11	3.037248	0.133797	0	0
0	0	0	-0.036254	5.99906	-19.693398	5.99906	9468.5	-1.210781E-11	-8.259133E+10	3.015127	0.133229	0	0
0	0	0	-0.036784	5.99916	-19.694423	5.99916	9466	-9.420265E-12	-1.061541E+11	2.961165	0.132555	0	0
0	0	0	-0.034661	5.999014	-19.691145	5.999014	9477	-1.397737E-11	-7.154421E+10	2.950169	0.13196	0	0
0	0	0	-0.03752	5.999127	-19.695284	5.999127	9462	-1.01679E-11	-9.834869E+10	2.905099	0.131286	0	0
0	0	0	-0.03511	5.9991	-19.692019	5.9991	9474.5	-1.087583E-11	-9.194697E+10	2.918821	0.130651	0	0
0	0	0	-0.03511	5.999067	-19.691911	5.999067	9474.5	-1.188961E-11	-8.410702E+10	2.831342	0.130149	0	0
0	0	0	-0.035927	5.999193	-19.6934	5.999193	9470.5	-8.776014E-12	-1.139469E+11	2.81931	0.129382	0	0
0	0	0	-0.036294	5.998961	-19.693127	5.998961	9468.5	-1.693292E-11	-5.905657E+10	2.77489	0.128866	0	0
0	0	0	-0.037928	5.999014	-19.695455	5.999014	9460	-1.39523E-11	-7.167278E+10	2.784916	0.128139	0	0
0	0	0	-0.03801	5.999219	-19.696234	5.999219	9459.5	-8.308314E-12	-1.203614E+11	2.696415	0.127584	0	0
0	0	0	-0.037887	5.999133	-19.695791	5.999133	9460.5	-1.000655E-11	-9.993459E+10	2.694609	0.127016	0	0
0	0	0	-0.0356	5.999259	-19.693185	5.999259	9472	-7.715279E-12	-1.296129E+11	2.643859	0.126566	0	0
0	0	0	-0.039398	5.999199	-19.698001	5.999199	9452.5	-8.640386E-12	-1.157356E+11	2.654501	0.125852	0	0
0	0	0	-0.040051	5.999087	-19.698494	5.999087	9449	-1.122956E-11	-8.905066E+10	2.591177	0.12531	0	0
0	0	0	-0.040827	5.999173	-19.6998	5.999173	9445	-9.129425E-12	-1.095359E+11	2.581048	0.124742	0	0
0	0	0	-0.043277	5.9991	-19.702794	5.9991	9432.5	-1.082762E-11	-9.235638E+10	2.503578	0.124253	0	0
0	0	0	-0.042869	5.999305	-19.702926	5.999305	9435	-7.085007E-12	-1.411431E+11	2.515792	0.123539	0	0
0	0	0	-0.043849	5.99916	-19.703743	5.99916	9430	-9.384439E-12	-1.065594E+11	2.465907	0.123036	0	0
0	0	0	-0.042542	5.999259	-19.702344	5.999259	9436.5	-7.686363E-12	-1.301005E+11	2.442173	0.1226	0	0
0	0	0	-0.042583	5.998922	-19.701293	5.998922	9436	-2.007482E-11	-4.981364E+10	2.386577	0.122032	0	0
0	0	0	-0.045278	5.999318	-19.706148	5.999318	9422.5	-6.921198E-12	-1.444836E+11	2.380487	0.121503	0	0
0	0	0	-0.04487	5.999259	-19.705415	5.999259	9424.5	-7.676588E-12	-1.302662E+11	2.306166	0.120802	0	0
0	0	0	-0.047974	5.9991	-19.708989	5.9991	9409	-1.080065E-11	-9.258705E+10	2.311455	0.120406	0	0
0	0	0	-0.045646	5.998922	-19.705334	5.998922	9420.5	-2.004185E-11	-4.98956E+10	2.274886	0.119837	0	0
0	0	0	-0.047402	5.999193	-19.708538	5.999193	9412	-8.721804E-12	-1.146552E+11	2.251644	0.119203	0	0
0	0	0	-0.0483	5.999285	-19.710027	5.999285	9407	-7.308579E-12	-1.368255E+11	2.199698	0.118647	0	0
0	0	0	-0.047279	5.999206	-19.70842	5.999206	9412.5	-8.488552E-12	-1.178057E+11	2.180876	0.118317	0	0
0	0	0	-0.047484	5.999259	-19.708863	5.999259	9411	-7.665592E-12	-1.304531E+11	2.141015	0.117629	0	0
0	0	0	-0.047484	5.999146	-19.708494	5.999146	9411	-9.650892E-12	-1.036174E+11	2.145528	0.117154	0	0
0	0	0	-0.047361	5.999087	-19.708138	5.999087	9412	-1.118559E-11	-8.940074E+10	2.118195	0.116559	0	0
0	0	0	-0.047688	5.999292	-19.70924	5.999292	9410.5	-7.227874E-12	-1.383533E+11	2.078029	0.116083	0	0
0	0	0	-0.048586	5.999179	-19.710057	5.999179	9405.5	-8.962547E-12	-1.115754E+11	2.028552	0.11562	0	0
0	0	0	-0.045564	5.999047	-19.705637	5.999047	9421	-1.252286E-11	-7.985396E+10	2.020147	0.115104	0	0
0	0	0	-0.046054	5.998994	-19.706111	5.998994	9418.5	-1.486842E-11	-6.725665E+10	2.005433	0.114589	0	0
0	0	0	-0.04487	5.999325	-19.705631	5.999325	9424.5	-6.847941E-12	-1.460293E+11	1.954438	0.114034	0	0
0	0	0	-0.044176	5.999067	-19.703871	5.999067	9428	-1.183126E-11	-8.452184E+10	1.931035	0.113492	0	0
0	0	0	-0.045115	5.99914	-19.705348	5.99914	9423.5	-9.813211E-12	-1.019034E+11	1.890306	0.113174	0	0
0	0	0	-0.044421	5.999054	-19.704151	5.999054	9427	-1.228818E-11	-8.137903E+10	1.899048	0.112513	0	0
0	0	0	-0.043604	5.999094	-19.703203	5.999094	9431	-1.101372E-11	-9.079585E+10	1.847793	0.112037	0	0
0	0	0	-0.043155	5.998994	-19.702286	5.998994	9433.5	-1.48921E-11	-6.71497E+10	1.820348	0.11168	0	0
0	0	0	-0.040092	5.99906	-19.698462	5.99906	9449	-1.208287E-11	-8.276178E+10	1.783346	0.111086	0	0
0	0	0	-0.039684	5.999067	-19.697945	5.999067	9451	-1.186012E-11	-8.431615E+10	1.770295	0.110649	0	0
0	0	0	-0.041154	5.998994	-19.699646	5.998994	9443.5	-1.490788E-11	-6.70786E+10	1.734508	0.110226	0	0
0	0	0	-0.038826	5.99908	-19.696857	5.99908	9455.5	-1.143925E-11	-8.741831E+10	1.731081	0.109724	0	0
0	0	0	-0.039194	5.999067	-19.697298	5.999067	9453.5	-1.186326E-11	-8.429385E+10	1.677733	0.109248	0	0
0	0	0	-0.038622	5.999107	-19.696674	5.999107	9456.5	-1.067316E-11	-9.369296E+10	1.682646	0.108627	0	0
0	0	0	-0.03707	5.998836	-19.693739	5.998836	9464.5	-3.417842E-11	-2.925823E+10	1.618408	0.108217	0	0
0	0	0	-0.03707	5.999027	-19.694367	5.999027	9464.5	-1.337292E-11	-7.4778E+10	1.632285	0.107728	0	0
0	0	0	-0.03707	5.99916	-19.6948	5.99916	9464.5	-9.418773E-12	-1.061709E+11	1.585652	0.107318	0	0
0	0	0	-0.038377	5.998968	-19.695896	5.998968	9457.5	-1.647553E-11	-6.069606E+10	1.6101	0.106736	0	0
0	0	0	-0.038785	5.998869	-19.69611	5.998869	9455.5	-2.692386E-11	-3.714178E+10	1.521676	0.106459	0	0
0	0	0	-0.038622	5.999318	-19.697367	5.999318	9456.5	-6.946173E-12	-1.439642E+11	1.548621	0.105864	0	0
0	0	0	-0.038581	5.998955	-19.696122	5.998955	9456.5	-1.737302E-11	-5.756053E+10	1.493551	0.10548	0	0
0	0	0	-0.037887	5.999285	-19.696289	5.999285	9460.5	-7.350145E-12	-1.360517E+11	0	0	0	0
0	0	0	-0.036744	5.998955	-19.693698	5.998955	9466	-1.739047E-11	-5.750277E+10	0	0	0	0
0	0	0	-0.038785	5.998763	-19.695763	5.998763	9455.5	-8.33089E-11	-1.200352E+10	0	0	0	0
0	0	0	-0.038091	5.998981	-19.695562	5.998981	9459	-1.566721E-11	-6.382756E+10	0	0	0	0
0	0	0	-0.039643	5.999074	-19.697912	5.999074	9451	-1.164306E-11	-8.588804E+10	0	0	0	0
0	0	0	-0.041113	5.999067	-19.69983	5.999067	9444	-1.185134E-11	-8.437865E+10	0	0	0	0
0	0	0	-0.042747	5.99916	-19.702288	5.99916	9435.5	-9.389913E-12	-1.064973E+11	0	0	0	0
0	0	0	-0.041971	5.999279	-19.701655	5.999279	9439.5	-7.419465E-12	-1.347806E+11	0	0	0	0
0	0	0	-0.04193	5.999173	-19.701254	5.999173	9439.5	-9.124109E-12	-1.095997E+11	0	0	0	0
0	0	0	-0.042542	5.99912	-19.701889	5.99912	9436.5	-1.030501E-11	-9.704015E+10	0	0	0	0
0	0	0	-0.044013	5.999001	-19.703439	5.999001	9429	-1.454391E-11	-6.875731E+10	0	0	0	0
0	0	0	-0.045033	5.99912	-19.705175	5.99912	9424	-1.029136E-11	-9.716886E+10	0	0	0	0
0	0	0	-0.045728	5.9991	-19.706026	5.9991	9420.5	-1.081385E-11	-9.247403E+10	0	0	0	0
0	0	0	-0.047524	5.999146	-19.708548	5.999146	9411	-9.650892E-12	-1.036174E+11	0	0	0	0
0	0	0	-0.046789	5.999272	-19.70799	5.999272	9415	-7.487639E-12	-1.335534E+11	0	0	0	0
0	0	0	-0.047892	5.999245	-19.709358	5.999245	9409	-7.854041E-12	-1.27323E+11	0	0	0	0
0	0	0	-0.048137	5.99908	-19.70914	5.99908	9408	-1.138179E-11	-8.785967E+10	0	0	0	0
0	0	0	-0.046504	5.999146	-19.707201	5.999146	9416	-9.656019E-12	-1.035623E+11	0	0	0	0
0	0	0	-0.050751	5.998928	-19.71209	5.998928	9395	-1.937523E-11	-5.161229E+10	0	0	0	0
0	0	0	-0.048668	5.999358	-19.71075	5.999358	9405.5	-6.484169E-12	-1.542218E+11	0	0	0	0
0	0	0	-0.048831	5.999067	-19.710012	5.999067	9404.5	-1.180177E-11	-8.473305E+10	0	0	0	0
0	0	0	-0.050546	5.99908	-19.712318	5.99908	9395.5	-1.136666E-11	-8.797656E+10	0	0	0	0
0	0	0	-0.050546	0	-0.050546	0	9395.5	0	0	0	0	0	0
0	0	0	-0.050056	0	-0.050056	0	9398.5	0	0	0	0	0	0
