Vload_(V)	ILoad_(A)	RsLoad (ohm)	SunsVoc_Voltage_(V)	SunsVoc_Current_(A)	Model_Voltage_(V)	Model_Current_(A)	Carrier_Density_(cm-3)	Lifetime_(s)	Inverse_Lifetime_(s-1)	Efficiency_(%)	Intensity_(suns)	Dark_IV_Voltage_(V)	Dark_IV_Current_(A)
3.132862	5.926241	0	51.948319	-0.532685	52.201168	-0.532685	7.60594E+15	0.000524	1812.93961	18.821924	1.15157	0	0
3.125248	5.929701	-0.520149	52.491813	-0.766305	52.826552	-0.766305	9.224963E+15	0.000613	1489.601521	18.748518	1.150168	0	0
3.267886	5.927114	-0.548321	52.599744	-0.573408	52.845912	-0.573408	9.578575E+15	0.000656	1373.086873	18.729614	1.14759	0	0
6.244562	5.924466	3.736032	52.557396	-0.240263	52.661252	-0.240263	9.438499E+15	0.000681	1320.801531	18.65007	1.146109	0	0
11.111812	5.900346	4.824921	52.461145	0.117752	52.409456	0.117752	9.126511E+15	0.000699	1292.439075	18.54564	1.145804	0	0
15.392895	5.889881	4.286977	52.346353	0.478819	52.132344	0.478819	8.765788E+15	0.000716	1269.433073	18.544341	1.144905	0	0
19.712097	5.886638	3.599239	52.223802	0.822104	51.849345	0.822104	8.393943E+15	0.000732	1249.975504	18.575951	1.143675	0	0
24.038521	5.884349	2.893837	52.098434	1.14865	51.565212	1.14865	8.027289E+15	0.000747	1230.959757	18.528728	1.141837	0	0
28.352222	5.880848	2.201845	51.971187	1.458349	51.281275	1.458349	7.66891E+15	0.000764	1212.039085	18.537853	1.138253	0	0
32.692875	5.872331	1.55027	51.837815	1.752867	50.992293	1.752867	7.307692E+15	0.000779	1195.156958	18.562479	1.134048	0	0
36.98939	5.822868	1.129221	51.70383	2.014242	50.713437	2.014242	6.959184E+15	0.000791	1183.272096	18.492723	1.129869	0	0
38.036274	5.795226	1.057492	51.57691	2.254895	50.44826	2.254895	6.641902E+15	0.000805	1169.350677	18.429007	1.125902	0	0
39.098621	5.755117	0.994252	51.454359	2.476813	50.193495	2.476813	6.347033E+15	0.000819	1154.837585	18.453208	1.12212	0	0
40.138096	5.698831	0.942348	51.327153	2.688928	49.934489	2.688928	6.052531E+15	0.000832	1141.562985	18.429519	1.11884	0	0
41.188105	5.626455	0.884226	51.195578	2.887263	49.673736	2.887263	5.759923E+15	0.000843	1130.976309	18.417749	1.114212	0	0
42.225786	5.523277	0.835788	51.073436	3.072134	49.428021	3.072134	5.49888E+15	0.000857	1116.582548	18.460814	1.108618	0	0
43.280481	5.386007	0.784348	50.946148	3.248131	49.17768	3.248131	5.237347E+15	0.00087	1103.966705	18.448264	1.103104	0	0
44.313816	5.202467	0.738694	50.82274	3.412529	48.935437	3.412529	4.993709E+15	0.000884	1090.181625	18.376576	1.09784	0	0
45.313292	4.962619	0.699589	50.695411	3.563541	48.692995	3.563541	4.752252E+15	0.000895	1080.148392	18.405727	1.092009	0	0
46.301129	4.646665	0.665619	50.575556	3.698294	48.466552	3.698294	4.533892E+15	0.000905	1070.52904	18.412804	1.08697	0	0
47.2748	4.236545	0.63897	50.450514	3.825744	48.235518	3.825744	4.315022E+15	0.000914	1063.378481	18.370229	1.082024	0	0
48.230284	3.726679	0.615337	50.330945	3.942687	48.015413	3.942687	4.11401E+15	0.000923	1055.757862	18.382681	1.07643	0	0
49.121697	3.137161	0.600489	50.21015	4.054984	47.794558	4.054984	3.918907E+15	0.000932	1047.902901	18.433168	1.070519	0	0
49.96936	2.472265	0.597315	50.084863	4.161796	47.569333	4.161796	3.724751E+15	0.000939	1041.854669	18.397876	1.064555	0	0
50.764944	1.765343	0.617522	49.966968	4.258485	47.358034	4.258485	3.549443E+15	0.000947	1035.330376	18.395379	1.058102	0	0
51.462474	1.080877	0.619948	49.846378	4.351437	47.143956	4.351437	3.377315E+15	0.000954	1029.271963	18.430183	1.05182	0	0
42.292606	5.519248	0.828569	49.727012	4.438434	46.933669	4.438434	3.213875E+15	0.000961	1023.515471	18.39212	1.046372	0	0
52.390387	0	0	49.608178	4.519787	46.726233	4.519787	3.057808E+15	0.000967	1018.446966	18.356321	1.040514	0	0
0	0	0	49.487424	4.597979	46.516958	4.597979	2.905802E+15	0.000973	1013.549652	18.42388	1.034113	0	0
0	0	0	49.371203	4.668526	46.317378	4.668526	2.765572E+15	0.000978	1009.629471	18.412715	1.028295	0	0
0	0	0	49.252859	4.736788	46.115346	4.736788	2.628706E+15	0.000983	1005.708336	18.386436	1.022039	0	0
0	0	0	49.133248	4.799916	45.913941	4.799916	2.496259E+15	0.000986	1003.955424	18.432594	1.015414	0	0
0	0	0	49.020989	4.857461	45.725114	4.857461	2.377161E+15	0.000989	1001.318316	18.435083	1.009424	0	0
0	0	0	48.900929	4.914278	45.525417	4.914278	2.255192E+15	0.000991	1000.282865	18.383757	1.003803	0	0
0	0	0	48.790915	4.965183	45.3424	4.965183	2.148176E+15	0.000994	998.047268	18.430995	0.997535	0	0
0	0	0	48.673061	5.016251	45.147908	5.016251	2.038405E+15	0.000996	996.650509	18.447538	0.992007	0	0
0	0	0	48.559086	5.063216	44.960743	5.063216	1.936886E+15	0.000998	995.411351	18.402524	0.986361	0	0
0	0	0	48.447357	5.106725	44.778361	5.106725	1.841646E+15	0.001	994.699688	18.430973	0.980066	0	0
0	0	0	48.330728	5.148672	44.589779	5.148672	1.746597E+15	0.000999	995.715203	18.464512	0.974036	0	0
0	0	0	48.221898	5.187023	44.413774	5.187023	1.661793E+15	0.001	995.386994	18.418571	0.968614	0	0
0	0	0	48.106412	5.223193	44.229729	5.223193	1.575768E+15	0.000997	998.840461	18.446436	0.962544	0	0
0	0	0	47.99501	5.257227	44.052283	5.257227	1.496518E+15	0.000995	1001.23386	18.488298	0.95699	0	0
0	0	0	47.884833	5.28858	43.878016	5.28858	1.421621E+15	0.000992	1004.963414	18.462837	0.951396	0	0
0	0	0	47.774003	5.320356	43.70205	5.320356	1.349649E+15	0.000991	1006.140138	18.442129	0.945591	0	0
0	0	0	47.657904	5.350149	43.519895	5.350149	1.277748E+15	0.000987	1010.824148	18.486741	0.939785	0	0
0	0	0	47.549932	5.377675	43.3502	5.377675	1.213969E+15	0.000984	1013.365515	18.453593	0.934416	0	0
0	0	0	47.433221	5.404805	43.168375	5.404805	1.148251E+15	0.00098	1018.648585	18.44104	0.928426	0	0
0	0	0	47.328394	5.429197	43.004668	5.429197	1.091971E+15	0.000977	1021.255574	18.481896	0.922858	0	0
0	0	0	47.213357	5.453576	42.82653	5.453576	1.033087E+15	0.000972	1026.739141	18.467802	0.917621	0	0
0	0	0	47.103507	5.476411	42.656419	5.476411	9.795587E+14	0.000969	1030.717119	18.433459	0.912067	0	0
0	0	0	46.994636	5.49733	42.488884	5.49733	9.290097E+14	0.000964	1036.42805	18.489787	0.906235	0	0
0	0	0	46.881437	5.518457	42.314868	5.518457	8.789863E+14	0.000959	1041.609729	18.479309	0.901197	0	0
0	0	0	46.771383	5.537846	42.146328	5.537846	8.327303E+14	0.000954	1047.331866	18.451529	0.89563	0	0
0	0	0	46.663452	5.55582	41.981629	5.55582	7.895503E+14	0.000948	1053.613425	18.496239	0.88989	0	0
0	0	0	46.548864	5.573253	41.807879	5.573253	7.459751E+14	0.00094	1062.797275	18.488044	0.884654	0	0
0	0	0	46.446119	5.588938	41.651804	5.588938	7.088072E+14	0.000935	1068.920626	18.428432	0.879589	0	0
0	0	0	46.334595	5.604342	41.483541	5.604342	6.70414E+14	0.000926	1078.618121	18.480704	0.873995	0	0
0	0	0	46.227521	5.619053	41.321837	5.619053	6.353837E+14	0.00092	1086.155975	18.495127	0.868943	0	0
0	0	0	46.117262	5.633013	41.15614	5.633013	6.01104E+14	0.000912	1095.997483	18.43889	0.863931	0	0
0	0	0	46.009535	5.646039	40.994586	5.646039	5.692916E+14	0.000904	1105.901716	18.467307	0.858509	0	0
0	0	0	45.900297	5.658714	40.831045	5.658714	5.386534E+14	0.000896	1115.996188	18.485047	0.853445	0	0
0	0	0	45.795511	5.670605	40.674228	5.670605	5.107294E+14	0.000889	1124.748512	18.414451	0.848803	0	0
0	0	0	45.682965	5.682233	40.506647	5.682233	4.822638E+14	0.000879	1137.007598	18.461253	0.843354	0	0
0	0	0	45.577525	5.692551	40.350011	5.692551	4.569645E+14	0.00087	1149.262165	18.486553	0.838475	0	0
0	0	0	45.468614	5.703028	40.188226	5.703028	4.321585E+14	0.000861	1160.785613	18.436945	0.833846	0	0
0	0	0	45.360274	5.712861	40.027682	5.712861	4.08758E+14	0.000852	1173.209867	18.444422	0.828662	0	0
0	0	0	45.252057	5.722379	39.867458	5.722379	3.86594E+14	0.000844	1185.175109	18.478601	0.823717	0	0
0	0	0	45.141799	5.731612	39.704504	5.731612	3.651964E+14	0.000835	1197.820232	18.4145	0.819313	0	0
0	0	0	45.033786	5.739842	39.545511	5.739842	3.453382E+14	0.000824	1213.164819	18.436706	0.814222	0	0
0	0	0	44.925814	5.74798	39.38654	5.74798	3.265263E+14	0.000815	1227.063578	18.463841	0.80954	0	0
0	0	0	44.817638	5.755881	39.227391	5.755881	3.086697E+14	0.000806	1240.536472	18.416373	0.805018	0	0
0	0	0	44.71036	5.763013	39.070134	5.763013	2.918932E+14	0.000795	1256.935674	18.400766	0.800178	0	0
0	0	0	44.603001	5.770224	38.912578	5.770224	2.759873E+14	0.000787	1270.662589	18.444002	0.795483	0	0
0	0	0	44.491803	5.776875	38.750089	5.776875	2.603978E+14	0.000776	1289.345685	18.396055	0.791198	0	0
0	0	0	44.387996	5.783496	38.597895	5.783496	2.466171E+14	0.000769	1301.059543	18.404959	0.786239	0	0
0	0	0	44.27496	5.789745	38.43303	5.789745	2.324164E+14	0.000757	1320.128159	18.436531	0.781743	0	0
0	0	0	44.167111	5.795506	38.275842	5.795506	2.196102E+14	0.000747	1338.150726	18.392031	0.777419	0	0
0	0	0	44.061753	5.800909	38.122431	5.800909	2.077643E+14	0.000737	1355.996249	18.360233	0.772711	0	0
0	0	0	43.953821	5.80633	37.96531	5.80633	1.962758E+14	0.000728	1373.295548	18.399727	0.768069	0	0
0	0	0	43.841643	5.811316	37.802593	5.811316	1.849929E+14	0.000716	1396.479352	18.350024	0.76397	0	0
0	0	0	43.734774	5.816248	37.647314	5.816248	1.74835E+14	0.000707	1414.203278	18.336514	0.759394	0	0
0	0	0	43.62084	5.821072	37.482147	5.821072	1.646067E+14	0.000696	1436.206032	18.383379	0.754991	0	0
0	0	0	43.514542	5.825245	37.328329	5.825245	1.555939E+14	0.000685	1459.121001	18.336712	0.750918	0	0
0	0	0	43.401384	5.829553	37.16466	5.829553	1.465313E+14	0.000674	1483.281577	18.308016	0.746289	0	0
0	0	0	43.292677	5.833607	37.007455	5.833607	1.383142E+14	0.000664	1505.513356	18.357699	0.741727	0	0
0	0	0	43.180254	5.837327	36.845326	5.837327	1.302928E+14	0.000652	1534.028432	18.299211	0.737971	0	0
0	0	0	43.066932	5.841296	36.681601	5.841296	1.226707E+14	0.000642	1556.612308	18.269873	0.733567	0	0
0	0	0	42.953366	5.844551	36.518256	5.844551	1.154731E+14	0.000629	1590.273558	18.320038	0.72923	0	0
0	0	0	42.842658	5.847562	36.359153	5.847562	1.088578E+14	0.000615	1624.749479	18.267935	0.725329	0	0
0	0	0	42.725947	5.850953	36.191129	5.850953	1.022885E+14	0.000604	1654.564893	18.223442	0.72115	0	0
0	0	0	42.617526	5.854172	36.034914	5.854172	9.653724E+13	0.000596	1678.195124	18.286386	0.71672	0	0
0	0	0	42.497221	5.85721	35.862124	5.85721	9.052897E+13	0.000583	1714.142379	18.233409	0.71307	0	0
0	0	0	42.370628	5.860234	35.680444	5.860234	8.460565E+13	0.00057	1753.788965	18.209884	0.708931	0	0
0	0	0	42.25845	5.862886	35.519439	5.862886	7.967824E+13	0.000559	1787.420018	18.247599	0.704646	0	0
0	0	0	42.138798	5.865532	35.347874	5.865532	7.473546E+13	0.000548	1826.050862	18.193255	0.701142	0	0
0	0	0	42.026702	5.867689	35.187478	5.867689	7.038084E+13	0.000535	1870.160239	18.14557	0.697029	0	0
0	0	0	41.905703	5.870383	35.013875	5.870383	6.596231E+13	0.000525	1903.598327	18.207104	0.692692	0	0
0	0	0	41.782908	5.872704	34.838138	5.872704	6.175946E+13	0.000513	1948.694976	18.147568	0.689253	0	0
0	0	0	41.668238	5.874778	34.674106	5.874778	5.807509E+13	0.000502	1992.035625	18.130829	0.685233	0	0
0	0	0	41.549036	5.876869	34.503632	5.876869	5.447627E+13	0.000491	2037.359582	18.171405	0.681239	0	0
0	0	0	41.434204	5.878822	34.339447	5.878822	5.121906E+13	0.00048	2081.168718	18.110273	0.677656	0	0
0	0	0	41.312674	5.880916	34.165621	5.880916	4.798245E+13	0.000471	2123.451441	18.07315	0.673807	0	0
0	0	0	41.191553	5.882683	33.992736	5.882683	4.495905E+13	0.000459	2177.922124	18.121597	0.6698	0	0
0	0	0	41.072759	5.884399	33.823164	5.884399	4.217788E+13	0.000448	2230.056878	18.056247	0.666468	0	0
0	0	0	40.950699	5.886037	33.649055	5.886037	3.949841E+13	0.000437	2288.127436	18.040682	0.662501	0	0
0	0	0	40.829822	5.887698	33.47656	5.887698	3.701194E+13	0.000427	2340.983642	18.077585	0.65856	0	0
0	0	0	40.701677	5.889074	33.294144	5.889074	3.454588E+13	0.000413	2418.508875	17.995486	0.655267	0	0
0	0	0	40.577085	5.890881	33.116169	5.890881	3.230518E+13	0.000406	2460.549216	17.964498	0.651353	0	0
0	0	0	40.449593	5.892319	32.934544	5.892319	3.016212E+13	0.000396	2528.202848	18.004844	0.647399	0	0
0	0	0	40.32398	5.893537	32.755825	5.893537	2.818922E+13	0.000383	2607.999799	17.935572	0.644079	0	0
0	0	0	40.19808	5.894957	32.57642	5.894957	2.634087E+13	0.000375	2669.835406	17.946867	0.640139	0	0
0	0	0	40.066587	5.896104	32.389454	5.896104	2.453924E+13	0.000362	2760.739571	17.990069	0.636436	0	0
0	0	0	39.937992	5.897467	32.206275	5.897467	2.289622E+13	0.000354	2825.075801	17.911215	0.633196	0	0
0	0	0	39.804824	5.898468	32.017096	5.898468	2.13103E+13	0.000341	2929.736131	17.879609	0.629427	0	0
0	0	0	39.674229	5.899644	31.831294	5.899644	1.986148E+13	0.000332	3010.270846	17.913789	0.625751	0	0
0	0	0	39.537181	5.900809	31.636385	5.900809	1.844662E+13	0.000323	3099.266974	17.822635	0.62267	0	0
0	0	0	39.403115	5.901699	31.446028	5.901699	1.71599E+13	0.000311	3215.002246	17.841091	0.618927	0	0
0	0	0	39.264066	5.902675	31.248509	5.902675	1.59199E+13	0.000301	3327.602664	17.85686	0.615436	0	0
0	0	0	39.125181	5.903764	31.051048	5.903764	1.477064E+13	0.000292	3420.842277	17.781319	0.612315	0	0
0	0	0	38.984009	5.904706	30.85054	5.904706	1.36873E+13	0.000283	3536.907958	17.777523	0.608745	0	0
0	0	0	38.840223	5.905597	30.646396	5.905597	1.26654E+13	0.000273	3664.022943	17.786974	0.605372	0	0
0	0	0	38.696519	5.906331	30.442568	5.906331	1.17202E+13	0.000262	3818.701153	17.693793	0.602291	0	0
0	0	0	38.54914	5.906847	30.233847	5.906847	1.082394E+13	0.000248	4027.739111	17.726834	0.598522	0	0
0	0	0	38.400209	5.908013	30.022003	5.908013	9.98776E+12	0.000244	4102.650942	17.72232	0.595335	0	0
0	0	0	38.244866	5.908798	29.801628	5.908798	9.184253E+12	0.000234	4269.288901	17.6487	0.592254	0	0
0	0	0	38.088789	5.909432	29.580418	5.909432	8.441964E+12	0.000223	4475.973736	17.666971	0.588723	0	0
0	0	0	37.936468	5.91015	29.364374	5.91015	7.775367E+12	0.000215	4652.033793	17.635109	0.585615	0	0
0	0	0	37.777859	5.910574	29.139869	5.910574	7.137075E+12	0.000203	4934.63876	17.551224	0.582455	0	0
0	0	0	37.621455	5.911353	28.917943	5.911353	6.558944E+12	0.000196	5102.543853	17.603616	0.578712	0	0
0	0	0	37.457047	5.91199	28.684912	5.91199	6.001604E+12	0.000187	5337.915716	17.561995	0.575896	0	0
0	0	0	37.2966	5.912793	28.457211	5.912793	5.503353E+12	0.000182	5493.219314	17.502042	0.572656	0	0
0	0	0	37.129333	5.91327	28.220354	5.91327	5.027881E+12	0.000172	5799.275954	17.529927	0.569165	0	0
0	0	0	36.964925	5.913709	27.987581	5.913709	4.600564E+12	0.000163	6123.656492	17.47418	0.566282	0	0
0	0	0	36.795576	5.91444	27.747373	5.91444	4.198321E+12	0.000158	6318.673728	17.402971	0.563081	0	0
0	0	0	36.623041	5.914607	27.50352	5.914607	3.824642E+12	0.000146	6837.710766	17.450428	0.559564	0	0
0	0	0	36.449404	5.915547	27.256907	5.915547	3.482132E+12	0.000145	6903.562251	17.377667	0.556945	0	0
0	0	0	36.273521	5.915795	27.008182	5.915795	3.166438E+12	0.000135	7415.653338	17.347924	0.553573	0	0
0	0	0	36.093105	5.916388	26.752508	5.916388	2.87231E+12	0.00013	7711.335205	17.376661	0.550439	0	0
0	0	0	35.910075	5.916594	26.493743	5.916594	2.601816E+12	0.00012	8335.171876	17.29172	0.547741	0	0
0	0	0	35.721288	5.91719	26.226216	5.91719	2.349466E+12	0.000115	8659.69439	17.254905	0.544435	0	0
0	0	0	35.536175	5.917514	25.964304	5.917514	2.125803E+12	0.000108	9228.250125	17.28034	0.541354	0	0
0	0	0	35.342651	5.918002	25.690238	5.918002	1.914702E+12	0.000103	9672.78451	17.177006	0.538815	0	0
0	0	0	35.149535	5.918174	25.417255	5.918174	1.724939E+12	9.511783E-5	10513.27584	17.198373	0.535377	0	0
0	0	0	34.953029	5.918683	25.13892	5.918683	1.551136E+12	9.130177E-5	10952.690041	17.189064	0.532587	0	0
0	0	0	34.751133	5.919224	24.852907	5.919224	1.390784E+12	8.817425E-5	11341.17934	17.119557	0.52977	0	0
0	0	0	34.548951	5.919463	24.566985	5.919463	1.246814E+12	8.182833E-5	12220.706682	17.140946	0.526609	0	0
0	0	0	34.342277	5.919733	24.274658	5.919733	1.115034E+12	7.62209E-5	13119.76065	17.107714	0.523951	0	0
0	0	0	34.130784	5.919827	23.975822	5.919827	9.945867E+11	6.898068E-5	14496.81234	17.011498	0.521267	0	0
0	0	0	33.914555	5.920193	23.669821	5.920193	8.848803E+11	6.508965E-5	15363.425407	17.052678	0.517894	0	0
0	0	0	33.695344	5.920584	23.359555	5.920584	7.86006E+11	6.181331E-5	16177.744717	16.996963	0.515435	0	0
0	0	0	33.472131	5.920733	23.044053	5.920733	6.966701E+11	5.626862E-5	17771.893656	16.96051	0.512393	0	0
0	0	0	33.247816	5.921234	22.726363	5.921234	6.171191E+11	5.482565E-5	18239.637803	16.986946	0.509471	0	0
0	0	0	33.013046	5.921232	22.394794	5.921232	5.435709E+11	4.827214E-5	20715.884724	16.891394	0.507209	0	0
0	0	0	32.774519	5.92181	22.056869	5.92181	4.778163E+11	4.79725E-5	20845.277463	16.863987	0.504115	0	0
0	0	0	32.536891	5.921897	21.72109	5.921897	4.202194E+11	4.303729E-5	23235.662759	16.873353	0.501311	0	0
0	0	0	32.292648	5.922062	21.375822	5.922062	3.682458E+11	3.920238E-5	25508.652274	16.781719	0.498944	0	0
0	0	0	32.051467	5.922343	21.034657	5.922343	3.232349E+11	3.689295E-5	27105.448579	16.800816	0.495784	0	0
0	0	0	31.810123	5.922513	20.693462	5.922513	2.837004E+11	3.385366E-5	29538.904737	16.79969	0.493231	0	0
0	0	0	31.563796	5.922754	20.345089	5.922754	2.483315E+11	3.168051E-5	31565.145738	16.696745	0.490851	0	0
0	0	0	31.316	5.923079	19.994471	5.923079	2.171992E+11	3.055812E-5	32724.528602	16.712636	0.487717	0	0
0	0	0	31.066978	5.922959	19.642968	5.922959	1.89844E+11	2.573569E-5	38856.552069	16.660514	0.485416	0	0
0	0	0	30.82204	5.92314	19.296655	5.92314	1.663007E+11	2.385342E-5	41922.714863	16.563004	0.482784	0	0
0	0	0	30.573305	5.923241	18.945125	5.923241	1.453782E+11	2.155723E-5	46388.157035	16.612871	0.479928	0	0
0	0	0	30.324365	5.923433	18.593124	5.923433	1.27074E+11	2.013402E-5	49667.178636	16.548805	0.4776	0	0
0	0	0	30.074282	5.923789	18.239175	5.923789	1.110057E+11	2.013623E-5	49661.723976	16.50778	0.47481	0	0
0	0	0	29.824811	5.923791	17.88679	5.923791	9.700136E+10	1.761208E-5	56779.225951	16.537867	0.472073	0	0
0	0	0	29.573993	5.923995	17.532091	5.923995	8.470202E+10	1.677919E-5	59597.646916	16.450098	0.469838	0	0
0	0	0	29.320275	5.924102	17.173491	5.924102	7.384633E+10	1.535564E-5	65122.641384	16.42011	0.466955	0	0
0	0	0	29.067496	5.92409	16.816457	5.92409	6.441463E+10	1.332285E-5	75059.033963	16.42149	0.464508	0	0
0	0	0	28.81141	5.924405	16.45407	5.924405	5.608716E+10	1.359019E-5	73582.480821	16.314024	0.462313	0	0
0	0	0	28.555038	5.9244	16.091942	5.9244	4.882871E+10	1.17974E-5	84764.466223	16.346457	0.459404	0	0
0	0	0	28.299687	5.924571	15.730883	5.924571	4.253307E+10	1.132747E-5	88280.942326	16.306184	0.45709	0	0
0	0	0	28.04209	5.924781	15.366561	5.924781	3.700418E+10	1.127154E-5	88718.988673	16.23874	0.454551	0	0
0	0	0	27.78486	5.924683	15.003413	5.924683	3.220039E+10	9.196525E-6	108736.724057	16.244094	0.451919	0	0
0	0	0	27.527875	5.924736	14.640289	5.924736	2.802392E+10	8.285325E-6	120695.330981	16.145232	0.449962	0	0
0	0	0	27.267787	5.924802	14.27275	5.924802	2.434827E+10	7.528478E-6	132828.973169	16.095708	0.447317	0	0
0	0	0	27.007168	5.92477	13.904675	5.92477	2.114864E+10	6.396374E-6	156338.586178	16.100986	0.444685	0	0
0	0	0	26.747529	5.924993	13.537418	5.924993	1.837922E+10	6.549642E-6	152680.109622	15.999759	0.442808	0	0
0	0	0	26.482214	5.924941	13.162752	5.924941	1.592352E+10	5.448367E-6	183541.238818	16.013438	0.440004	0	0
0	0	0	26.21747	5.925065	12.788496	5.925065	1.380019E+10	5.22172E-6	191507.784346	15.996221	0.437769	0	0
0	0	0	25.951542	5.925392	12.412099	5.925392	1.195235E+10	6.264148E-6	159638.638674	15.894991	0.43564	0	0
0	0	0	25.683532	5.925164	12.034028	5.925164	1.034028E+10	4.270613E-6	234158.402967	15.935951	0.432916	0	0
0	0	0	25.417277	5.92534	11.657505	5.92534	8.954135E+9	4.423236E-6	226078.800578	15.866376	0.430774	0	0
0	0	0	25.149757	5.92538	11.279508	5.92538	7.748502E+9	4.002767E-6	249827.159337	15.792748	0.428433	0	0
0	0	0	24.881419	5.925387	10.900434	5.925387	6.702243E+9	3.489496E-6	286574.373448	15.808178	0.425986	0	0
0	0	0	24.609284	5.925602	10.515497	5.925602	5.785367E+9	4.029173E-6	248189.87123	15.703105	0.424069	0	0
0	0	0	24.336047	5.925824	10.128979	5.925824	4.990945E+9	5.329876E-6	187621.63766	15.70322	0.421384	0	0
0	0	0	24.061462	5.925655	9.741496	5.925655	4.302475E+9	3.26477E-6	306300.286702	15.692498	0.419163	0	0
0	0	0	23.787693	5.925328	9.355554	5.925328	3.710612E+9	1.808592E-6	552916.316913	15.590838	0.417087	0	0
0	0	0	23.497876	5.925655	8.945351	5.925655	3.172525E+9	2.40824E-6	415241.07022	15.595786	0.414521	0	0
0	0	0	23.213817	5.92557	8.544288	5.92557	2.720923E+9	1.804298E-6	554232.18863	15.50612	0.412564	0	0
0	0	0	22.927552	5.925877	8.139135	5.925877	2.330826E+9	2.849946E-6	350883.830738	15.431562	0.41025	0	0
0	0	0	22.646025	5.925609	7.742107	5.925609	2.001776E+9	1.41006E-6	709189.89588	15.448852	0.407935	0	0
0	0	0	22.365559	5.925877	7.345232	5.925877	1.720166E+9	2.103925E-6	475302.214475	15.334532	0.406044	0	0
0	0	0	22.080438	5.925916	6.942353	5.925916	1.474458E+9	2.021441E-6	494696.655622	15.362258	0.403505	0	0
0	0	0	21.791682	5.92589	6.534508	5.92589	1.261366E+9	1.600629E-6	624754.228367	15.33749	0.401429	0	0
0	0	0	21.504969	5.925988	6.129225	5.925988	1.080262E+9	1.902701E-6	525568.608761	15.242279	0.399274	0	0
0	0	0	21.215478	5.926015	5.720204	5.926015	9.237732E+8	1.815017E-6	550959.000819	15.256476	0.396867	0	0
0	0	0	20.923333	5.926106	5.30726	5.926106	7.888208E+8	2.600208E-6	384584.628093	15.155286	0.395082	0	0
0	0	0	20.630902	5.926139	4.894065	5.926139	6.734792E+8	2.929259E-6	341383.207103	15.113904	0.392569	0	0
0	0	0	20.334755	5.926008	4.476055	5.926008	5.73849E+8	1.09619E-6	912250.458248	15.103529	0.390427	0	0
0	0	0	20.038894	5.926028	4.05805	5.926028	4.89033E+8	1.020063E-6	980331.273868	14.996412	0.388522	0	0
0	0	0	19.739562	5.925923	3.635477	5.925923	4.159717E+8	5.823651E-7	1717135.951296	15.010406	0.386116	0	0
0	0	0	19.434472	5.926119	3.203953	5.926119	3.527261E+8	1.288174E-6	776292.510731	14.952798	0.384211	0	0
0	0	0	19.129423	5.926021	2.773288	5.926021	2.991032E+8	6.054585E-7	1651640.941062	14.895399	0.381924	0	0
0	0	0	18.82274	5.926243	2.33943	5.926243	2.534084E+8	-4.904693E-5	-20388.635687	14.904095	0.379702	0	0
0	0	0	18.512341	5.926126	1.901265	5.926126	2.142636E+8	8.270316E-7	1209143.711556	14.769396	0.378141	0	0
0	0	0	18.203984	5.926198	1.465454	5.926198	1.813657E+8	1.858849E-6	537967.394135	14.765174	0.375669	0	0
0	0	0	17.891257	5.926263	1.023487	5.926263	1.531568E+8	-3.109463E-6	-321598.917904	14.723716	0.373844	0	0
0	0	0	17.575631	5.926315	0.577457	5.926315	1.291328E+8	-7.745724E-7	-1291034.89754	14.645424	0.371754	0	0
0	0	0	17.257269	5.926087	0.128372	5.926087	1.087163E+8	3.132007E-7	3192840.85495	14.662271	0.369532	0	0
0	0	0	16.935028	5.92623	-0.327267	5.92623	9.133594E+7	3.786522E-6	264094.577222	14.553042	0.368025	0	0
0	0	0	16.615318	5.926276	-0.779049	5.926276	7.683928E+7	-9.769374E-7	-1023607.034599	14.554041	0.365737	0	0
0	0	0	16.290463	5.926263	-1.237927	5.926263	6.446395E+7	-1.307666E-6	-764721.228286	14.514956	0.363912	0	0
0	0	0	15.966833	5.926204	-1.694939	5.926204	5.411755E+7	6.533725E-7	1530520.485729	14.419216	0.362074	0	0
0	0	0	15.643121	5.926433	-2.152925	5.926433	4.542973E+7	-1.054019E-7	-9487497.194128	14.445947	0.359694	0	0
0	0	0	15.316592	5.926256	-2.613678	5.926256	3.807857E+7	-1.099637E-6	-909391.293299	14.331656	0.358199	0	0
0	0	0	14.986959	5.926145	-3.079006	5.926145	3.186343E+7	1.482384E-7	6745892.236226	14.274398	0.355991	0	0
0	0	0	14.655815	5.92625	-3.547126	5.92625	2.664095E+7	-1.335198E-6	-748952.714041	14.255431	0.354272	0	0
0	0	0	14.323119	5.926407	-4.017604	5.926407	2.225577E+7	-5.977891E-8	-1.672831E+7	14.153722	0.352407	0	0
0	0	0	13.981726	5.9264	-4.499868	5.9264	1.850518E+7	-5.174506E-8	-1.932552E+7	14.187008	0.350186	0	0
0	0	0	13.646457	5.926367	-4.973396	5.926367	1.543769E+7	-5.431631E-8	-1.841068E+7	14.081493	0.348691	0	0
0	0	0	13.30976	5.926302	-5.448839	5.926302	1.286872E+7	-9.365298E-8	-1.067772E+7	14.065858	0.346549	0	0
0	0	0	12.976737	5.926237	-5.919086	5.926237	1.074859E+7	1.143311E-6	874652.696999	14.045291	0.344843	0	0
0	0	0	12.644082	5.926413	-6.389588	5.926413	8979539.5	-2.320359E-8	-4.309677E+7	13.928045	0.343164	0	0
0	0	0	12.306282	5.926302	-6.866437	5.926302	7480808	-5.444098E-8	-1.836851E+7	13.945541	0.340995	0	0
0	0	0	11.973627	5.926426	-7.336778	5.926426	6249581.5	-1.50103E-8	-6.66209E+7	13.831834	0.33954	0	0
0	0	0	11.643545	5.926296	-7.802654	5.926296	5228262.5	-4.259924E-8	-2.34746E+7	13.792537	0.337543	0	0
0	0	0	11.311911	5.926426	-8.27158	5.926426	4370182	-1.049632E-8	-9.527147E+7	13.744573	0.33597	0	0
0	0	0	10.982646	5.926348	-8.73647	5.926348	3657612	-1.522857E-8	-6.566604E+7	13.663039	0.334039	0	0
0	0	0	10.651502	5.926485	-9.204733	5.926485	3058122	-5.575588E-9	-1.793533E+8	13.708416	0.332148	0	0
0	0	0	10.324156	5.926322	-9.666623	5.926322	2562144.5	-1.411984E-8	-7.082234E+7	13.567318	0.330799	0	0
0	0	0	9.99244	5.926256	-10.135012	5.926256	2141542	-6.181149E-8	-1.617822E+7	13.569232	0.328617	0	0
0	0	0	9.664481	5.926504	-10.599162	5.926504	1793624.5	-3.027071E-9	-3.303524E+8	13.516911	0.327294	0	0
0	0	0	9.338034	5.926335	-11.059749	5.926335	1503458	-7.131484E-9	-1.402233E+8	13.430634	0.325589	0	0
0	0	0	9.014649	5.926211	-11.516161	5.926211	1262321.5	1.853061E-8	5.396477E+7	13.439346	0.323724	0	0
0	0	0	8.695307	5.926361	-11.967813	5.926361	1062179	-3.940646E-9	-2.537655E+8	13.309392	0.322402	0	0
0	0	0	8.37037	5.926433	-12.4271	5.926433	891071	-2.067275E-9	-4.837286E+8	13.32026	0.320352	0	0
0	0	0	8.051559	5.926589	-12.878036	5.926589	750006	-9.573939E-10	-1.044502E+9	13.221891	0.319029	0	0
0	0	0	7.730583	5.926472	-13.331062	5.926472	630535	-1.214615E-9	-8.233059E+8	13.154912	0.317112	0	0
0	0	0	7.409077	5.926576	-13.785627	5.926576	529943	-7.028228E-10	-1.422834E+9	13.15206	0.315472	0	0
0	0	0	7.093737	5.926648	-14.231368	5.926648	446885.5	-4.881259E-10	-2.048652E+9	13.029169	0.31415	0	0
0	0	0	6.775415	5.926544	-14.680685	5.926544	376239	-5.527924E-10	-1.808997E+9	13.061506	0.312153	0	0
0	0	0	6.459953	5.926491	-15.126149	5.926491	317251	-5.633341E-10	-1.775145E+9	12.943981	0.31091	0	0
0	0	0	6.144858	5.92655	-15.571499	5.92655	267563.5	-3.848193E-10	-2.598622E+9	12.953487	0.30886	0	0
0	0	0	5.829354	5.926622	-16.017477	5.926622	225609	-2.633193E-10	-3.79767E+9	12.885597	0.30771	0	0
0	0	0	5.511441	5.926498	-16.466134	5.926498	189985.5	-3.287812E-10	-3.041536E+9	12.80771	0.306004	0	0
0	0	0	5.192181	5.926491	-16.917129	5.926491	159870	-2.838769E-10	-3.522654E+9	12.800092	0.304311	0	0
0	0	0	4.859036	5.926674	-17.388448	5.926674	133522.5	-1.370534E-10	-7.296429E+9	12.675615	0.303041	0	0
0	0	0	4.541246	5.926511	-17.836778	5.926511	112446.5	-1.851855E-10	-5.39999E+9	12.703775	0.300992	0	0
0	0	0	4.220719	5.9264	-18.289164	5.9264	94557.5	-2.643993E-10	-3.782158E+9	12.553225	0.300026	0	0
0	0	0	3.90056	5.926524	-18.741924	5.926524	79530	-1.249348E-10	-8.004177E+9	12.525297	0.298135	0	0
0	0	0	3.582852	5.926531	-19.190776	5.926531	66979.5	-1.028471E-10	-9.723174E+9	12.481003	0.2968	0	0
0	0	0	3.266001	5.926648	-19.638846	5.926648	56436	-6.164413E-11	-1.622215E+10	12.3962	0.295199	0	0
0	0	0	2.939635	5.926557	-20.099551	5.926557	47308	-6.663308E-11	-1.500756E+10	12.379525	0.29356	0	0
0	0	0	2.621599	5.926622	-20.549096	5.926622	39835.5	-4.649396E-11	-2.150817E+10	12.259129	0.292277	0	0
0	0	0	2.30336	5.926498	-20.998187	5.926498	33539.5	-5.804209E-11	-1.722888E+10	12.287687	0.290478	0	0
0	0	0	1.98949	5.926361	-21.441049	5.926361	28305.5	-1.050122E-10	-9.522704E+9	12.166222	0.289341	0	0
0	0	0	1.692567	5.926491	-21.861028	5.926491	24108	-4.280792E-11	-2.336016E+10	12.166221	0.287529	0	0
0	0	0	1.430478	5.926393	-22.23089	5.926393	20923.5	-6.101029E-11	-1.639068E+10	12.087658	0.286313	0	0
0	0	0	1.206081	5.926387	-22.547867	5.926387	18533	-5.64567E-11	-1.771269E+10	12.028736	0.284647	0	0
0	0	0	1.01374	5.926648	-22.820635	5.926648	16703	-1.824441E-11	-5.481129E+10	12.006096	0.283351	0	0
0	0	0	0.856805	5.92674	-23.042708	5.92674	15344.5	-1.368763E-11	-7.305865E+10	11.873554	0.282041	0	0
0	0	0	0.721554	5.926622	-23.233303	5.926622	14262.5	-1.664646E-11	-6.007283E+10	11.882785	0.280375	0	0
0	0	0	0.605333	5.92672	-23.397886	5.92672	13394	-1.243634E-11	-8.040952E+10	11.750523	0.279317	0	0
0	0	0	0.511042	5.926589	-23.530564	5.926589	12728.5	-1.624811E-11	-6.15456E+10	11.775896	0.27736	0	0
0	0	0	0.429818	5.92657	-23.64523	5.92657	12181.5	-1.647618E-11	-6.069367E+10	11.626272	0.276553	0	0
0	0	0	0.363009	5.926727	-23.740248	5.926727	11749.5	-1.076271E-11	-9.291342E+10	11.611148	0.274689	0	0
0	0	0	0.313025	5.926426	-23.809638	5.926426	11436.5	-2.746809E-11	-3.640588E+10	11.526434	0.273525	0	0
0	0	0	0.266553	5.926393	-23.875156	5.926393	11152.5	-3.251928E-11	-3.075099E+10	11.4811	0.271991	0	0
0	0	0	0.230331	5.926505	-23.926779	5.926505	10936.5	-1.845733E-11	-5.417903E+10	11.432947	0.270735	0	0
0	0	0	0.197866	5.926655	-23.973255	5.926655	10746	-1.155243E-11	-8.65619E+10	11.324456	0.26924	0	0
0	0	0	0.180061	5.92655	-23.997982	5.92655	10643	-1.530714E-11	-6.532901E+10	11.328641	0.267878	0	0
0	0	0	0.152619	5.926341	-24.035896	5.926341	10486.5	-4.650299E-11	-2.150399E+10	11.220432	0.266648	0	0
0	0	0	0.131302	5.926505	-24.066677	5.926505	10366	-1.74945E-11	-5.716081E+10	11.234258	0.265088	0	0
0	0	0	0.120522	5.926616	-24.08236	5.926616	10306	-1.223834E-11	-8.171042E+10	11.101915	0.264202	0	0
0	0	0	0.112109	5.926713	-24.094645	5.926713	10259.5	-9.6576E-12	-1.035454E+11	11.090201	0.26247	0	0
0	0	0	0.103738	5.926472	-24.105484	5.926472	10213	-1.967355E-11	-5.082968E+10	10.985661	0.261623	0	0
0	0	0	0.089037	5.926648	-24.126973	5.926648	10132	-1.106702E-11	-9.035857E+10	10.967295	0.260023	0	0
0	0	0	0.076377	5.926772	-24.145364	5.926772	10063	-8.424771E-12	-1.186976E+11	10.888876	0.25882	0	0
0	0	0	0.064984	5.926478	-24.160258	5.926478	10001	-1.873532E-11	-5.337512E+10	10.855819	0.257365	0	0
0	0	0	0.056531	5.926681	-24.173028	5.926681	9955.5	-1.006706E-11	-9.933389E+10	10.783136	0.25632	0	0
0	0	0	0.051998	5.926531	-24.178817	5.926531	9931	-1.524906E-11	-6.557782E+10	10.710822	0.254826	0	0
0	0	0	0.048567	5.926602	-24.183957	5.926602	9913	-1.219693E-11	-8.198783E+10	10.687947	0.253755	0	0
0	0	0	0.045831	5.926629	-24.187929	5.926629	9898	-1.135782E-11	-8.804504E+10	10.566873	0.252565	0	0
0	0	0	0.043463	5.926511	-24.190794	5.926511	9885.5	-1.62802E-11	-6.142432E+10	10.553041	0.251229	0	0
0	0	0	0.042238	5.92655	-24.192685	5.92655	9879	-1.420832E-11	-7.038128E+10	10.442174	0.250039	0	0
0	0	0	0.040278	5.926518	-24.195321	5.926518	9868.5	-1.586853E-11	-6.30178E+10	10.445343	0.248677	0	0
0	0	0	0.037337	5.926616	-24.199875	5.926616	9853	-1.170041E-11	-8.546713E+10	10.319446	0.247897	0	0
0	0	0	0.035214	5.926629	-24.202928	5.926629	9841.5	-1.129299E-11	-8.85505E+10	10.32813	0.24631	0	0
0	0	0	0.033907	5.926322	-24.203519	5.926322	9834.5	-5.419702E-11	-1.84512E+10	10.169635	0.245384	0	0
0	0	0	0.032764	5.926531	-24.205989	5.926531	9828.5	-1.509167E-11	-6.626172E+10	10.199491	0.243929	0	0
0	0	0	0.031498	5.926518	-24.207724	5.926518	9822	-1.579376E-11	-6.331614E+10	10.072536	0.243057	0	0
0	0	0	0.029823	5.926563	-24.210276	5.926563	9813	-1.354154E-11	-7.384682E+10	10.088605	0.24147	0	0
0	0	0	0.029783	5.926635	-24.210628	5.926635	9812.5	-1.107317E-11	-9.030837E+10	9.932262	0.240689	0	0
0	0	0	0.028598	5.926446	-24.211526	5.926446	9806.5	-2.13E-11	-4.694836E+10	9.950594	0.239261	0	0
0	0	0	0.027618	5.926655	-24.213766	5.926655	9801	-1.053651E-11	-9.490809E+10	9.800922	0.238468	0	0
0	0	0	0.027618	5.926505	-24.213151	5.926505	9801	-1.654096E-11	-6.045597E+10	9.817708	0.236907	0	0
0	0	0	0.027128	5.926537	-24.213977	5.926537	9798.5	-1.471391E-11	-6.79629E+10	9.67709	0.236273	0	0
0	0	0	0.028966	5.926674	-24.211942	5.926674	9808	-1.006736E-11	-9.93309E+10	9.698717	0.234633	0	0
0	0	0	0.029129	5.926452	-24.210803	5.926452	9809	-2.064704E-11	-4.843309E+10	9.55433	0.233919	0	0
0	0	0	0.027822	5.926609	-24.21329	5.926609	9802.5	-1.184697E-11	-8.440974E+10	9.566407	0.232477	0	0
0	0	0	0.028517	5.926433	-24.211588	5.926433	9806	-2.274979E-11	-4.395645E+10	9.418699	0.231776	0	0
0	0	0	0.028353	5.926766	-24.213181	5.926766	9805	-8.310922E-12	-1.203236E+11	9.447684	0.230123	0	0
0	0	0	0.031294	5.926498	-24.207932	5.926498	9820.5	-1.699496E-11	-5.884098E+10	9.299977	0.229502	0	0
0	0	0	0.030518	5.926478	-24.208948	5.926478	9816.5	-1.838969E-11	-5.43783E+10	9.315144	0.227981	0	0
0	0	0	0.030599	5.926616	-24.209394	5.926616	9817	-1.165766E-11	-8.578054E+10	9.152929	0.227267	0	0
0	0	0	0.031498	5.9264	-24.207243	5.9264	9822	-2.746403E-11	-3.641127E+10	9.156778	0.225944	0	0
0	0	0	0.030599	5.926367	-24.208379	5.926367	9817	-3.453942E-11	-2.895243E+10	9.029561	0.225217	0	0
0	0	0	0.031498	5.926655	-24.208285	5.926655	9822	-1.055909E-11	-9.470517E+10	9.06463	0.223749	0	0
0	0	0	0.031212	5.926426	-24.207754	5.926426	9820.5	-2.35868E-11	-4.23966E+10	8.917951	0.222929	0	0
0	0	0	0.030967	5.92655	-24.208608	5.92655	9819	-1.412203E-11	-7.081135E+10	8.928987	0.22162	0	0
0	0	0	0.029701	5.926524	-24.210289	5.926524	9812.5	-1.541459E-11	-6.487361E+10	8.806876	0.220721	0	0
0	0	0	0.030844	5.926563	-24.208834	5.926563	9818	-1.354844E-11	-7.380921E+10	8.783632	0.219637	0	0
0	0	0	0.030028	5.926459	-24.209561	5.926459	9814	-2.003833E-11	-4.990435E+10	8.674959	0.218737	0	0
0	0	0	0.030028	5.926413	-24.209374	5.926413	9814	-2.535959E-11	-3.943282E+10	8.643196	0.217745	0	0
0	0	0	0.031171	5.926563	-24.208373	5.926563	9820	-1.35512E-11	-7.379418E+10	8.591598	0.216383	0	0
0	0	0	0.028966	5.926472	-24.211114	5.926472	9808	-1.889338E-11	-5.292858E+10	8.516883	0.215577	0	0
0	0	0	0.029415	5.926687	-24.211361	5.926687	9810.5	-9.775312E-12	-1.022985E+11	8.472713	0.214241	0	0
0	0	0	0.028312	5.926478	-24.212064	5.926478	9805	-1.836814E-11	-5.444208E+10	8.341438	0.213672	0	0
0	0	0	0.027169	5.926622	-24.214267	5.926622	9799	-1.143689E-11	-8.743634E+10	8.333709	0.212257	0	0
0	0	0	0.027128	5.92657	-24.214111	5.92657	9798.5	-1.325304E-11	-7.54544E+10	8.216709	0.211623	0	0
0	0	0	0.025821	5.92657	-24.215957	5.92657	9792	-1.324425E-11	-7.550449E+10	8.202818	0.210459	0	0
0	0	0	0.025781	5.926407	-24.215347	5.926407	9791.5	-2.629914E-11	-3.802406E+10	8.09261	0.20952	0	0
0	0	0	0.02378	5.926478	-24.218467	5.926478	9781	-1.832318E-11	-5.457567E+10	8.084589	0.20833	0	0
0	0	0	0.02231	5.926505	-24.220651	5.926505	9773.5	-1.649455E-11	-6.062608E+10	7.9545	0.207338	0	0
0	0	0	0.02186	5.926498	-24.221259	5.926498	9771	-1.690929E-11	-5.913907E+10	7.885336	0.206452	0	0
0	0	0	0.019614	5.9267	-24.22526	5.9267	9759	-9.44759E-12	-1.058471E+11	7.793757	0.205341	0	0
0	0	0	0.0199	5.926583	-24.224375	5.926583	9760.5	-1.269738E-11	-7.875643E+10	7.709082	0.20472	0	0
0	0	0	0.018185	5.92672	-24.227359	5.92672	9751.5	-9.054275E-12	-1.104451E+11	7.65822	0.203463	0	0
0	0	0	0.016756	5.926498	-24.22847	5.926498	9744	-1.686257E-11	-5.930294E+10	7.552685	0.202749	0	0
0	0	0	0.016837	5.926825	-24.229691	5.926825	9744	-7.427381E-12	-1.34637E+11	7.575118	0.20144	0	0
0	0	0	0.017409	5.926629	-24.228081	5.926629	9747.5	-1.118513E-11	-8.940444E+10	7.467726	0.200713	0	0
0	0	0	0.016633	5.926485	-24.22859	5.926485	9743.5	-1.776436E-11	-5.629247E+10	7.431655	0.199655	0	0
0	0	0	0.016102	5.92687	-24.230916	5.92687	9740.5	-6.88535E-12	-1.452359E+11	7.325127	0.198729	0	0
0	0	0	0.014755	5.926629	-24.231831	5.926629	9733.5	-1.116906E-11	-8.953303E+10	7.244718	0.198015	0	0
0	0	0	0.015735	5.926733	-24.230874	5.926733	9738.5	-8.802231E-12	-1.136076E+11	7.227475	0.196798	0	0
0	0	0	0.014918	5.926746	-24.232081	5.926746	9734	-8.570703E-12	-1.166765E+11	7.106515	0.196124	0	0
0	0	0	0.015817	5.92657	-24.230091	5.92657	9739	-1.317256E-11	-7.591538E+10	7.07386	0.195132	0	0
0	0	0	0.013244	5.926609	-24.233886	5.926609	9725.5	-1.175391E-11	-8.507804E+10	6.969979	0.19414	0	0
0	0	0	0.015163	5.926629	-24.231254	5.926629	9735.5	-1.117136E-11	-8.951464E+10	6.893444	0.193294	0	0
0	0	0	0.01353	5.926635	-24.233589	5.926635	9727	-1.097669E-11	-9.110218E+10	6.848516	0.19221	0	0
0	0	0	0.015612	5.926668	-24.23078	5.926668	9737.5	-1.014792E-11	-9.854237E+10	6.734734	0.191707	0	0
0	0	0	0.017287	5.926524	-24.227827	5.926524	9746.5	-1.531091E-11	-6.531291E+10	6.734294	0.19049	0	0
0	0	0	0.01549	5.926563	-24.230526	5.926563	9737	-1.343667E-11	-7.442321E+10	6.661078	0.189512	0	0
0	0	0	0.017532	5.92657	-24.227668	5.92657	9748	-1.318473E-11	-7.584529E+10	6.591363	0.18893	0	0
0	0	0	0.017409	5.926727	-24.228482	5.926727	9747.5	-8.928848E-12	-1.119965E+11	6.526056	0.187859	0	0
0	0	0	0.018716	5.926465	-24.225567	5.926465	9754	-1.93362E-11	-5.171647E+10	6.401682	0.187039	0	0
0	0	0	0.018879	5.926537	-24.22563	5.926537	9755	-1.464859E-11	-6.826596E+10	6.324831	0.186338	0	0
0	0	0	0.019124	5.926485	-24.225071	5.926485	9756	-1.778715E-11	-5.622035E+10	6.25678	0.185201	0	0
0	0	0	0.02039	5.926713	-24.224217	5.926713	9763	-9.190228E-12	-1.088112E+11	6.139545	0.184434	0	0
0	0	0	0.022228	5.92672	-24.221648	5.92672	9772.5	-9.073773E-12	-1.102077E+11	6.1289	0.183468	0	0
0	0	0	0.022677	5.926583	-24.220452	5.926583	9775	-1.271624E-11	-7.86396E+10	6.043205	0.182688	0	0
0	0	0	0.023535	5.92655	-24.219107	5.92655	9779.5	-1.406522E-11	-7.109736E+10	5.955808	0.182027	0	0
0	0	0	0.0228	5.926485	-24.219879	5.926485	9775.5	-1.782271E-11	-5.61082E+10	5.91852	0.181062	0	0
0	0	0	0.023739	5.926191	-24.21735	5.926191	9780.5	8.719855E-11	1.146808E+10	5.819827	0.180162	0	0
0	0	0	0.023045	5.926746	-24.220601	5.926746	9777	-8.608564E-12	-1.161634E+11	5.726878	0.179462	0	0
0	0	0	0.02382	5.926687	-24.219264	5.926687	9781	-9.745918E-12	-1.026071E+11	5.686231	0.178456	0	0
0	0	0	0.025536	5.926531	-24.2162	5.926531	9790.5	-1.503332E-11	-6.651891E+10	5.599985	0.177637	0	0
0	0	0	0.023861	5.926518	-24.218512	5.926518	9781	-1.572783E-11	-6.358155E+10	5.516675	0.176922	0	0
0	0	0	0.025576	5.92642	-24.215688	5.92642	9790.5	-2.43742E-11	-4.102699E+10	5.467822	0.176103	0	0
0	0	0	0.024678	5.926648	-24.217893	5.926648	9785.5	-1.068854E-11	-9.355813E+10	5.398168	0.175164	0	0
0	0	0	0.02378	5.926426	-24.218254	5.926426	9781	-2.349192E-11	-4.256782E+10	5.27825	0.174701	0	0
0	0	0	0.023698	5.926433	-24.218396	5.926433	9780.5	-2.269063E-11	-4.407105E+10	5.249321	0.17355	0	0
0	0	0	0.022595	5.926563	-24.220488	5.926563	9774.5	-1.348842E-11	-7.413769E+10	5.142739	0.172876	0	0
0	0	0	0.021329	5.926655	-24.22265	5.926655	9768	-1.050103E-11	-9.522872E+10	5.077193	0.172135	0	0
0	0	0	0.021942	5.926478	-24.221063	5.926478	9771	-1.830445E-11	-5.463152E+10	4.994645	0.171434	0	0
0	0	0	0.021901	5.926883	-24.222777	5.926883	9771	-6.766468E-12	-1.477876E+11	4.934681	0.170535	0	0
0	0	0	0.020431	5.926563	-24.223545	5.926563	9763.5	-1.347324E-11	-7.422121E+10	4.821956	0.169821	0	0
0	0	0	0.019573	5.926576	-24.22481	5.926576	9758.5	-1.294195E-11	-7.726813E+10	4.763244	0.168935	0	0
0	0	0	0.016797	5.926439	-24.228172	5.926439	9744	-2.186135E-11	-4.574282E+10	4.68287	0.168142	0	0
0	0	0	0.016592	5.926674	-24.229422	5.926674	9743	-1.000064E-11	-9.999358E+10	4.622669	0.167348	0	0
0	0	0	0.014959	5.926707	-24.231863	5.926707	9734.5	-9.291811E-12	-1.076216E+11	4.502775	0.166661	0	0
0	0	0	0.015326	5.926661	-24.231157	5.926661	9736	-1.030401E-11	-9.704964E+10	4.423367	0.165933	0	0
0	0	0	0.013489	5.926766	-24.234181	5.926766	9726.5	-8.244384E-12	-1.212947E+11	4.374525	0.165074	0	0
0	0	0	0.013325	5.926622	-24.233824	5.926622	9726	-1.135169E-11	-8.809261E+10	4.317472	0.164227	0	0
0	0	0	0.01063	5.926642	-24.237711	5.926642	9711.5	-1.078059E-11	-9.27593E+10	4.226488	0.16354	0	0
0	0	0	0.011324	5.926746	-24.237158	5.926746	9715.5	-8.554414E-12	-1.168987E+11	4.154538	0.162759	0	0
0	0	0	0.010671	5.926648	-24.23768	5.926648	9712	-1.060826E-11	-9.426617E+10	4.054047	0.162178	0	0
0	0	0	0.010753	5.926733	-24.237912	5.926733	9712.5	-8.77873E-12	-1.139117E+11	3.993487	0.161371	0	0
0	0	0	0.009569	5.926681	-24.239372	5.926681	9706	-9.814762E-12	-1.018873E+11	3.90041	0.160617	0	0
0	0	0	0.009977	5.926648	-24.238661	5.926648	9708.5	-1.060444E-11	-9.430016E+10	3.829387	0.159757	0	0
0	0	0	0.008874	5.926785	-24.24078	5.926785	9702.5	-7.928071E-12	-1.261341E+11	3.745617	0.159215	0	0
0	0	0	0.009977	5.926681	-24.238795	5.926681	9708.5	-9.81729E-12	-1.018611E+11	3.678332	0.158356	0	0
0	0	0	0.009201	5.926537	-24.239303	5.926537	9704	-1.4572E-11	-6.862474E+10	3.621398	0.157628	0	0
0	0	0	0.009854	5.926668	-24.238914	5.926668	9707.5	-1.011665E-11	-9.884691E+10	3.560045	0.156928	0	0
0	0	0	0.010549	5.926485	-24.237185	5.926485	9711	-1.770511E-11	-5.648087E+10	3.46598	0.156306	0	0
0	0	0	0.009078	5.92687	-24.240839	5.92687	9703.5	-6.859195E-12	-1.457897E+11	3.437227	0.155526	0	0
0	0	0	0.00965	5.926694	-24.23931	5.926694	9706.5	-9.532244E-12	-1.049071E+11	3.37971	0.154838	0	0
0	0	0	0.011488	5.926622	-24.23642	5.926622	9716	-1.134002E-11	-8.818327E+10	3.358061	0.154071	0	0
0	0	0	0.012141	5.9267	-24.235817	5.9267	9719.5	-9.409351E-12	-1.062773E+11	3.320264	0.153278	0	0
0	0	0	0.012468	5.926798	-24.235757	5.926798	9721	-7.757077E-12	-1.289145E+11	3.288829	0.152696	0	0
0	0	0	0.012345	5.926602	-24.235128	5.926602	9720.5	-1.196008E-11	-8.361148E+10	3.246721	0.152074	0	0
0	0	0	0.013489	5.92657	-24.233379	5.92657	9726.5	-1.315565E-11	-7.601295E+10	3.209727	0.151347	0	0
0	0	0	0.015122	5.92672	-24.231686	5.92672	9735.5	-9.039419E-12	-1.106266E+11	3.164888	0.15058	0	0
0	0	0	0.017123	5.926642	-24.228539	5.926642	9746	-1.081889E-11	-9.243094E+10	3.147933	0.149972	0	0
0	0	0	0.018144	5.926472	-24.226402	5.926472	9751	-1.878358E-11	-5.323798E+10	3.123761	0.149218	0	0
0	0	0	0.018553	5.926727	-24.226867	5.926727	9753.5	-8.934344E-12	-1.119276E+11	3.097659	0.148543	0	0
0	0	0	0.017368	5.926511	-24.227658	5.926511	9747	-1.605211E-11	-6.229712E+10	3.073554	0.147922	0	0
0	0	0	0.018308	5.926524	-24.226385	5.926524	9752	-1.531955E-11	-6.527607E+10	3.03614	0.147195	0	0
0	0	0	0.01892	5.926531	-24.225546	5.926531	9755.5	-1.497958E-11	-6.675756E+10	3.016352	0.146599	0	0
0	0	0	0.019165	5.926472	-24.224959	5.926472	9756.5	-1.879418E-11	-5.320796E+10	2.991582	0.145806	0	0
0	0	0	0.022636	5.926681	-24.220911	5.926681	9774.5	-9.88403E-12	-1.011733E+11	2.956362	0.145171	0	0
0	0	0	0.021493	5.92657	-24.222072	5.92657	9769	-1.321314E-11	-7.568225E+10	2.910695	0.144457	0	0
0	0	0	0.022065	5.926655	-24.221612	5.926655	9772	-1.050533E-11	-9.518974E+10	2.880573	0.143888	0	0
0	0	0	0.020023	5.926629	-24.224389	5.926629	9761	-1.120062E-11	-8.928079E+10	2.86433	0.143214	0	0
0	0	0	0.020594	5.926798	-24.224276	5.926798	9764	-7.79139E-12	-1.283468E+11	2.830674	0.14246	0	0
0	0	0	0.020962	5.926616	-24.223009	5.926616	9766	-1.159709E-11	-8.622851E+10	2.799949	0.141971	0	0
0	0	0	0.02284	5.926655	-24.220515	5.926655	9776	-1.050963E-11	-9.515079E+10	2.768634	0.14123	0	0
0	0	0	0.021329	5.926707	-24.222864	5.926707	9768	-9.323788E-12	-1.072526E+11	2.727115	0.140649	0	0
0	0	0	0.01892	5.926478	-24.225332	5.926478	9755.5	-1.827541E-11	-5.471832E+10	2.701526	0.139948	0	0
0	0	0	0.020227	5.926877	-24.225116	5.926877	9762	-6.829671E-12	-1.464199E+11	2.682088	0.139286	0	0
0	0	0	0.019247	5.926668	-24.225646	5.926668	9757	-1.016824E-11	-9.834543E+10	2.640107	0.138771	0	0
0	0	0	0.017205	5.926426	-24.227542	5.926426	9746	-2.340786E-11	-4.272069E+10	2.606736	0.138057	0	0
0	0	0	0.017409	5.926635	-24.228108	5.926635	9747.5	-1.099982E-11	-9.091058E+10	2.577985	0.137567	0	0
0	0	0	0.017001	5.926648	-24.228738	5.926648	9745	-1.06443E-11	-9.394695E+10	2.565511	0.136787	0	0
0	0	0	0.014918	5.926713	-24.231948	5.926713	9734	-9.16293E-12	-1.091354E+11	2.523401	0.136298	0	0
0	0	0	0.013489	5.926753	-24.234127	5.926753	9726.5	-8.454808E-12	-1.182759E+11	2.492722	0.135584	0	0
0	0	0	0.01304	5.926407	-24.233346	5.926407	9724	-2.611784E-11	-3.8288E+10	2.463156	0.135081	0	0
0	0	0	0.012917	5.926511	-24.233946	5.926511	9723.5	-1.60134E-11	-6.244769E+10	2.434277	0.134327	0	0
0	0	0	0.011406	5.92674	-24.237016	5.92674	9715.5	-8.666441E-12	-1.153876E+11	2.402838	0.133693	0	0
0	0	0	0.01112	5.92657	-24.236725	5.92657	9714	-1.313875E-11	-7.611076E+10	2.390542	0.133018	0	0
0	0	0	0.010263	5.926531	-24.237776	5.926531	9709.5	-1.490894E-11	-6.707383E+10	2.349428	0.132489	0	0
0	0	0	0.008058	5.926668	-24.241453	5.926668	9698.5	-1.010728E-11	-9.893863E+10	2.301813	0.131868	0	0
0	0	0	0.007486	5.926877	-24.243115	5.926877	9695	-6.782797E-12	-1.474318E+11	2.276346	0.131365	0	0
0	0	0	0.008384	5.926642	-24.240884	5.926642	9699.5	-1.076727E-11	-9.287406E+10	2.25249	0.13077	0	0
0	0	0	0.008425	5.926589	-24.240613	5.926589	9700	-1.238219E-11	-8.076116E+10	2.219222	0.130016	0	0
0	0	0	0.005403	5.926616	-24.244989	5.926616	9684	-1.149972E-11	-8.695865E+10	2.196033	0.129329	0	0
0	0	0	0.007363	5.9267	-24.242567	5.9267	9694.5	-9.385148E-12	-1.065513E+11	2.141605	0.128892	0	0
0	0	0	0.006669	5.926674	-24.243441	5.926674	9691	-9.947267E-12	-1.005301E+11	2.130008	0.128191	0	0
0	0	0	0.005158	5.926759	-24.245923	5.926759	9683	-8.310934E-12	-1.203234E+11	2.100754	0.127583	0	0
0	0	0	0.006669	5.926511	-24.242773	5.926511	9691	-1.595988E-11	-6.265711E+10	2.05643	0.127081	0	0
0	0	0	0.007037	5.926537	-24.242361	5.926537	9692.5	-1.455474E-11	-6.870616E+10	2.047613	0.126525	0	0
0	0	0	0.004913	5.926602	-24.245628	5.926602	9682	-1.191271E-11	-8.394396E+10	2.041418	0.125811	0	0
0	0	0	0.006996	5.926661	-24.242926	5.926661	9692.5	-1.025797E-11	-9.748519E+10	1.978221	0.125309	0	0
0	0	0	0.008384	5.926609	-24.240751	5.926609	9699.5	-1.172249E-11	-8.53061E+10	1.962939	0.124634	0	0
0	0	0	0.008588	5.926648	-24.240623	5.926648	9701	-1.059624E-11	-9.437306E+10	1.920555	0.124277	0	0
0	0	0	0.008384	5.926642	-24.240884	5.926642	9699.5	-1.076727E-11	-9.287406E+10	1.933279	0.123576	0	0
0	0	0	0.00818	5.926681	-24.241333	5.926681	9699	-9.807683E-12	-1.019609E+11	1.877636	0.123127	0	0
0	0	0	0.010508	5.926465	-24.237163	5.926465	9711	-1.925096E-11	-5.194547E+10	1.856951	0.122465	0	0
0	0	0	0.010753	5.926707	-24.237805	5.926707	9712.5	-9.270812E-12	-1.078654E+11	1.813093	0.122002	0	0
0	0	0	0.011815	5.9267	-24.236279	5.9267	9718	-9.407899E-12	-1.062937E+11	1.803926	0.121368	0	0
0	0	0	0.014183	5.926616	-24.232585	5.926616	9730.5	-1.155494E-11	-8.65431E+10	1.763615	0.121037	0	0
0	0	0	0.014224	5.926531	-24.23218	5.926531	9730.5	-1.494119E-11	-6.692907E+10	1.760587	0.120389	0	0
0	0	0	0.015857	5.926596	-24.23014	5.926596	9739	-1.220328E-11	-8.19452E+10	1.704152	0.119979	0	0
0	0	0	0.016797	5.926583	-24.22876	5.926583	9744	-1.267591E-11	-7.888979E+10	1.70252	0.119358	0	0
0	0	0	0.017327	5.926348	-24.227048	5.926348	9747	-4.058161E-11	-2.464171E+10	1.653794	0.118815	0	0
0	0	0	0.017654	5.926589	-24.227575	5.926589	9748.5	-1.24441E-11	-8.035936E+10	1.653077	0.11826	0	0
0	0	0	0.018512	5.926557	-24.22623	5.926557	9753	-1.373705E-11	-7.279583E+10	1.613238	0.117784	0	0
0	0	0	0.019043	5.926616	-24.22572	5.926616	9756	-1.158522E-11	-8.631689E+10	1.593207	0.117229	0	0
0	0	0	0.017082	5.9264	-24.227608	5.9264	9745.5	-2.725012E-11	-3.669709E+10	1.542928	0.116726	0	0
0	0	0	0.018634	5.926635	-24.226377	5.926635	9754	-1.100715E-11	-9.085E+10	1.562609	0.116025	0	0
0	0	0	0.018634	5.926537	-24.225977	5.926537	9754	-1.464709E-11	-6.827296E+10	1.534778	0.115708	0	0
0	0	0	0.018267	5.92657	-24.226629	5.92657	9752	-1.319014E-11	-7.581418E+10	1.522714	0.115139	0	0
0	0	0	0.019328	5.926642	-24.225423	5.926642	9757.5	-1.083165E-11	-9.232201E+10	1.467618	0.114716	0	0
0	0	0	0.019737	5.926596	-24.224659	5.926596	9759.5	-1.222896E-11	-8.177307E+10	1.465526	0.114015	0	0
0	0	0	0.019533	5.926387	-24.224093	5.926387	9758.5	-2.972712E-11	-3.363932E+10	1.397324	0.113724	0	0
0	0	0	0.017858	5.926622	-24.22742	5.926622	9749.5	-1.137912E-11	-8.788027E+10	1.424233	0.113116	0	0
0	0	0	0.017858	5.926498	-24.226912	5.926498	9749.5	-1.687209E-11	-5.926949E+10	1.355367	0.11264	0	0
0	0	0	0.015939	5.926524	-24.229731	5.926524	9739.5	-1.529991E-11	-6.535985E+10	1.382427	0.112031	0	0
0	0	0	0.016797	5.926655	-24.229054	5.926655	9744	-1.047523E-11	-9.546328E+10	1.320713	0.111635	0	0
0	0	0	0.014796	5.926602	-24.231667	5.926602	9733.5	-1.197608E-11	-8.349981E+10	1.338929	0.111026	0	0
0	0	0	0.014346	5.926903	-24.23353	5.926903	9731	-6.539318E-12	-1.529212E+11	1.287638	0.110643	0	0
0	0	0	0.012509	5.926518	-24.23455	5.926518	9721.5	-1.563216E-11	-6.39707E+10	1.302348	0.109955	0	0
0	0	0	0.010834	5.926518	-24.236915	5.926518	9712.5	-1.561768E-11	-6.402998E+10	1.255789	0.109678	0	0
0	0	0	0.011324	5.926792	-24.237345	5.926792	9715.5	-7.844588E-12	-1.274764E+11	1.24313	0.109201	0	0
0	0	0	0.009895	5.926681	-24.23891	5.926681	9707.5	-9.816279E-12	-1.018716E+11	1.210153	0.108673	0	0
0	0	0	0.008384	5.926642	-24.240884	5.926642	9699.5	-1.076727E-11	-9.287406E+10	1.181604	0.108144	0	0
0	0	0	0.007731	5.926544	-24.241407	5.926544	9696.5	-1.424666E-11	-7.019188E+10	1.143317	0.107853	0	0
0	0	0	0.006342	5.926707	-24.244036	5.926707	9689	-9.24838E-12	-1.08127E+11	1.170765	0.107205	0	0
0	0	0	0.00524	5.926753	-24.245781	5.926753	9683.5	-8.41743E-12	-1.188011E+11	1.118885	0.106861	0	0
0	0	0	0.006097	5.926648	-24.244142	5.926648	9688	-1.058204E-11	-9.44997E+10	1.143212	0.106305	0	0
0	0	0	0.005076	5.926642	-24.245557	5.926642	9682.5	-1.07484E-11	-9.303713E+10	1.074642	0.105948	0	0
0	0	0	0.004586	5.926452	-24.245475	5.926452	9680	-2.037551E-11	-4.907854E+10	1.090622	0.105287	0	0
0	0	0	0.003566	5.926687	-24.247879	5.926687	9674.5	-9.6398E-12	-1.037366E+11	1.0517	0.104957	0	0
0	0	0	0.004586	5.926413	-24.245314	5.926413	9680	-2.501333E-11	-3.997868E+10	1.081105	0.104599	0	0
0	0	0	0.004341	5.926753	-24.24705	5.926753	9678.5	-8.413083E-12	-1.188625E+11	0	0	0	0
0	0	0	0.004995	5.926629	-24.245619	5.926629	9682	-1.110997E-11	-9.000927E+10	0	0	0	0
0	0	0	0.004056	5.926602	-24.246839	5.926602	9677	-1.190656E-11	-8.398733E+10	0	0	0	0
0	0	0	0.004341	5.926766	-24.247103	5.926766	9678.5	-8.203698E-12	-1.218962E+11	0	0	0	0
0	0	0	0.005567	5.926694	-24.245079	5.926694	9685	-9.51113E-12	-1.0514E+11	0	0	0	0
0	0	0	0.005648	5.926387	-24.243707	5.926387	9685.5	-2.950474E-11	-3.389286E+10	0	0	0	0
0	0	0	0.007077	5.926766	-24.243238	5.926766	9693	-8.215989E-12	-1.217139E+11	0	0	0	0
0	0	0	0.006669	5.92674	-24.243708	5.92674	9691	-8.644587E-12	-1.156793E+11	0	0	0	0
0	0	0	0.008139	5.926589	-24.241017	5.926589	9698.5	-1.238028E-11	-8.077365E+10	0	0	0	0
0	0	0	0.009569	5.926766	-24.239719	5.926766	9706	-8.227008E-12	-1.215509E+11	0	0	0	0
0	0	0	0.009078	5.926988	-24.24132	5.926988	9703.5	-5.779574E-12	-1.730231E+11	0	0	0	0
0	0	0	0.010181	5.926648	-24.238373	5.926648	9709	-1.060498E-11	-9.42953E+10	0	0	0	0
0	0	0	0.010222	5.9264	-24.2373	5.9264	9709.5	-2.714946E-11	-3.683315E+10	0	0	0	0
0	0	0	0.010753	5.926511	-24.237004	5.926511	9712.5	-1.599529E-11	-6.251841E+10	0	0	0	0
0	0	0	0.013652	5.92672	-24.233763	5.92672	9727.5	-9.031991E-12	-1.107176E+11	0	0	0	0
0	0	0	0.013816	5.926459	-24.232463	5.926459	9728.5	-1.986376E-11	-5.034294E+10	0	0	0	0
0	0	0	0.014428	5.926779	-24.232907	5.926779	9731.5	-8.048316E-12	-1.242496E+11	0	0	0	0
0	0	0	0.015122	5.926733	-24.231739	5.926733	9735.5	-8.799519E-12	-1.136426E+11	0	0	0	0
0	0	0	0.016347	5.926616	-24.229528	5.926616	9742	-1.156859E-11	-8.644094E+10	0	0	0	0
0	0	0	0.016429	5.926616	-24.229412	5.926616	9742	-1.156859E-11	-8.644094E+10	0	0	0	0
0	0	0	0.017287	0	0.017287	0	9746.5	0	0	0	0	0	0
0	0	0	0.016674	0	0.016674	0	9743.5	0	0	0	0	0	0
