Vload_(V)	ILoad_(A)	RsLoad (ohm)	SunsVoc_Voltage_(V)	SunsVoc_Current_(A)	Model_Voltage_(V)	Model_Current_(A)	Carrier_Density_(cm-3)	Lifetime_(s)	Inverse_Lifetime_(s-1)	Efficiency_(%)	Intensity_(suns)	Dark_IV_Voltage_(V)	Dark_IV_Current_(A)
3.197567	6.041068	0	52.16251	-0.372945	52.379996	-0.372945	8.212977E+15	0.00057	1643.610298	19.664793	1.156887	0	0
3.166459	6.041059	2.111915	52.765585	-0.732989	53.169553	-0.732989	1.014411E+16	0.000666	1330.340264	19.663935	1.155301	0	0
3.26198	6.039431	3.909631	52.913944	-0.600706	53.240274	-0.600706	1.067366E+16	0.000715	1209.703484	19.684606	1.155341	0	0
5.966795	6.035283	4.476227	52.88985	-0.255724	53.029098	-0.255724	1.058611E+16	0.000748	1151.105235	19.544756	1.154151	0	0
10.99709	6.01809	4.669772	52.805809	0.117002	52.741576	0.117002	1.028544E+16	0.000772	1119.146571	19.68237	1.152883	0	0
15.231038	6.016607	4.0049	52.696734	0.483944	52.428251	0.483944	9.906001E+15	0.000793	1098.189018	19.442141	1.153081	0	0
19.498228	6.009701	3.442063	52.581534	0.83637	52.112414	0.83637	9.518128E+15	0.000814	1078.850645	19.598005	1.15094	0	0
23.827103	5.999052	2.883138	52.464456	1.161463	51.805767	1.161463	9.137097E+15	0.000833	1061.929515	19.380636	1.151812	0	0
28.130884	5.997896	2.180863	52.343579	1.467242	51.502057	1.467242	8.757222E+15	0.000852	1046.796622	19.459433	1.149592	0	0
32.497285	5.991963	1.520632	52.22258	1.747326	51.209189	1.747326	8.390303E+15	0.000869	1033.544384	19.38777	1.149989	0	0
36.785161	5.945859	1.136226	52.103215	2.005759	50.927224	2.005759	8.041023E+15	0.000886	1020.793279	19.307096	1.148799	0	0
37.84951	5.918365	1.076129	51.982257	2.249724	50.648773	2.249724	7.699548E+15	0.000903	1008.519507	19.377212	1.149117	0	0
38.9111	5.882114	1.015675	51.862157	2.484832	50.373464	2.484832	7.37254E+15	0.000922	994.111568	19.183192	1.149077	0	0
39.978489	5.827591	0.969588	51.733971	2.711036	50.091298	2.711036	7.036352E+15	0.00094	981.693264	19.347891	1.148244	0	0
41.029376	5.761015	0.913527	51.604069	2.914321	49.818113	2.914321	6.708766E+15	0.000954	972.999564	19.134725	1.149196	0	0
42.085736	5.666609	0.864971	51.48013	3.101339	49.559149	3.101339	6.408121E+15	0.00097	963.094719	19.29958	1.147095	0	0
43.130855	5.536941	0.821329	51.35954	3.275736	49.309553	3.275736	6.126414E+15	0.000986	952.384197	19.166824	1.148165	0	0
44.175949	5.355454	0.785323	51.241114	3.443074	49.064747	3.443074	5.859832E+15	0.001003	939.65446	19.203141	1.14654	0	0
45.19407	5.12138	0.749431	51.1106	3.602192	48.808682	3.602192	5.577249E+15	0.001017	931.382757	19.22038	1.146738	0	0
46.186991	4.821899	0.717142	50.990377	3.742837	48.574682	3.742837	5.327029E+15	0.001031	922.734778	19.102981	1.145985	0	0
47.18294	4.434287	0.687496	50.870726	3.873831	48.345864	3.873831	5.087305E+15	0.001044	914.696337	19.266393	1.144439	0	0
48.144681	3.944677	0.669619	50.753566	3.993404	48.125918	3.993404	4.861303E+15	0.001056	907.656891	19.067151	1.144042	0	0
49.065999	3.382224	0.650786	50.635671	4.109055	47.906193	4.109055	4.642348E+15	0.001069	899.768869	19.260257	1.141941	0	0
49.927828	2.74197	0.644272	50.51459	4.218579	47.685229	4.218579	4.426055E+15	0.00108	893.116364	19.071538	1.141902	0	0
50.769415	2.033029	0.659733	50.397634	4.316886	47.475521	4.316886	4.22514E+15	0.00109	887.713714	19.190103	1.139404	0	0
51.526845	1.327739	0.66261	50.27688	4.410641	47.263014	4.410641	4.025712E+15	0.001098	883.53613	19.110808	1.139206	0	0
52.168304	0.690803	0.611632	50.160659	4.498916	47.058699	4.498916	3.841228E+15	0.001108	878.010243	19.089422	1.136708	0	0
42.664903	5.597363	0.843015	50.041866	4.58513	46.85153	4.58513	3.659996E+15	0.001118	872.003484	19.176983	1.135123	0	0
52.707697	0	0	49.919601	4.664931	46.643444	4.664931	3.480978E+15	0.001125	868.579734	19.013732	1.133973	0	0
0	0	0	49.801379	4.738616	46.443717	4.738616	3.314902E+15	0.001132	865.007636	19.18322	1.131674	0	0
0	0	0	49.684872	4.807788	46.248443	4.807788	3.157783E+15	0.001139	861.399902	18.970852	1.131198	0	0
0	0	0	49.569509	4.872493	46.056974	4.872493	3.008419E+15	0.001145	858.168789	19.128099	1.128502	0	0
0	0	0	49.448592	4.935517	45.858924	4.935517	2.858295E+15	0.00115	855.926431	18.968661	1.128383	0	0
0	0	0	49.333024	4.992297	45.671413	4.992297	2.720773E+15	0.001154	854.234529	19.019961	1.125925	0	0
0	0	0	49.217416	5.045993	45.485435	5.045993	2.588851E+15	0.001157	852.927506	19.004238	1.12545	0	0
0	0	0	49.100705	5.098479	45.298298	5.098479	2.461221E+15	0.001162	850.865648	18.922274	1.123507	0	0
0	0	0	48.987261	5.147507	45.117272	5.147507	2.342341E+15	0.001166	848.45529	19.038786	1.122754	0	0
0	0	0	48.870427	5.193154	44.933892	5.193154	2.225073E+15	0.001167	848.422945	18.863966	1.121763	0	0
0	0	0	48.755064	5.236439	44.75363	5.236439	2.114258E+15	0.001169	848.098856	19.057688	1.119464	0	0
0	0	0	48.642355	5.275376	44.579585	5.275376	2.010613E+15	0.001168	849.375137	18.867165	1.119464	0	0
0	0	0	48.528298	5.313739	44.403791	5.313739	1.910225E+15	0.001168	849.873128	19.020333	1.116609	0	0
0	0	0	48.41318	5.349582	44.22814	5.349582	1.813338E+15	0.001167	851.769864	18.929922	1.11649	0	0
0	0	0	48.301941	5.382886	44.059041	5.382886	1.723806E+15	0.001165	853.388169	18.942508	1.113874	0	0
0	0	0	48.183719	5.415916	43.880775	5.415916	1.632909E+15	0.001162	856.20185	19.002083	1.112724	0	0
0	0	0	48.074441	5.44547	43.716406	5.44547	1.552654E+15	0.00116	858.321863	18.876878	1.110663	0	0
0	0	0	47.958424	5.474781	43.543194	5.474781	1.471269E+15	0.001156	861.646534	19.050311	1.108483	0	0
0	0	0	47.845878	5.501437	43.376263	5.501437	1.395945E+15	0.001151	865.765705	18.854534	1.107254	0	0
0	0	0	47.733169	5.527364	43.209398	5.527364	1.32396E+15	0.001146	869.317693	19.048321	1.104003	0	0
0	0	0	47.61948	5.55235	43.04173	5.55235	1.254716E+15	0.001142	872.984094	18.876414	1.103448	0	0
0	0	0	47.505914	5.575442	42.875492	5.575442	1.188797E+15	0.001136	878.137226	18.970016	1.100395	0	0
0	0	0	47.392633	5.597697	42.710047	5.597697	1.126157E+15	0.00113	882.929049	18.924469	1.099404	0	0
0	0	0	47.281598	5.618117	42.548795	5.618117	1.067661E+15	0.001123	888.637567	18.87993	1.096629	0	0
0	0	0	47.170278	5.637627	42.387704	5.637627	1.011786E+15	0.001116	894.662057	18.977497	1.095004	0	0
0	0	0	47.058018	5.656475	42.225725	5.656475	9.581409E+14	0.001108	900.801621	18.816063	1.093299	0	0
0	0	0	46.947514	5.673687	42.067215	5.673687	9.078781E+14	0.001099	908.295538	18.985958	1.090842	0	0
0	0	0	46.836847	5.690726	41.90844	5.690726	8.59968E+14	0.001092	914.574326	18.781392	1.090207	0	0
0	0	0	46.722464	5.707052	41.745243	5.707052	8.128967E+14	0.001083	922.588063	18.952647	1.087075	0	0
0	0	0	46.61343	5.722047	41.589993	5.722047	7.702467E+14	0.001074	930.083244	18.830891	1.086441	0	0
0	0	0	46.499945	5.736598	41.429152	5.736598	7.28059E+14	0.001064	939.209189	18.887666	1.083706	0	0
0	0	0	46.39034	5.750481	41.273797	5.750481	6.893561E+14	0.001055	946.809926	18.897097	1.082834	0	0
0	0	0	46.279795	5.76328	41.118024	5.76328	6.522667E+14	0.001045	956.665343	18.81197	1.080495	0	0
0	0	0	46.167862	5.775793	40.960543	5.775793	6.166149E+14	0.001034	966.474919	18.947241	1.078711	0	0
0	0	0	46.056092	5.787842	40.803548	5.787842	5.828412E+14	0.001024	976.109688	18.769053	1.077284	0	0
0	0	0	45.946201	5.79899	40.649691	5.79899	5.51334E+14	0.001013	986.531396	18.969202	1.074548	0	0
0	0	0	45.830021	5.810094	40.487513	5.810094	5.197713E+14	0.001001	998.496355	18.786642	1.073795	0	0
0	0	0	45.721477	5.820315	40.336014	5.820315	4.918311E+14	0.000991	1008.577644	18.930126	1.070386	0	0
0	0	0	45.605991	5.830225	40.175595	5.830225	4.636677E+14	0.000978	1021.863703	18.853804	1.069355	0	0
0	0	0	45.493609	5.839377	40.01983	5.839377	4.377356E+14	0.000965	1035.456211	18.854158	1.06662	0	0
0	0	0	45.382574	5.848299	39.86594	5.848299	4.134736E+14	0.000954	1047.76226	18.909605	1.065034	0	0
0	0	0	45.265578	5.856798	39.704529	5.856798	3.89299E+14	0.00094	1063.800679	18.786266	1.062933	0	0
0	0	0	45.154584	5.864922	39.551244	5.864922	3.676182E+14	0.000928	1076.903836	18.959036	1.060079	0	0
0	0	0	45.038199	5.872939	39.390893	5.872939	3.46129E+14	0.000916	1091.731595	18.755636	1.058929	0	0
0	0	0	44.92598	5.880157	39.236683	5.880157	3.265545E+14	0.000903	1107.518735	18.947903	1.05552	0	0
0	0	0	44.812373	5.887114	39.080819	5.887114	3.078252E+14	0.000889	1124.130529	18.779754	1.054806	0	0
0	0	0	44.698766	5.893922	38.925016	5.893922	2.901337E+14	0.000877	1139.953431	18.883776	1.051555	0	0
0	0	0	44.584097	5.9003	38.768162	5.9003	2.732748E+14	0.000864	1157.841907	18.849773	1.050287	0	0
0	0	0	44.470367	5.906134	38.613002	5.906134	2.574923E+14	0.000849	1177.901012	18.802703	1.047948	0	0
0	0	0	44.353166	5.912476	38.452704	5.912476	2.421539E+14	0.000838	1193.651762	18.909417	1.046164	0	0
0	0	0	44.240988	5.917691	38.300061	5.917691	2.28306E+14	0.000823	1214.72649	18.753554	1.04438	0	0
0	0	0	44.122235	5.923284	38.13833	5.923284	2.144862E+14	0.00081	1234.390691	18.942081	1.041843	0	0
0	0	0	44.008015	5.92807	37.983309	5.92807	2.019646E+14	0.000795	1257.654836	18.759083	1.040654	0	0
0	0	0	43.896286	5.932916	37.831445	5.932916	1.904074E+14	0.000783	1276.799982	18.941048	1.037482	0	0
0	0	0	43.777084	5.937568	37.669893	5.937568	1.787896E+14	0.000768	1301.285859	18.872125	1.036689	0	0
0	0	0	43.663722	5.941792	37.516407	5.941792	1.683856E+14	0.000755	1325.298708	18.977002	1.033439	0	0
0	0	0	43.543866	5.946098	37.354242	5.946098	1.580307E+14	0.00074	1350.895797	19.007836	1.032408	0	0
0	0	0	43.427114	5.950098	37.196427	5.950098	1.485454E+14	0.000726	1376.64068	18.938251	1.030069	0	0
0	0	0	43.309546	5.953808	37.037792	5.953808	1.39559E+14	0.000711	1405.518373	19.093027	1.027651	0	0
0	0	0	43.188343	5.957424	36.874426	5.957424	1.308543E+14	0.000696	1436.900977	18.912009	1.026105	0	0
0	0	0	43.074245	5.960971	36.720443	5.960971	1.231491E+14	0.000684	1462.071714	19.108563	1.023092	0	0
0	0	0	42.950715	5.964272	36.554259	5.964272	1.153102E+14	0.000668	1497.110396	18.914267	1.02218	0	0
0	0	0	42.828654	5.967106	36.390471	5.967106	1.080482E+14	0.00065	1538.773808	19.058572	1.018929	0	0
0	0	0	42.709983	5.970075	36.230965	5.970075	1.01421E+14	0.000636	1573.535648	18.956922	1.01778	0	0
0	0	0	42.58731	5.972949	36.066252	5.972949	9.499214E+13	0.00062	1612.005728	18.967064	1.014886	0	0
0	0	0	42.467373	5.975873	35.905052	5.975873	8.909645E+13	0.000608	1644.896719	19.007511	1.013181	0	0
0	0	0	42.337717	5.978511	35.731326	5.978511	8.312958E+13	0.000591	1691.646939	18.881759	1.010882	0	0
0	0	0	42.209531	5.981135	35.559515	5.981135	7.761945E+13	0.000576	1735.743675	19.04084	1.008662	0	0
0	0	0	42.084285	5.983567	35.391759	5.983567	7.25854E+13	0.000562	1780.799216	18.841783	1.007116	0	0
0	0	0	41.961857	5.985953	35.227735	5.985953	6.797759E+13	0.000549	1822.601154	19.021959	1.004103	0	0
0	0	0	41.838612	5.988312	35.062634	5.988312	6.363204E+13	0.000537	1863.74024	18.837904	1.003231	0	0
0	0	0	41.704831	5.990728	34.88355	5.990728	5.922649E+13	0.000523	1910.680698	18.952379	1.000257	0	0
0	0	0	41.577911	5.992576	34.714125	5.992576	5.532716E+13	0.000508	1970.239715	18.898908	0.999029	0	0
0	0	0	41.449929	5.994553	34.543127	5.994553	5.165341E+13	0.000494	2024.323083	18.863617	0.996531	0	0
0	0	0	41.326521	5.99629	34.378413	5.99629	4.834071E+13	0.00048	2082.30644	18.941306	0.994866	0	0
0	0	0	41.196457	5.998238	34.204651	5.998238	4.507769E+13	0.000468	2135.873126	18.783936	0.993082	0	0
0	0	0	41.065984	5.999896	34.030664	5.999896	4.202451E+13	0.000454	2202.371817	18.965602	0.990624	0	0
0	0	0	40.938369	6.001605	33.860364	6.001605	3.923736E+13	0.000442	2260.897937	18.763988	0.989435	0	0
0	0	0	40.805283	6.003084	33.683096	6.003084	3.65265E+13	0.000428	2337.651686	18.951913	0.986184	0	0
0	0	0	40.675177	6.004722	33.50955	6.004722	3.40567E+13	0.000417	2399.099537	18.797001	0.98555	0	0
0	0	0	40.534863	6.006313	33.322571	6.006313	3.157917E+13	0.000404	2474.045605	18.876231	0.982577	0	0
0	0	0	40.400919	6.00765	33.144278	6.00765	2.938183E+13	0.000391	2556.746801	18.85778	0.981308	0	0
0	0	0	40.263055	6.009027	32.960748	6.009027	2.727917E+13	0.000379	2640.382769	18.809297	0.978454	0	0
0	0	0	40.128416	6.010254	32.781636	6.010254	2.537055E+13	0.000366	2730.319554	18.921826	0.976749	0	0
0	0	0	39.987694	6.011407	32.594568	6.011407	2.351782E+13	0.000353	2835.140247	18.764649	0.974926	0	0
0	0	0	39.850278	6.012671	32.411711	6.012671	2.183891E+13	0.000342	2922.964829	18.950015	0.972032	0	0
0	0	0	39.704778	6.014025	32.218057	6.014025	2.019133E+13	0.000332	3010.822761	18.758678	0.971001	0	0
0	0	0	39.564381	6.01521	32.031326	6.01521	1.87192E+13	0.000322	3105.189861	18.911591	0.967988	0	0
0	0	0	39.41737	6.015868	31.836514	6.015868	1.729235E+13	0.000305	3275.959183	18.788132	0.967195	0	0
0	0	0	39.271869	6.016977	31.643113	6.016977	1.598706E+13	0.000295	3387.464384	18.849292	0.963865	0	0
0	0	0	39.123101	6.017986	31.445511	6.017986	1.475408E+13	0.000284	3516.772773	18.85628	0.962716	0	0
0	0	0	38.975191	6.018908	31.249137	6.018908	1.362232E+13	0.000273	3656.791207	18.765216	0.960496	0	0
0	0	0	38.820175	6.019874	31.043313	6.019874	1.25291E+13	0.000263	3802.563244	18.899216	0.958474	0	0
0	0	0	38.666181	6.020651	30.839068	6.020651	1.152984E+13	0.000251	3980.714314	18.708619	0.957285	0	0
0	0	0	38.507081	6.021585	30.627866	6.021585	1.058096E+13	0.000242	4139.237447	18.911398	0.954391	0	0
0	0	0	38.3508	6.022346	30.420596	6.022346	9.724857E+12	0.000231	4327.641483	18.730448	0.953677	0	0
0	0	0	38.185412	6.023107	30.201293	6.023107	8.8941E+12	0.00022	4539.521954	18.892897	0.950228	0	0
0	0	0	38.016756	6.024018	29.977464	6.024018	8.119899E+12	0.000212	4720.174136	18.792808	0.949594	0	0
0	0	0	37.849816	6.024589	29.75634	6.024589	7.419894E+12	0.0002	4992.435783	18.82017	0.946502	0	0
0	0	0	37.680508	6.025194	29.532033	6.025194	6.771514E+12	0.00019	5269.572835	18.856756	0.945312	0	0
0	0	0	37.506748	6.02596	29.301621	6.02596	6.164907E+12	0.000182	5509.005919	18.750196	0.943132	0	0
0	0	0	37.327925	6.026611	29.064666	6.026611	5.597269E+12	0.000172	5806.071471	18.926797	0.940833	0	0
0	0	0	37.150898	6.027179	28.830187	6.027179	5.086798E+12	0.000163	6138.005215	18.720877	0.939802	0	0
0	0	0	36.9655	6.027686	28.584729	6.027686	4.601993E+12	0.000153	6536.731554	18.929837	0.936472	0	0
0	0	0	36.780388	6.028335	28.33944	6.028335	4.164011E+12	0.000145	6873.907392	18.746812	0.935996	0	0
0	0	0	36.59307	6.029015	28.091183	6.029015	3.763206E+12	0.000139	7200.036572	18.877768	0.932706	0	0
0	0	0	36.396075	6.029269	27.830739	6.029269	3.383224E+12	0.000128	7839.543983	18.791609	0.932032	0	0
0	0	0	36.196425	6.02986	27.566304	6.02986	3.037235E+12	0.000121	8295.167854	18.798358	0.929257	0	0
0	0	0	35.994937	6.030588	27.299233	6.030588	2.72391E+12	0.000116	8648.963758	18.859044	0.927751	0	0
0	0	0	35.786752	6.030889	27.023923	6.030889	2.434072E+12	0.000106	9400.678273	18.72353	0.925927	0	0
0	0	0	35.573299	6.031294	26.741499	6.031294	2.168883E+12	9.871429E-5	10130.245068	18.900342	0.92343	0	0
0	0	0	35.358417	6.031723	26.457143	6.031723	1.931086E+12	9.192701E-5	10878.195885	18.682172	0.922637	0	0
0	0	0	35.137654	6.032071	26.165132	6.032071	1.713899E+12	8.474618E-5	11799.941818	18.883854	0.919465	0	0
0	0	0	34.913543	6.032596	25.868427	6.032596	1.518384E+12	7.973271E-5	12541.903964	18.716772	0.918831	0	0
0	0	0	34.683715	6.033066	25.564244	6.033066	1.341019E+12	7.455399E-5	13413.098259	18.826963	0.915937	0	0
0	0	0	34.45258	6.033534	25.258327	6.033534	1.183532E+12	6.987986E-5	14310.274434	18.78578	0.914867	0	0
0	0	0	34.218137	6.03372	24.948463	6.03372	1.042672E+12	6.312413E-5	15841.803236	18.754474	0.912686	0	0
0	0	0	33.977487	6.034204	24.629936	6.034204	9.154981E+11	5.933694E-5	16852.908291	18.856636	0.911021	0	0
0	0	0	33.732631	6.034387	24.306313	6.034387	8.020083E+11	5.340345E-5	18725.380868	18.705747	0.909475	0	0
0	0	0	33.485324	6.034662	23.979304	6.034662	7.016561E+11	4.872767E-5	20522.221952	18.898477	0.907017	0	0
0	0	0	33.234506	6.034976	23.647589	6.034976	6.126953E+11	4.474128E-5	22350.724371	18.69735	0.906185	0	0
0	0	0	32.979522	6.035243	23.31044	6.035243	5.338096E+11	4.076478E-5	24530.982833	18.888421	0.902934	0	0
0	0	0	32.715841	6.035655	22.961563	6.035655	4.628984E+11	3.804028E-5	26287.922734	18.732773	0.902577	0	0
0	0	0	32.460203	6.035845	22.62366	6.035845	4.031559E+11	3.433634E-5	29123.666697	18.82619	0.899485	0	0
0	0	0	32.19938	6.036034	22.278904	6.036034	3.501405E+11	3.093992E-5	32320.702114	18.788829	0.898772	0	0
0	0	0	31.945295	6.03628	21.942946	6.03628	3.052061E+11	2.836015E-5	35260.748984	18.743448	0.896353	0	0
0	0	0	31.691291	6.03656	21.607034	6.03656	2.660498E+11	2.62539E-5	38089.578616	18.857211	0.894371	0	0
0	0	0	31.436308	6.036918	21.269688	6.036918	2.31794E+11	2.484895E-5	40243.144196	18.698447	0.892746	0	0
0	0	0	31.180466	6.036863	20.931901	6.036863	2.018552E+11	2.135752E-5	46821.90666	18.894987	0.89009	0	0
0	0	0	30.921317	6.037234	20.589019	6.037234	1.754692E+11	2.035899E-5	49118.350042	18.6808	0.889812	0	0
0	0	0	30.668131	6.03753	20.254129	6.03753	1.530246E+11	1.924282E-5	51967.433613	18.864944	0.886601	0	0
0	0	0	30.409635	6.037587	19.912636	6.037587	1.330685E+11	1.700542E-5	58804.78685	18.718887	0.886086	0	0
0	0	0	30.152324	6.037749	19.57252	6.037749	1.157889E+11	1.552225E-5	64423.641347	18.812178	0.882835	0	0
0	0	0	29.891868	6.038011	19.228072	6.038011	1.005821E+11	1.463968E-5	68307.52547	18.794046	0.881923	0	0
0	0	0	29.635087	6.037934	18.889074	6.037934	8.754611E+10	1.242638E-5	80473.950547	18.729635	0.879743	0	0
0	0	0	29.372672	6.038428	18.54161	6.038428	7.596788E+10	1.280187E-5	78113.588821	18.848337	0.87788	0	0
0	0	0	29.113196	6.038396	18.198967	6.038396	6.602574E+10	1.099486E-5	90951.589317	18.677533	0.876453	0	0
0	0	0	28.850127	6.038365	17.851578	6.038365	5.727339E+10	9.425376E-6	106096.567284	18.874103	0.873955	0	0
0	0	0	28.581667	6.038745	17.496313	6.038745	4.953668E+10	9.487881E-6	105397.616756	18.676725	0.873202	0	0
0	0	0	28.317699	6.03878	17.147612	6.03878	4.294923E+10	8.349898E-6	119761.942236	18.848291	0.87011	0	0
0	0	0	28.048872	6.038914	16.792305	6.038914	3.714009E+10	7.669958E-6	130378.804168	18.707152	0.869634	0	0
0	0	0	27.78082	6.038861	16.438369	6.038861	3.213015E+10	6.477917E-6	154370.607676	18.772156	0.866859	0	0
0	0	0	27.511626	6.039221	16.082144	6.039221	2.777883E+10	6.692532E-6	149420.284376	18.766558	0.866027	0	0
0	0	0	27.243533	6.039375	15.727758	6.039375	2.403112E+10	6.315148E-6	158349.407435	18.688194	0.863886	0	0
0	0	0	26.972215	6.039356	15.36944	6.039356	2.07528E+10	5.391945E-6	185461.842097	18.835552	0.861904	0	0
0	0	0	26.699182	6.039576	15.008393	6.039576	1.790509E+10	5.338129E-6	187331.537192	18.65296	0.860754	0	0
0	0	0	26.423698	6.039629	14.644429	6.039629	1.54277E+10	4.771157E-6	209592.768364	18.853236	0.857939	0	0
0	0	0	26.147357	6.039816	14.279068	6.039816	1.328693E+10	4.721839E-6	211781.906532	18.637909	0.857543	0	0
0	0	0	25.873752	6.039756	13.917804	6.039756	1.146015E+10	3.88772E-6	257220.176661	18.811442	0.854609	0	0
0	0	0	25.598513	6.03973	13.554317	6.03973	9.875804E+9	3.284316E-6	304477.395874	18.682902	0.854094	0	0
0	0	0	25.321396	6.039917	13.187922	6.039917	8.501853E+9	3.285517E-6	304366.088331	18.752906	0.851161	0	0
0	0	0	25.04579	6.040023	12.82368	6.040023	7.325031E+9	3.119776E-6	320535.861996	18.765025	0.850051	0	0
0	0	0	24.767448	6.04009	12.455901	6.04009	6.301776E+9	2.867085E-6	348786.310024	18.672468	0.848227	0	0
0	0	0	24.48686	6.040123	12.085223	6.040123	5.414884E+9	2.550754E-6	392040.886577	18.811903	0.846364	0	0
0	0	0	24.207333	6.040197	11.715863	6.040197	4.655482E+9	2.377604E-6	420591.565468	18.620877	0.845214	0	0
0	0	0	23.922335	6.04009	11.339648	6.04009	3.990758E+9	1.816414E-6	550535.214985	18.820563	0.842756	0	0
0	0	0	23.639174	6.040204	10.965402	6.040204	3.424346E+9	1.76278E-6	567285.695819	18.631239	0.842043	0	0
0	0	0	23.34172	6.04039	10.57212	6.04039	2.91571E+9	1.913661E-6	522558.470719	18.797016	0.839228	0	0
0	0	0	23.050841	6.04031	10.188083	6.04031	2.491463E+9	1.463074E-6	683492.290318	18.671023	0.838475	0	0
0	0	0	22.757062	6.04033	9.800004	6.04033	2.125612E+9	1.282128E-6	779953.32019	18.709067	0.835977	0	0
0	0	0	22.4699	6.040337	9.420692	6.040337	1.81998E+9	1.107854E-6	902646.030048	18.720536	0.835026	0	0
0	0	0	22.179225	6.040304	9.036828	6.040304	1.555338E+9	9.05605E-7	1104234.239845	18.630429	0.833202	0	0
0	0	0	21.887366	6.040577	8.65073	6.040577	1.328326E+9	1.202944E-6	831294.175449	18.786026	0.831299	0	0
0	0	0	21.588238	6.040603	8.255565	6.040603	1.13E+9	1.082036E-6	924183.307386	18.604371	0.830031	0	0
0	0	0	21.290661	6.040324	7.86313	6.040324	9.620912E+8	5.752964E-7	1738234.532815	18.796811	0.827573	0	0
0	0	0	20.992473	6.040756	7.468301	6.040756	8.188612E+8	1.169393E-6	855144.334388	18.587375	0.827296	0	0
0	0	0	20.690445	6.04075	7.069377	6.04075	6.955096E+8	9.725415E-7	1028233.779927	18.752483	0.824481	0	0
0	0	0	20.38315	6.040523	6.663995	6.040523	5.890596E+8	4.814349E-7	2077123.848786	18.631811	0.823926	0	0
0	0	0	20.073241	6.040637	6.254391	6.040637	4.981978E+8	5.139844E-7	1945584.214836	18.696778	0.821032	0	0
0	0	0	19.75884	6.04079	5.838759	6.04079	4.203293E+8	6.72204E-7	1487643.65667	18.71872	0.820199	0	0
0	0	0	19.43766	6.040796	5.414507	6.040796	3.533346E+8	5.789375E-7	1727302.038548	18.627251	0.818376	0	0
0	0	0	19.11207	6.040876	4.984258	6.040876	2.963106E+8	6.877559E-7	1454004.253674	18.764001	0.81683	0	0
0	0	0	18.782111	6.04081	4.548579	6.04081	2.479033E+8	4.271557E-7	2341066.796797	18.564878	0.815878	0	0
0	0	0	18.446924	6.040949	4.105509	6.040949	2.06819E+8	7.766477E-7	1287585.123354	18.777364	0.813222	0	0
0	0	0	18.105489	6.040796	3.654882	6.040796	1.719617E+8	2.817974E-7	3548648.601534	18.587936	0.812548	0	0
0	0	0	17.758215	6.041016	3.195648	6.041016	1.425285E+8	1.221089E-6	818940.851576	18.745722	0.809654	0	0
0	0	0	17.405264	6.040836	2.729879	6.040836	1.177713E+8	2.262751E-7	4419399.791465	18.613521	0.809536	0	0
0	0	0	17.042145	6.041089	2.249626	6.041089	9.678092E+7	-2.024735E-6	-493891.737003	18.660705	0.80684	0	0
0	0	0	16.671472	6.041122	1.759927	6.041122	7.920753E+7	-6.461672E-7	-1547587.121415	18.676896	0.806047	0	0
0	0	0	16.297449	6.041102	1.265935	6.041102	6.470786E+7	-8.325213E-7	-1201170.539693	18.591027	0.804223	0	0
0	0	0	15.918322	6.040943	0.765552	6.040943	5.271682E+7	1.874885E-7	5333659.36081	18.742868	0.802321	0	0
0	0	0	15.535561	6.040863	0.260173	6.040863	4.286355E+7	9.305603E-8	1.074621E+7	18.547481	0.801409	0	0
0	0	0	15.143775	6.041069	-0.257853	6.041069	3.468233E+7	-1.167885E-5	-85624.848313	18.747112	0.798832	0	0
0	0	0	14.74864	6.041215	-0.780156	6.041215	2.801188E+7	-8.438075E-8	-1.185104E+7	18.541396	0.798515	0	0
0	0	0	14.345338	6.041142	-1.312685	6.041142	2.252469E+7	-1.344957E-7	-7435179.251916	18.706364	0.795819	0	0
0	0	0	13.931908	6.040983	-1.858362	6.040983	1.801348E+7	9.410087E-8	1.062689E+7	18.575324	0.7957	0	0
0	0	0	13.516028	6.041036	-2.40783	6.041036	1.43867E+7	2.003997E-7	4990026.475281	18.646603	0.792727	0	0
0	0	0	13.100475	6.041149	-2.957027	6.041149	1.149216E+7	-6.299273E-8	-1.587485E+7	18.656415	0.791894	0	0
0	0	0	12.687046	6.041122	-3.50305	6.041122	9190530.5	-7.495119E-8	-1.334202E+7	18.568151	0.790031	0	0
0	0	0	12.269246	6.041142	-4.05497	6.041142	7332527	-4.378032E-8	-2.284131E+7	18.709916	0.788406	0	0
0	0	0	11.851652	6.041076	-4.606385	6.041076	5850792	-3.261015E-7	-3066529.443843	18.508762	0.787653	0	0
0	0	0	11.434097	6.041235	-5.158364	6.041235	4668585	-1.238852E-8	-8.071988E+7	18.715955	0.785115	0	0
0	0	0	11.02079	6.041289	-5.704446	6.041289	3733816	-7.520527E-9	-1.329694E+8	18.50845	0.784759	0	0
0	0	0	10.606381	6.040996	-6.251021	6.040996	2984432	1.84784E-8	5.411723E+7	18.684797	0.781706	0	0
0	0	0	10.195973	6.041162	-6.793588	6.041162	2390617	-1.125787E-8	-8.882678E+7	18.548742	0.781746	0	0
0	0	0	9.782952	6.041368	-7.339728	6.041368	1912250.5	-2.829036E-9	-3.534773E+8	18.604135	0.779129	0	0
0	0	0	9.37626	6.041069	-7.876072	6.041069	1534848.5	-5.133331E-7	-1948052.712365	18.60021	0.778495	0	0
0	0	0	8.973734	6.041255	-8.408299	6.041255	1234708	-2.92784E-9	-3.415487E+8	18.525379	0.776394	0	0
0	0	0	8.576067	6.041209	-8.933439	6.041209	995873	-3.141234E-9	-3.183462E+8	18.653784	0.775046	0	0
0	0	0	8.184567	6.041196	-9.45053	6.041196	805918.5	-2.806868E-9	-3.562689E+8	18.475306	0.773936	0	0
0	0	0	7.793883	6.041009	-9.966033	6.041009	652484.5	4.958128E-9	2.01689E+8	18.682855	0.771399	0	0
0	0	0	7.408467	6.041302	-10.475988	6.041302	529768	-1.00641E-9	-9.936313E+8	18.45932	0.771399	0	0
0	0	0	7.026441	6.041149	-10.980149	6.041149	430921	-2.361945E-9	-4.233798E+8	18.636577	0.768545	0	0
0	0	0	6.65201	6.041209	-11.47491	6.041209	351959	-1.110166E-9	-9.007662E+8	18.497201	0.768505	0	0
0	0	0	6.283746	6.041176	-11.961247	6.041176	288426	-1.19056E-9	-8.399412E+8	18.579387	0.76577	0	0
0	0	0	5.919974	6.041182	-12.44177	6.041182	236936	-9.211583E-10	-1.08559E+9	18.580815	0.764898	0	0
0	0	0	5.558897	6.041395	-12.919365	6.041395	194922	-2.649276E-10	-3.774616E+9	18.514925	0.763153	0	0
0	0	0	5.198759	6.041122	-13.394232	6.041122	160439.5	-1.308366E-9	-7.643122E+8	18.627926	0.761766	0	0
0	0	0	4.830413	6.041169	-13.88092	6.041169	131472.5	-5.783928E-10	-1.728929E+9	18.446068	0.760735	0	0
0	0	0	4.476033	6.041255	-14.349286	6.041255	108552	-2.574069E-10	-3.884899E+9	18.64509	0.758515	0	0
0	0	0	4.126635	6.041222	-14.810699	6.041222	89868.5	-2.590306E-10	-3.860548E+9	18.435739	0.758079	0	0
0	0	0	3.778666	6.041282	-15.270517	6.041282	74459	-1.546297E-10	-6.467065E+9	18.632703	0.755145	0	0
0	0	0	3.439641	6.041322	-15.718461	6.041322	61990	-1.08515E-10	-9.215317E+9	18.470955	0.755264	0	0
0	0	0	3.098492	6.041415	-16.16938	6.041415	51550.5	-6.603799E-11	-1.51428E+10	18.548758	0.752807	0	0
0	0	0	2.759099	6.041176	-16.616917	6.041176	42909.5	-1.771209E-10	-5.64586E+9	18.518078	0.75241	0	0
0	0	0	2.426894	6.041322	-17.056196	6.041322	35855.5	-6.276592E-11	-1.593221E+10	18.447475	0.750388	0	0
0	0	0	2.102406	6.041202	-17.484423	6.041202	30087	-9.959991E-11	-1.004017E+10	18.570501	0.748961	0	0
0	0	0	1.788414	6.041196	-17.899151	6.041196	25390	-8.842863E-11	-1.130855E+10	18.410139	0.747732	0	0
0	0	0	1.502762	6.041302	-18.276815	6.041302	21757	-4.133213E-11	-2.419425E+10	18.595255	0.745671	0	0
0	0	0	1.256354	6.041402	-18.602622	6.041402	19043.5	-2.536731E-11	-3.942081E+10	18.37786	0.745274	0	0
0	0	0	1.041145	6.041275	-18.886475	6.041275	16952	-3.633271E-11	-2.752341E+10	18.557459	0.742817	0	0
0	0	0	0.858728	6.041222	-19.127253	6.041222	15360	-4.427256E-11	-2.258735E+10	18.398314	0.742618	0	0
0	0	0	0.705713	6.041342	-19.329766	6.041342	14141	-2.295167E-11	-4.356981E+10	18.504321	0.740002	0	0
0	0	0	0.572259	6.041402	-19.506244	6.041402	13156.5	-1.752541E-11	-5.706002E+10	18.47022	0.739368	0	0
0	0	0	0.460694	6.041116	-19.652659	6.041116	12387	-1.150443E-10	-8.692304E+9	18.428076	0.737385	0	0
0	0	0	0.366647	6.041342	-19.777638	6.041342	11772.5	-1.910746E-11	-5.233558E+10	18.51518	0.736196	0	0
0	0	0	0.287424	6.041176	-19.881728	6.041176	11279	-4.655722E-11	-2.147895E+10	18.351413	0.735165	0	0
0	0	0	0.221963	6.041209	-19.968306	6.041209	10887	-3.434028E-11	-2.912032E+10	18.536016	0.733144	0	0
0	0	0	0.174062	6.041282	-20.031824	6.041282	10608.5	-2.203076E-11	-4.539107E+10	18.337744	0.732628	0	0
0	0	0	0.134573	6.041222	-20.083784	6.041222	10384.5	-2.993154E-11	-3.340958E+10	18.525661	0.730131	0	0
0	0	0	0.09835	6.041415	-20.132276	6.041415	10183	-1.304478E-11	-7.665903E+10	18.344264	0.730131	0	0
0	0	0	0.069152	6.041249	-20.170286	6.041249	10024	-2.464357E-11	-4.057854E+10	18.469102	0.727197	0	0
0	0	0	0.051511	6.041435	-20.194213	6.041435	9928.5	-1.202752E-11	-8.314268E+10	18.395765	0.726959	0	0
0	0	0	0.028071	6.041302	-20.224729	6.041302	9803.5	-1.862387E-11	-5.369453E+10	18.381735	0.724779	0	0
0	0	0	0.006999	6.041342	-20.252696	6.041342	9692.5	-1.57315E-11	-6.356674E+10	18.4587	0.723788	0	0
0	0	0	-0.004435	6.041302	-20.267666	6.041302	9633	-1.829997E-11	-5.46449E+10	18.313485	0.722321	0	0
0	0	0	-0.010847	6.041295	-20.276112	6.041295	9599.5	-1.876955E-11	-5.327777E+10	18.495789	0.720379	0	0
0	0	0	-0.018197	6.041442	-20.286313	6.041442	9561.5	-1.137683E-11	-8.789797E+10	18.265493	0.719982	0	0
0	0	0	-0.025629	6.041488	-20.296286	6.041488	9523	-1.0076E-11	-9.924574E+10	18.463625	0.717524	0	0
0	0	0	-0.034777	6.041289	-20.3077	6.041289	9476	-1.908615E-11	-5.239401E+10	18.274145	0.717485	0	0
0	0	0	-0.043026	6.041309	-20.318663	6.041309	9434	-1.742684E-11	-5.738274E+10	18.423075	0.714511	0	0
0	0	0	-0.051806	6.041535	-20.331019	6.041535	9389	-8.943627E-12	-1.118115E+11	18.329066	0.714432	0	0
0	0	0	-0.058952	6.041282	-20.33961	6.041282	9353	-1.942346E-11	-5.148414E+10	18.336853	0.712291	0	0
0	0	0	-0.063893	6.041375	-20.34645	6.041375	9328	-1.350137E-11	-7.406653E+10	18.379732	0.711419	0	0
0	0	0	-0.067814	6.041249	-20.351204	6.041249	9308.5	-2.288454E-11	-4.369762E+10	18.259616	0.710032	0	0
0	0	0	-0.070223	6.041222	-20.354297	6.041222	9296.5	-2.679557E-11	-3.731961E+10	18.407896	0.708486	0	0
0	0	0	-0.072673	6.041468	-20.35836	6.041468	9284	-1.031265E-11	-9.696833E+10	18.21563	0.707653	0	0
0	0	0	-0.07496	6.041282	-20.360755	6.041282	9272.5	-1.925628E-11	-5.193111E+10	18.42241	0.705195	0	0
0	0	0	-0.076838	6.041242	-20.363102	6.041242	9263	-2.364187E-11	-4.229784E+10	18.221375	0.704799	0	0
0	0	0	-0.077819	6.041322	-20.364665	6.041322	9258.5	-1.620723E-11	-6.170087E+10	18.362708	0.702619	0	0
0	0	0	-0.078839	6.041309	-20.365969	6.041309	9253	-1.709249E-11	-5.850521E+10	18.247153	0.7025	0	0
0	0	0	-0.078594	6.041422	-20.366025	6.041422	9254	-1.163186E-11	-8.597075E+10	18.295314	0.699804	0	0
0	0	0	-0.079575	6.041162	-20.366448	6.041162	9249.5	-4.355734E-11	-2.295824E+10	18.301847	0.699447	0	0
0	0	0	-0.081045	6.041349	-20.369016	6.041349	9242	-1.464485E-11	-6.828339E+10	18.210387	0.697743	0	0
0	0	0	-0.080595	6.041408	-20.368623	6.041408	9244	-1.207317E-11	-8.282827E+10	18.346398	0.696157	0	0
0	0	0	-0.082841	6.041282	-20.371166	6.041282	9233	-1.917425E-11	-5.215328E+10	18.159635	0.695205	0	0
0	0	0	-0.083413	6.041475	-20.372569	6.041475	9230.5	-1.008568E-11	-9.915047E+10	18.347587	0.693303	0	0
0	0	0	-0.083005	6.041375	-20.371694	6.041375	9232	-1.336242E-11	-7.483672E+10	18.138645	0.693184	0	0
0	0	0	-0.083413	6.041309	-20.37201	6.041309	9230.5	-1.705093E-11	-5.864782E+10	18.327199	0.690448	0	0
0	0	0	-0.083536	6.041402	-20.372485	6.041402	9229.5	-1.229436E-11	-8.133812E+10	18.185206	0.690329	0	0
0	0	0	-0.084067	6.041275	-20.372761	6.041275	9227	-1.977595E-11	-5.056647E+10	18.259268	0.688109	0	0
0	0	0	-0.084924	6.041116	-20.373358	6.041116	9222.5	-8.565399E-11	-1.167488E+10	18.229589	0.687753	0	0
0	0	0	-0.085823	6.041289	-20.375126	6.041289	9218.5	-1.856751E-11	-5.385752E+10	18.171988	0.686008	0	0
0	0	0	-0.086313	6.041209	-20.375505	6.041209	9215.5	-2.906795E-11	-3.440215E+10	18.287765	0.684779	0	0
0	0	0	-0.08668	6.041295	-20.376281	6.041295	9214	-1.80158E-11	-5.550683E+10	18.115128	0.683788	0	0
0	0	0	-0.088028	6.041176	-20.377659	6.041176	9207	-3.800446E-11	-2.63127E+10	18.315418	0.681648	0	0
0	0	0	-0.087905	6.041462	-20.378458	6.041462	9207.5	-1.040043E-11	-9.614984E+10	18.086308	0.681568	0	0
0	0	0	-0.089416	6.041215	-20.379627	6.041215	9200.5	-2.771341E-11	-3.608362E+10	18.290659	0.678714	0	0
0	0	0	-0.090437	6.041282	-20.381199	6.041282	9195.5	-1.909637E-11	-5.236596E+10	18.087912	0.679269	0	0
0	0	0	-0.091744	6.041096	-20.382299	6.041096	9189	-1.46302E-10	-6.835174E+9	18.199132	0.676732	0	0
0	0	0	-0.091621	6.041215	-20.382539	6.041215	9189.5	-2.768027E-11	-3.612681E+10	18.146644	0.676296	0	0
0	0	0	-0.092479	6.041462	-20.384499	6.041462	9185	-1.037502E-11	-9.638537E+10	18.125449	0.674195	0	0
0	0	0	-0.094357	6.041335	-20.386556	6.041335	9175.5	-1.526283E-11	-6.551864E+10	18.199913	0.673283	0	0
0	0	0	-0.095092	6.041528	-20.388175	6.041528	9172	-8.863176E-12	-1.128264E+11	18.046947	0.672213	0	0
0	0	0	-0.096399	6.041462	-20.389677	6.041462	9165.5	-1.035299E-11	-9.659043E+10	18.214074	0.670587	0	0
0	0	0	-0.096685	6.041202	-20.389183	6.041202	9164	-3.033648E-11	-3.296362E+10	17.988436	0.670191	0	0
0	0	0	-0.09693	6.041495	-20.39049	6.041495	9163	-9.54408E-12	-1.04777E+11	18.203566	0.667733	0	0
0	0	0	-0.097788	6.041342	-20.391109	6.041342	9159	-1.486559E-11	-6.726943E+10	18.010215	0.667733	0	0
0	0	0	-0.096318	6.041215	-20.388743	6.041215	9166	-2.760949E-11	-3.621944E+10	18.162431	0.665235	0	0
0	0	0	-0.098196	6.041249	-20.391336	6.041249	9157	-2.251209E-11	-4.442058E+10	18.050949	0.665077	0	0
0	0	0	-0.0984	6.041202	-20.391449	6.041202	9155.5	-3.030834E-11	-3.299422E+10	18.074344	0.662976	0	0
0	0	0	-0.098114	6.041475	-20.391988	6.041475	9157	-1.000537E-11	-9.994631E+10	18.100814	0.66254	0	0
0	0	0	-0.098319	6.041561	-20.392548	6.041561	9156.5	-8.251958E-12	-1.211834E+11	17.997148	0.661113	0	0
0	0	0	-0.09987	6.041335	-20.393838	6.041335	9148.5	-1.521792E-11	-6.571201E+10	18.161031	0.659408	0	0
0	0	0	-0.098237	6.041428	-20.391993	6.041428	9156.5	-1.129696E-11	-8.851938E+10	17.952988	0.658774	0	0
0	0	0	-0.099013	6.041442	-20.393063	6.041442	9152.5	-1.089017E-11	-9.182589E+10	18.160521	0.656633	0	0
0	0	0	-0.097624	6.041322	-20.390826	6.041322	9159.5	-1.603392E-11	-6.236776E+10	17.935741	0.656673	0	0
0	0	0	-0.09693	6.041242	-20.389641	6.041242	9163	-2.338664E-11	-4.275946E+10	18.121984	0.653937	0	0
0	0	0	-0.096236	6.041209	-20.388612	6.041209	9166.5	-2.89134E-11	-3.458604E+10	17.968112	0.654215	0	0
0	0	0	-0.097502	6.041315	-20.390642	6.041315	9160	-1.646584E-11	-6.073178E+10	18.041701	0.651796	0	0
0	0	0	-0.095705	6.041109	-20.387576	6.041109	9169	-9.889213E-11	-1.011203E+10	18.016863	0.6514	0	0
0	0	0	-0.096889	6.041342	-20.389922	6.041342	9163.5	-1.48729E-11	-6.723639E+10	17.945531	0.649695	0	0
0	0	0	-0.094807	6.041368	-20.387261	6.041368	9173.5	-1.357151E-11	-7.368379E+10	18.038961	0.648863	0	0
0	0	0	-0.093255	6.041349	-20.385144	6.041349	9181.5	-1.454898E-11	-6.873333E+10	17.8616	0.647991	0	0
0	0	0	-0.092601	6.041322	-20.384192	6.041322	9184.5	-1.607769E-11	-6.2198E+10	18.070547	0.64585	0	0
0	0	0	-0.092193	6.041255	-20.383429	6.041255	9186.5	-2.178374E-11	-4.59058E+10	17.853006	0.645652	0	0
0	0	0	-0.092806	6.041136	-20.383836	6.041136	9183.5	-6.020596E-11	-1.660965E+10	18.073057	0.643075	0	0
0	0	0	-0.092561	6.041349	-20.384227	6.041349	9185	-1.455453E-11	-6.870714E+10	17.880511	0.643352	0	0
0	0	0	-0.093091	6.041455	-20.385286	6.041455	9182	-1.054984E-11	-9.47882E+10	17.992435	0.640974	0	0
0	0	0	-0.090723	6.041275	-20.381554	6.041275	9194	-1.970522E-11	-5.074797E+10	17.917885	0.640776	0	0
0	0	0	-0.090927	6.041269	-20.381801	6.041269	9192.5	-2.035439E-11	-4.912945E+10	17.924672	0.638714	0	0
0	0	0	-0.09105	6.041082	-20.381337	6.041082	9192	-2.793951E-10	-3.579161E+9	17.99209	0.637921	0	0
0	0	0	-0.092193	6.041295	-20.383563	6.041295	9186.5	-1.796203E-11	-5.5673E+10	17.862147	0.636772	0	0
0	0	0	-0.092071	6.041395	-20.383736	6.041395	9187	-1.248648E-11	-8.008662E+10	18.035414	0.634829	0	0
0	0	0	-0.093296	6.041408	-20.385399	6.041408	9181	-1.199089E-11	-8.339664E+10	17.815432	0.634671	0	0
0	0	0	-0.093132	6.041209	-20.384513	6.041209	9182	-2.896229E-11	-3.452766E+10	18.011239	0.632411	0	0
0	0	0	-0.093051	6.041262	-20.384584	6.041262	9182	-2.102741E-11	-4.755696E+10	17.804181	0.632451	0	0
0	0	0	-0.091376	6.041269	-20.382395	6.041269	9190.5	-2.034996E-11	-4.914014E+10	17.971895	0.629834	0	0
0	0	0	-0.09154	6.041249	-20.382543	6.041249	9190	-2.259322E-11	-4.426108E+10	17.81934	0.630231	0	0
0	0	0	-0.092561	6.041388	-20.384361	6.041388	9185	-1.274276E-11	-7.847593E+10	17.86879	0.627773	0	0
0	0	0	-0.092928	6.041262	-20.384422	6.041262	9183	-2.10297E-11	-4.755179E+10	17.856813	0.627456	0	0
0	0	0	-0.093745	6.041229	-20.385389	6.041229	9179	-2.536363E-11	-3.942653E+10	17.769527	0.626029	0	0
0	0	0	-0.096195	6.041295	-20.388849	6.041295	9166.5	-1.792292E-11	-5.579447E+10	17.907366	0.624601	0	0
0	0	0	-0.096603	6.041189	-20.389031	6.041189	9165	-3.367383E-11	-2.969665E+10	17.715474	0.624046	0	0
0	0	0	-0.095623	6.041435	-20.388563	6.041435	9169.5	-1.110805E-11	-9.002476E+10	17.924956	0.621945	0	0
0	0	0	-0.098482	6.041375	-20.392138	6.041375	9155.5	-1.32517E-11	-7.546203E+10	17.686112	0.622064	0	0
0	0	0	-0.098359	6.041322	-20.391797	6.041322	9156	-1.60278E-11	-6.23916E+10	17.879998	0.619527	0	0
0	0	0	-0.09987	6.041488	-20.394352	6.041488	9148.5	-9.679752E-12	-1.033084E+11	17.695063	0.619884	0	0
0	0	0	-0.101136	6.041568	-20.396292	6.041568	9142	-8.129331E-12	-1.230114E+11	17.830065	0.617149	0	0
0	0	0	-0.102198	6.041388	-20.397091	6.041388	9137	-1.267617E-11	-7.888819E+10	17.768973	0.617188	0	0
0	0	0	-0.103505	6.041255	-20.39837	6.041255	9130.5	-2.165095E-11	-4.618736E+10	17.750888	0.615365	0	0
0	0	0	-0.104117	6.041249	-20.399157	6.041249	9127.5	-2.243956E-11	-4.456415E+10	17.828888	0.614413	0	0
0	0	0	-0.104689	6.041475	-20.400672	6.041475	9125	-9.970407E-12	-1.002968E+11	17.672928	0.613462	0	0
0	0	0	-0.103954	6.041415	-20.3995	6.041415	9128.5	-1.169393E-11	-8.551448E+10	17.853172	0.611797	0	0
0	0	0	-0.103627	6.041355	-20.398867	6.041355	9130	-1.413248E-11	-7.075898E+10	17.625637	0.611638	0	0
0	0	0	-0.105628	6.041309	-20.401354	6.041309	9120	-1.684681E-11	-5.935842E+10	17.846563	0.609141	0	0
0	0	0	-0.107221	6.041495	-20.404083	6.041495	9112	-9.490959E-12	-1.053634E+11	17.632221	0.609339	0	0
0	0	0	-0.106853	6.041355	-20.403129	6.041355	9114	-1.410772E-11	-7.08832E+10	17.778068	0.60704	0	0
0	0	0	-0.105302	6.041255	-20.400744	6.041255	9121.5	-2.16296E-11	-4.623293E+10	17.640222	0.607198	0	0
0	0	0	-0.105547	6.041322	-20.401291	6.041322	9120.5	-1.596565E-11	-6.263445E+10	17.685111	0.604978	0	0
0	0	0	-0.105547	6.041402	-20.401559	6.041402	9120.5	-1.214916E-11	-8.23102E+10	17.685223	0.604542	0	0
0	0	0	-0.105506	6.041355	-20.401349	6.041355	9120.5	-1.411778E-11	-7.083268E+10	17.612708	0.602917	0	0
0	0	0	-0.103546	6.041575	-20.399497	6.041575	9130.5	-8.012555E-12	-1.248041E+11	17.738909	0.601807	0	0
0	0	0	-0.103056	6.041315	-20.397978	6.041315	9132.5	-1.641641E-11	-6.091466E+10	17.543285	0.601014	0	0
0	0	0	-0.104689	6.041382	-20.400359	6.041382	9125	-1.292773E-11	-7.735309E+10	17.731744	0.599111	0	0
0	0	0	-0.105383	6.041362	-20.401209	6.041362	9121.5	-1.379988E-11	-7.246438E+10	17.495508	0.59919	0	0
0	0	0	-0.101585	6.041355	-20.39617	6.041355	9140	-1.414796E-11	-7.068156E+10	17.698913	0.596732	0	0
0	0	0	-0.102116	6.041102	-20.396022	6.041102	9137.5	-1.175048E-10	-8.510293E+9	17.513195	0.59697	0	0
0	0	0	-0.099013	6.041362	-20.392794	6.041362	9152.5	-1.384678E-11	-7.221894E+10	17.642748	0.594592	0	0
0	0	0	-0.098033	6.041235	-20.391075	6.041235	9157.5	-2.430009E-11	-4.115212E+10	17.554006	0.59479	0	0
0	0	0	-0.100442	6.041568	-20.395375	6.041568	9145.5	-8.132443E-12	-1.229643E+11	17.551811	0.592808	0	0
0	0	0	-0.0984	6.041408	-20.392142	6.041408	9155.5	-1.195759E-11	-8.362891E+10	17.605895	0.592094	0	0
0	0	0	-0.097379	6.041242	-20.390234	6.041242	9160.5	-2.338026E-11	-4.277113E+10	17.482008	0.590826	0	0
0	0	0	-0.096236	6.041269	-20.388814	6.041269	9166.5	-2.029682E-11	-4.92688E+10	17.656407	0.589517	0	0
0	0	0	-0.095337	6.041309	-20.387761	6.041309	9171	-1.694102E-11	-5.902832E+10	17.442564	0.588962	0	0
0	0	0	-0.095378	6.041269	-20.387681	6.041269	9170.5	-2.030568E-11	-4.924731E+10	17.642143	0.586941	0	0
0	0	0	-0.095419	6.041402	-20.388182	6.041402	9170.5	-1.221577E-11	-8.186142E+10	17.416495	0.587179	0	0
0	0	0	-0.095092	6.041269	-20.387303	6.041269	9172	-2.0309E-11	-4.923925E+10	17.588904	0.584998	0	0
0	0	0	-0.097134	6.041342	-20.390246	6.041342	9162	-1.487046E-11	-6.72474E+10	17.441449	0.585157	0	0
0	0	0	-0.096644	6.041322	-20.389532	6.041322	9164.5	-1.604268E-11	-6.233374E+10	17.529546	0.582976	0	0
0	0	0	-0.096236	6.041329	-20.389015	6.041329	9166.5	-1.563684E-11	-6.395155E+10	17.514703	0.58254	0	0
0	0	0	-0.095011	6.041142	-20.386771	6.041142	9172.5	-5.476475E-11	-1.825992E+10	17.423805	0.581113	0	0
0	0	0	-0.09448	6.041428	-20.38703	6.041428	9175	-1.131979E-11	-8.834089E+10	17.52178	0.580281	0	0
0	0	0	-0.095174	6.041235	-20.387299	6.041235	9172	-2.433856E-11	-4.108706E+10	17.34774	0.579527	0	0
0	0	0	-0.096726	6.041402	-20.389908	6.041402	9164	-1.220711E-11	-8.191948E+10	17.539794	0.577902	0	0
0	0	0	-0.098155	6.041368	-20.391684	6.041368	9157	-1.35471E-11	-7.381656E+10	17.323662	0.577585	0	0
0	0	0	-0.097665	6.041176	-20.390389	6.041176	9159.5	-3.780839E-11	-2.644916E+10	17.536231	0.575365	0	0
0	0	0	-0.098686	6.041242	-20.391961	6.041242	9154	-2.336367E-11	-4.28015E+10	17.338474	0.575722	0	0
0	0	0	-0.099339	6.041269	-20.392913	6.041269	9151	-2.02625E-11	-4.935225E+10	17.483574	0.573224	0	0
0	0	0	-0.100483	6.041269	-20.394423	6.041269	9145.5	-2.025032E-11	-4.938193E+10	17.366428	0.573502	0	0
0	0	0	-0.099707	6.041295	-20.393488	6.041295	9149	-1.788871E-11	-5.590119E+10	17.406154	0.571599	0	0
0	0	0	-0.101545	6.041402	-20.396273	6.041402	9140	-1.217514E-11	-8.213459E+10	17.427989	0.571282	0	0
0	0	0	-0.103913	6.041375	-20.399312	6.041375	9128.5	-1.321262E-11	-7.568523E+10	17.315878	0.569973	0	0
0	0	0	-0.105547	6.041442	-20.401693	6.041442	9120.5	-1.08521E-11	-9.214807E+10	17.470225	0.568705	0	0
0	0	0	-0.10669	6.041295	-20.402712	6.041295	9115	-1.782223E-11	-5.610971E+10	17.266066	0.56811	0	0
0	0	0	-0.105628	6.041395	-20.401645	6.041395	9120	-1.239542E-11	-8.067497E+10	17.457916	0.566366	0	0
0	0	0	-0.107997	6.041455	-20.404974	6.041455	9108.5	-1.046539E-11	-9.555308E+10	17.238786	0.566525	0	0
0	0	0	-0.107711	6.041688	-20.405379	6.041688	9110	-6.536329E-12	-1.529911E+11	17.44643	0.563987	0	0
0	0	0	-0.108283	6.041442	-20.405307	6.041442	9107	-1.083604E-11	-9.228467E+10	17.260943	0.564384	0	0
0	0	0	-0.109794	6.041375	-20.407079	6.041375	9099.5	-1.317064E-11	-7.592644E+10	17.360754	0.562164	0	0
0	0	0	-0.107752	6.041595	-20.40512	6.041595	9109.5	-7.691318E-12	-1.300167E+11	17.274548	0.562481	0	0
0	0	0	-0.110406	6.041309	-20.407665	6.041309	9096.5	-1.68034E-11	-5.951176E+10	17.259287	0.560538	0	0
0	0	0	-0.111223	6.041222	-20.408453	6.041222	9092.5	-2.620757E-11	-3.815691E+10	17.315098	0.559944	0	0
0	0	0	-0.110406	6.041269	-20.407531	6.041269	9096.5	-2.014182E-11	-4.964793E+10	17.189382	0.558755	0	0
0	0	0	-0.110937	6.041395	-20.408657	6.041395	9094	-1.236008E-11	-8.090563E+10	17.341652	0.557486	0	0
0	0	0	-0.109426	6.041442	-20.406818	6.041442	9101.5	-1.082949E-11	-9.234043E+10	17.115138	0.557367	0	0
0	0	0	-0.110284	6.041335	-20.407593	6.041335	9097	-1.513225E-11	-6.608402E+10	17.326767	0.555226	0	0
0	0	0	-0.109957	6.041408	-20.407407	6.041408	9098.5	-1.188314E-11	-8.415283E+10	17.11082	0.555345	0	0
0	0	0	-0.109712	6.041255	-20.406569	6.041255	9100	-2.157862E-11	-4.634216E+10	17.284256	0.553205	0	0
0	0	0	-0.109508	6.041382	-20.406724	6.041382	9101	-1.289373E-11	-7.755708E+10	17.136216	0.553284	0	0
0	0	0	-0.108446	6.041342	-20.405188	6.041342	9106.5	-1.478038E-11	-6.765724E+10	17.219597	0.551103	0	0
0	0	0	-0.107343	6.041442	-20.404067	6.041442	9111.5	-1.084139E-11	-9.223909E+10	17.17242	0.551024	0	0
0	0	0	-0.10571	6.041442	-20.401909	6.041442	9120	-1.08515E-11	-9.215312E+10	17.115073	0.549676	0	0
0	0	0	-0.105097	6.041089	-20.399915	6.041089	9122.5	-1.906318E-10	-5.245715E+9	17.197815	0.549002	0	0
0	0	0	-0.10473	6.041355	-20.400324	6.041355	9124.5	-1.412397E-11	-7.080163E+10	17.055768	0.548091	0	0
0	0	0	-0.10375	6.041089	-20.398135	6.041089	9129	-1.907676E-10	-5.24198E+9	17.253923	0.546267	0	0
0	0	0	-0.10424	6.041442	-20.399967	6.041442	9127	-1.085983E-11	-9.208244E+10	17.026421	0.546267	0	0
0	0	0	-0.102974	6.041102	-20.397155	6.041102	9133	-1.174469E-10	-8.514486E+9	17.217996	0.544443	0	0
0	0	0	-0.100075	6.041222	-20.393728	6.041222	9147.5	-2.63661E-11	-3.792749E+10	16.988401	0.544681	0	0
0	0	0	-0.099993	6.041382	-20.394156	6.041382	9147.5	-1.295961E-11	-7.716283E+10	17.140246	0.542342	0	0
0	0	0	-0.099707	6.041309	-20.393533	6.041309	9149	-1.690038E-11	-5.917026E+10	17.003503	0.54262	0	0
0	0	0	-0.100728	6.041202	-20.394524	6.041202	9144	-3.027027E-11	-3.303572E+10	17.076389	0.540162	0	0
0	0	0	-0.09938	6.041196	-20.392721	6.041196	9151	-3.187123E-11	-3.137626E+10	17.049589	0.540162	0	0
0	0	0	-0.099176	6.041335	-20.392921	6.041335	9152	-1.522374E-11	-6.568688E+10	0	0	0	0
0	0	0	-0.099054	6.041189	-20.392267	6.041189	9152.5	-3.36279E-11	-2.973721E+10	0	0	0	0
0	0	0	-0.097951	6.041249	-20.391012	6.041249	9158	-2.251454E-11	-4.441573E+10	0	0	0	0
0	0	0	-0.099054	6.041415	-20.393027	6.041415	9152.5	-1.172467E-11	-8.529024E+10	0	0	0	0
0	0	0	-0.097992	6.041315	-20.391289	6.041315	9157.5	-1.646135E-11	-6.074836E+10	0	0	0	0
0	0	0	-0.099054	6.041196	-20.39229	6.041196	9152.5	-3.187645E-11	-3.137112E+10	0	0	0	0
0	0	0	-0.098196	6.041202	-20.391179	6.041202	9157	-3.03133E-11	-3.298882E+10	0	0	0	0
0	0	0	-0.099054	6.041295	-20.392625	6.041295	9152.5	-1.789555E-11	-5.587981E+10	0	0	0	0
0	0	0	-0.100238	6.041322	-20.394279	6.041322	9146.5	-1.601117E-11	-6.245641E+10	0	0	0	0
0	0	0	-0.099584	6.041089	-20.392633	6.041089	9150	-1.912065E-10	-5.229949E+9	0	0	0	0
0	0	0	-0.100605	6.041255	-20.394541	6.041255	9145	-2.168533E-11	-4.611412E+10	0	0	0	0
0	0	0	-0.102076	6.041229	-20.396393	6.041229	9137.5	-2.524896E-11	-3.960559E+10	0	0	0	0
0	0	0	-0.102729	6.041368	-20.397725	6.041368	9134.5	-1.351381E-11	-7.399838E+10	0	0	0	0
0	0	0	-0.104281	6.041368	-20.399775	6.041368	9126.5	-1.350197E-11	-7.406325E+10	0	0	0	0
0	0	0	-0.104281	6.041482	-20.400155	6.041482	9126.5	-9.811724E-12	-1.019189E+11	0	0	0	0
0	0	0	-0.106363	6.041342	-20.402437	6.041342	9116.5	-1.479661E-11	-6.758303E+10	0	0	0	0
0	0	0	-0.108364	6.041555	-20.405795	6.041555	9106.5	-8.319014E-12	-1.202066E+11	0	0	0	0
0	0	0	-0.10816	6.041415	-20.405056	6.041415	9107.5	-1.166702E-11	-8.571166E+10	0	0	0	0
0	0	0	-0.107588	6.041528	-20.404681	6.041528	9110.5	-8.803747E-12	-1.13588E+11	0	0	0	0
0	0	0	-0.108324	6.041428	-20.405316	6.041428	9107	-1.123589E-11	-8.900051E+10	0	0	0	0
0	0	0	-0.111182	6.041335	-20.408779	6.041335	9092.5	-1.512477E-11	-6.611672E+10	0	0	0	0
0	0	0	-0.112489	6.041475	-20.410975	6.041475	9086.5	-9.92834E-12	-1.007218E+11	0	0	0	0
0	0	0	-0.111795	6.041442	-20.409946	6.041442	9090	-1.081581E-11	-9.245726E+10	0	0	0	0
0	0	0	-0.111223	6.041435	-20.409169	6.041435	9092.5	-1.101478E-11	-9.078714E+10	0	0	0	0
0	0	0	-0.112407	6.041528	-20.411046	6.041528	9086.5	-8.780555E-12	-1.13888E+11	0	0	0	0
0	0	0	-0.113632	6.041581	-20.412843	6.041581	9080.5	-7.865456E-12	-1.271382E+11	0	0	0	0
0	0	0	-0.113428	6.041222	-20.411366	6.041222	9081.5	-2.617586E-11	-3.820313E+10	0	0	0	0
0	0	0	-0.113346	6.041422	-20.411929	6.041422	9082	-1.141567E-11	-8.759891E+10	0	0	0	0
0	0	0	-0.114204	6.041475	-20.41324	6.041475	9077.5	-9.918506E-12	-1.008216E+11	0	0	0	0
0	0	0	-0.113714	6.041408	-20.41237	6.041408	9080.5	-1.185963E-11	-8.431964E+10	0	0	0	0
0	0	0	-0.114449	6.041269	-20.412871	6.041269	9076.5	-2.009754E-11	-4.975733E+10	0	0	0	0
0	0	0	-0.110651	6.041388	-20.408257	6.041388	9095.5	-1.261859E-11	-7.924813E+10	0	0	0	0
0	0	0	-0.112897	6.041408	-20.411291	6.041408	9084	-1.18642E-11	-8.428716E+10	0	0	0	0
0	0	0	-0.110855	6.041156	-20.407744	6.041156	9094	-4.606939E-11	-2.170639E+10	0	0	0	0
0	0	0	-0.110978	6.041229	-20.408152	6.041229	9093.5	-2.512738E-11	-3.979723E+10	0	0	0	0
0	0	0	-0.110161	6.041388	-20.40761	6.041388	9097.5	-1.262137E-11	-7.923071E+10	0	0	0	0
0	0	0	-0.108691	6.041588	-20.406338	6.041588	9105	-7.785825E-12	-1.284385E+11	0	0	0	0
0	0	0	-0.107384	6.041249	-20.403472	6.041249	9111.5	-2.240023E-11	-4.464241E+10	0	0	0	0
0	0	0	-0.105506	6.041096	-20.400477	6.041096	9120.5	-1.452114E-10	-6.88651E+9	0	0	0	0
0	0	0	-0.104893	6.041408	-20.400718	6.041408	9123.5	-1.191579E-11	-8.392224E+10	0	0	0	0
0	0	0	-0.104893	6.041375	-20.400607	6.041375	9123.5	-1.320538E-11	-7.572671E+10	0	0	0	0
0	0	0	-0.102892	6.041289	-20.397673	6.041289	9133.5	-1.83963E-11	-5.435874E+10	0	0	0	0
0	0	0	-0.104607	6.041315	-20.400028	6.041315	9125	-1.640293E-11	-6.096473E+10	0	0	0	0
0	0	0	-0.103423	6.041215	-20.398128	6.041215	9131	-2.750406E-11	-3.635827E+10	0	0	0	0
0	0	0	-0.101749	6.041255	-20.396051	6.041255	9139	-2.16711E-11	-4.61444E+10	0	0	0	0
0	0	0	-0.102198	6.041442	-20.39727	6.041442	9137	-1.087173E-11	-9.198166E+10	0	0	0	0
0	0	0	-0.100769	6.041209	-20.3946	6.041209	9144	-2.884243E-11	-3.467115E+10	0	0	0	0
0	0	0	-0.100932	6.041342	-20.395263	6.041342	9143.5	-1.484044E-11	-6.738346E+10	0	0	0	0
0	0	0	-0.099584	6.041295	-20.393326	6.041295	9150	-1.789066E-11	-5.589508E+10	0	0	0	0
0	0	0	-0.101504	6.041382	-20.396152	6.041382	9140.5	-1.294969E-11	-7.722192E+10	0	0	0	0
0	0	0	-0.100769	6.041468	-20.395471	6.041468	9144	-1.015713E-11	-9.845297E+10	0	0	0	0
0	0	0	-0.101953	6.041262	-20.396343	6.041262	9138.5	-2.09278E-11	-4.778334E+10	0	0	0	0
0	0	0	-0.099993	6.041229	-20.393642	6.041229	9147.5	-2.527659E-11	-3.95623E+10	0	0	0	0
0	0	0	-0.10081	6.041269	-20.394855	6.041269	9144	-2.0247E-11	-4.939003E+10	0	0	0	0
0	0	0	-0.101953	6.041182	-20.396075	6.041182	9138.5	-3.552858E-11	-2.814635E+10	0	0	0	0
0	0	0	-0.101871	6.041149	-20.395855	6.041149	9138.5	-5.008948E-11	-1.996427E+10	0	0	0	0
0	0	0	-0.103505	6.041448	-20.399018	6.041448	9130.5	-1.067407E-11	-9.368499E+10	0	0	0	0
0	0	0	-0.103954	6.041355	-20.399299	6.041355	9128.5	-1.413016E-11	-7.07706E+10	0	0	0	0
0	0	0	-0.105057	6.041515	-20.401292	6.041515	9122.5	-9.077704E-12	-1.1016E+11	0	0	0	0
0	0	0	-0.105506	6.041202	-20.400835	6.041202	9120.5	-3.019247E-11	-3.312084E+10	0	0	0	0
0	0	0	-0.105587	6.041142	-20.400741	6.041142	9120.5	-5.445428E-11	-1.836403E+10	0	0	0	0
0	0	0	-0.107833	6.041495	-20.404893	6.041495	9109	-9.487835E-12	-1.053981E+11	0	0	0	0
0	0	0	-0.108691	6.041315	-20.405422	6.041315	9105	-1.636698E-11	-6.109864E+10	0	0	0	0
0	0	0	-0.111713	6.041482	-20.409972	6.041482	9090	-9.772483E-12	-1.023281E+11	0	0	0	0
0	0	0	-0.111713	6.041428	-20.409794	6.041428	9090	-1.121492E-11	-8.916696E+10	0	0	0	0
0	0	0	-0.111999	6.041242	-20.409545	6.041242	9088.5	-2.319649E-11	-4.310996E+10	0	0	0	0
0	0	0	-0.112897	6.041335	-20.411045	6.041335	9084	-1.511063E-11	-6.617859E+10	0	0	0	0
0	0	0	-0.113469	6.041521	-20.412426	6.041521	9081.5	-8.9044E-12	-1.12304E+11	0	0	0	0
0	0	0	-0.114245	6.041422	-20.413116	6.041422	9077.5	-1.141001E-11	-8.764234E+10	0	0	0	0
0	0	0	-0.113959	6.041422	-20.412738	6.041422	9079	-1.14119E-11	-8.762786E+10	0	0	0	0
0	0	0	-0.113346	6.041295	-20.411504	6.041295	9082	-1.77577E-11	-5.631358E+10	0	0	0	0
0	0	0	-0.115715	6.041495	-20.415303	6.041495	9070.5	-9.447733E-12	-1.058455E+11	0	0	0	0
0	0	0	-0.116695	6.041322	-20.416017	6.041322	9065.5	-1.586938E-11	-6.301445E+10	0	0	0	0
0	0	0	-0.116572	6.041342	-20.415922	6.041342	9066.5	-1.471546E-11	-6.795574E+10	0	0	0	0
0	0	0	-0.116327	6.041315	-20.415509	6.041315	9067.5	-1.629957E-11	-6.135132E+10	0	0	0	0
0	0	0	-0.115143	0	-0.115143	0	9073.5	0	0	0	0	0	0
0	0	0	-0.11596	0	-0.11596	0	9069	0	0	0	0	0	0
