Vload_(V)	ILoad_(A)	RsLoad (ohm)	SunsVoc_Voltage_(V)	SunsVoc_Current_(A)	Model_Voltage_(V)	Model_Current_(A)	Carrier_Density_(cm-3)	Lifetime_(s)	Inverse_Lifetime_(s-1)	Efficiency_(%)	Intensity_(suns)	Dark_IV_Voltage_(V)	Dark_IV_Current_(A)
3.210273	6.040363	0	52.188638	-0.373636	52.392819	-0.373636	8.289717E+15	0.000575	1625.252359	19.714516	1.149579	0	0
3.173061	6.041379	-0.543109	52.769375	-0.734904	53.146426	-0.734904	1.015736E+16	0.000667	1328.203677	19.600791	1.148218	0	0
3.305	6.040393	2.148133	52.910751	-0.613824	53.220689	-0.613824	1.066203E+16	0.000713	1214.259591	19.481147	1.145258	0	0
6.151417	6.036957	3.993627	52.885718	-0.28393	53.029492	-0.28393	1.057115E+16	0.000744	1159.369962	19.417832	1.142694	0	0
10.995701	6.018322	4.64225	52.802003	0.101591	52.750072	0.101591	1.0272E+16	0.000769	1124.517909	19.30321	1.141796	0	0
15.143279	6.016724	3.996641	52.690111	0.499737	52.431437	0.499737	9.883347E+15	0.000794	1098.071231	19.195316	1.14095	0	0
19.476155	6.010449	3.416508	52.568786	0.871178	52.111765	0.871178	9.476001E+15	0.000815	1077.218772	19.2007	1.139457	0	0
23.813994	5.998668	2.880055	52.446725	1.203693	51.806815	1.203693	9.080527E+15	0.000835	1060.490317	19.186743	1.137475	0	0
28.120974	5.999595	2.150394	52.325685	1.505229	51.514991	1.505229	8.70213E+15	0.000854	1045.831354	19.1276	1.133986	0	0
32.48163	5.993982	1.492082	52.20632	1.78281	51.233882	1.78281	8.34199E+15	0.000872	1031.796633	19.130901	1.129216	0	0
36.758541	5.947701	1.126271	52.08479	2.039752	50.957943	2.039752	7.988207E+15	0.000888	1019.892996	19.112527	1.125	0	0
37.820563	5.920956	1.067648	51.965874	2.276863	50.69246	2.276863	7.654242E+15	0.000905	1008.048746	19.019674	1.121274	0	0
38.860709	5.885324	1.012291	51.846836	2.502516	50.43008	2.502516	7.331668E+15	0.000922	995.515658	18.999816	1.117746	0	0
39.912432	5.834957	0.962388	51.721753	2.721111	50.161664	2.721111	7.004987E+15	0.000939	983.728639	19.031979	1.114244	0	0
40.97116	5.767018	0.911932	51.595405	2.920328	49.899873	2.920328	6.687374E+15	0.000953	974.570681	19.010285	1.110187	0	0
42.028998	5.676173	0.860538	51.473548	3.104312	49.649434	3.104312	6.392473E+15	0.000969	964.657981	19.0707	1.104954	0	0
43.077753	5.555325	0.811308	51.35357	3.276206	49.405838	3.276206	6.11274E+15	0.000984	954.499556	19.157366	1.099047	0	0
44.103558	5.386056	0.773803	51.235675	3.439984	49.167245	3.439984	5.847824E+15	0.001	942.851403	19.099202	1.093722	0	0
45.128354	5.165763	0.734388	51.108592	3.594583	48.920923	3.594583	5.57299E+15	0.001014	934.997655	19.016997	1.088304	0	0
46.121865	4.875817	0.701548	50.98796	3.736632	48.68791	3.736632	5.322096E+15	0.001028	926.044005	19.023898	1.082556	0	0
47.108448	4.498768	0.674477	50.867656	3.869813	48.458845	3.869813	5.081273E+15	0.001041	917.4005	18.985185	1.077534	0	0
48.07187	4.010358	0.658362	50.747882	3.995302	48.233431	3.995302	4.850554E+15	0.001055	908.722066	18.910978	1.072077	0	0
48.990503	3.441234	0.646226	50.626352	4.115246	48.007644	4.115246	4.625397E+15	0.001069	900.106684	18.941053	1.065761	0	0
49.853705	2.806107	0.640151	50.507436	4.224165	47.79052	4.224165	4.413542E+15	0.001081	892.719771	18.936772	1.059589	0	0
50.692002	2.093828	0.660719	50.387458	4.3237	47.576681	4.3237	4.208024E+15	0.00109	887.667777	18.870211	1.053273	0	0
51.447639	1.385623	0.674589	50.268093	4.414874	47.367729	4.414874	4.01151E+15	0.001098	884.181177	18.876092	1.046534	0	0
52.079505	0.754705	0.655736	50.154118	4.501394	47.1674	4.501394	3.831058E+15	0.001107	878.668051	18.888112	1.04064	0	0
42.674375	5.602093	0.834333	50.034753	4.58609	46.960347	4.58609	3.649375E+15	0.001116	873.70948	18.826577	1.034892	0	0
52.710251	0	0	49.916082	4.664044	46.757576	4.664044	3.475935E+15	0.001123	870.044303	18.832744	1.028483	0	0
0	0	0	49.797941	4.736982	46.557848	4.736982	3.310174E+15	0.00113	866.951811	18.879048	1.022233	0	0
0	0	0	49.684048	4.804241	46.366473	4.804241	3.156695E+15	0.001136	863.737695	18.838365	1.016194	0	0
0	0	0	49.56893	4.868226	46.17493	4.868226	3.007684E+15	0.001141	861.051244	18.827899	1.009666	0	0
0	0	0	49.451198	4.930635	45.980294	4.930635	2.861462E+15	0.001147	858.214584	18.867041	1.003323	0	0
0	0	0	49.336815	4.987972	45.792728	4.987972	2.725193E+15	0.001152	855.775778	18.817614	0.997601	0	0
0	0	0	49.221615	5.041537	45.606057	5.041537	2.593545E+15	0.001155	854.574533	18.801854	0.991483	0	0
0	0	0	49.106251	5.093176	45.41986	5.093176	2.467163E+15	0.001159	852.933509	18.854122	0.985444	0	0
0	0	0	48.993011	5.142097	45.237714	5.142097	2.348247E+15	0.001163	850.756375	18.836638	0.979868	0	0
0	0	0	48.88018	5.186407	45.058858	5.186407	2.234666E+15	0.001164	850.752524	18.807472	0.97367	0	0
0	0	0	48.762856	5.230417	44.873806	5.230417	2.121591E+15	0.001165	850.723072	18.857604	0.967235	0	0
0	0	0	48.653088	5.269087	44.702013	5.269087	2.02029E+15	0.001165	851.423783	18.839883	0.961368	0	0
0	0	0	48.538092	5.308517	44.522331	5.308517	1.918671E+15	0.001166	851.342686	18.794093	0.955751	0	0
0	0	0	48.422443	5.344116	44.344198	5.344116	1.820972E+15	0.001163	854.006828	18.843937	0.94958	0	0
0	0	0	48.313286	5.377899	44.175492	5.377899	1.732757E+15	0.001164	854.457955	18.843835	0.944202	0	0
0	0	0	48.195677	5.410701	43.996036	5.410701	1.641908E+15	0.00116	857.609689	18.787999	0.938771	0	0
0	0	0	48.087828	5.440142	43.831584	5.440142	1.562295E+15	0.001158	859.601768	18.832471	0.932917	0	0
0	0	0	47.971729	5.469086	43.656313	5.469086	1.480408E+15	0.001153	863.83741	18.846845	0.927565	0	0
0	0	0	47.860654	5.496425	43.488544	5.496425	1.405635E+15	0.00115	866.61799	18.80183	0.922253	0	0
0	0	0	47.747986	5.522171	43.319605	5.522171	1.33323E+15	0.001145	870.778748	18.828982	0.916624	0	0
0	0	0	47.634296	5.547221	43.149548	5.547221	1.263553E+15	0.00114	874.694652	18.846169	0.911338	0	0
0	0	0	47.51975	5.571287	42.978832	5.571287	1.196658E+15	0.001135	878.80229	18.788806	0.906449	0	0
0	0	0	47.409981	5.592734	42.816266	5.592734	1.135553E+15	0.001128	883.999409	18.812012	0.900859	0	0
0	0	0	47.295189	5.614035	42.646906	5.614035	1.074671E+15	0.001121	889.867449	18.848505	0.89556	0	0
0	0	0	47.187299	5.633253	42.48814	5.633253	1.020154E+15	0.001115	895.366233	18.795296	0.890724	0	0
0	0	0	47.075366	5.652215	42.323993	5.652215	9.662583E+14	0.001107	901.465378	18.805521	0.885108	0	0
0	0	0	46.964658	5.669775	42.162415	5.669775	9.155148E+14	0.001099	908.55834	18.840418	0.879981	0	0
0	0	0	46.853746	5.686668	42.000911	5.686668	8.671308E+14	0.001091	915.680782	18.789071	0.875144	0	0
0	0	0	46.742997	5.702817	41.840048	5.702817	8.211682E+14	0.001082	922.924084	18.791291	0.869964	0	0
0	0	0	46.632861	5.718294	41.680375	5.718294	7.776928E+14	0.001074	929.957271	18.831172	0.865022	0	0
0	0	0	46.522561	5.732682	41.52124	5.732682	7.362917E+14	0.001065	938.483089	18.781247	0.860331	0	0
0	0	0	46.409689	5.746495	41.359004	5.746495	6.960465E+14	0.001054	948.282907	18.776357	0.855032	0	0
0	0	0	46.302983	5.759453	41.205554	5.759453	6.598889E+14	0.001045	956.224293	18.816233	0.849865	0	0
0	0	0	46.190927	5.772184	41.045022	5.772184	6.238089E+14	0.001035	965.771735	18.75067	0.845293	0	0
0	0	0	46.080709	5.784112	40.887496	5.784112	5.901273E+14	0.001024	975.560833	18.733667	0.840073	0	0
0	0	0	45.96996	5.795197	40.729872	5.795197	5.580073E+14	0.001012	987.151513	18.778802	0.835039	0	0
0	0	0	45.855741	5.806642	40.56715	5.806642	5.266081E+14	0.001002	997.241796	18.733018	0.830559	0	0
0	0	0	45.746258	5.816747	40.411828	5.816747	4.980818E+14	0.000991	1008.824488	18.709101	0.825564	0	0
0	0	0	45.633181	5.826796	40.251633	5.826796	4.701574E+14	0.000979	1020.765207	18.754101	0.820463	0	0
0	0	0	45.520595	5.836214	40.092548	5.836214	4.438337E+14	0.000967	1033.666636	18.701332	0.81605	0	0
0	0	0	45.410867	5.84493	39.937819	5.84493	4.195311E+14	0.000955	1046.89841	18.669091	0.811266	0	0
0	0	0	45.297709	5.853609	39.778428	5.853609	3.958001E+14	0.000943	1060.41904	18.719409	0.806152	0	0
0	0	0	45.184142	5.861872	39.618775	5.861872	3.732762E+14	0.00093	1074.69098	18.671238	0.802043	0	0
0	0	0	45.070575	5.869673	39.459454	5.869673	3.519827E+14	0.000917	1089.92162	18.631679	0.797325	0	0
0	0	0	44.954028	5.87722	39.296288	5.87722	3.313446E+14	0.000903	1106.644942	18.680063	0.792449	0	0
0	0	0	44.844994	5.884197	39.143629	5.884197	3.130944E+14	0.000892	1121.085807	18.63588	0.788273	0	0
0	0	0	44.728283	5.891323	38.980459	5.891323	2.946335E+14	0.000879	1136.985471	18.595639	0.783728	0	0
0	0	0	44.615207	5.897599	38.822895	5.897599	2.777526E+14	0.000865	1155.320877	18.659458	0.778905	0	0
0	0	0	44.50311	5.903771	38.666666	5.903771	2.619433E+14	0.000853	1172.104478	18.604721	0.774927	0	0
0	0	0	44.386154	5.909647	38.504141	5.909647	2.463791E+14	0.000838	1192.558188	18.57027	0.770183	0	0
0	0	0	44.274629	5.915309	38.34903	5.915309	2.32376E+14	0.000827	1209.664981	18.608466	0.765664	0	0
0	0	0	44.159184	5.920649	38.188915	5.920649	2.186965E+14	0.000813	1230.458481	18.562461	0.76166	0	0
0	0	0	44.044434	5.92577	38.029882	5.92577	2.058777E+14	0.000799	1251.166561	18.536611	0.757207	0	0
0	0	0	43.933317	5.930303	37.876258	5.930303	1.941645E+14	0.000785	1274.177031	18.58715	0.752753	0	0
0	0	0	43.818444	5.934953	37.717414	5.934953	1.827399E+14	0.000771	1296.637003	18.53509	0.748723	0	0
0	0	0	43.702795	5.939406	37.557673	5.939406	1.719029E+14	0.000757	1320.158679	18.486431	0.744415	0	0
0	0	0	43.588534	5.943488	37.400122	5.943488	1.618147E+14	0.000743	1345.768199	18.530291	0.739909	0	0
0	0	0	43.468597	5.947753	37.234707	5.947753	1.518498E+14	0.000729	1370.9525	18.4642	0.736156	0	0
0	0	0	43.354826	5.951182	37.078392	5.951182	1.429549E+14	0.000713	1402.337041	18.435354	0.731862	0	0
0	0	0	43.238197	5.954953	36.917832	5.954953	1.343682E+14	0.0007	1428.872978	18.486521	0.727461	0	0
0	0	0	43.11777	5.958495	36.752366	5.958495	1.260342E+14	0.000685	1460.182127	18.434392	0.723722	0	0
0	0	0	43.002978	5.961729	36.594751	5.961729	1.185648E+14	0.000671	1490.871059	18.403229	0.719374	0	0
0	0	0	42.880836	5.964961	36.427221	5.964961	1.110958E+14	0.000655	1525.695867	18.444502	0.715079	0	0
0	0	0	42.761062	5.968061	36.262972	5.968061	1.042228E+14	0.000641	1559.45728	18.380022	0.711379	0	0
0	0	0	42.64235	5.970933	36.100356	5.970933	9.782522E+13	0.000627	1595.431519	18.352852	0.707362	0	0
0	0	0	42.521311	5.973488	35.934924	5.973488	9.170169E+13	0.00061	1639.352005	18.400284	0.702988	0	0
0	0	0	42.402272	5.976371	35.771781	5.976371	8.604933E+13	0.000598	1671.728251	18.336704	0.699368	0	0
0	0	0	42.26698	5.979277	35.586729	5.979277	8.004275E+13	0.000583	1715.568918	18.307703	0.695284	0	0
0	0	0	42.143531	5.981621	35.418182	5.981621	7.492507E+13	0.000567	1762.426856	18.341999	0.691188	0	0
0	0	0	42.01804	5.983954	35.246868	5.983954	7.005502E+13	0.000552	1810.076012	18.268901	0.687673	0	0
0	0	0	41.898308	5.986239	35.083318	5.986239	6.570135E+13	0.00054	1851.852202	18.243705	0.683814	0	0
0	0	0	41.770367	5.988847	34.908329	5.988847	6.134547E+13	0.00053	1887.763693	18.291931	0.679771	0	0
0	0	0	41.640751	5.990601	34.732035	5.990601	5.722484E+13	0.000512	1954.774951	18.212946	0.676401	0	0
0	0	0	41.515628	5.992807	34.561232	5.992807	5.350799E+13	0.000501	1997.904837	18.197043	0.672344	0	0
0	0	0	41.391607	5.994681	34.392266	5.994681	5.006064E+13	0.000487	2051.310692	18.211922	0.668525	0	0
0	0	0	41.266239	5.996227	34.221848	5.996227	4.680016E+13	0.000472	2119.976536	18.135918	0.664878	0	0
0	0	0	41.134582	5.998145	34.042508	5.998145	4.36032E+13	0.000459	2176.513102	18.118223	0.661073	0	0
0	0	0	41.009663	5.999966	33.872319	5.999966	4.077095E+13	0.000449	2227.320176	18.147299	0.65728	0	0
0	0	0	40.877883	6.001413	33.693322	6.001413	3.798134E+13	0.000434	2305.263082	18.064212	0.65395	0	0
0	0	0	40.748145	6.003093	33.516769	6.003093	3.542062E+13	0.000423	2365.291945	18.07826	0.649907	0	0
0	0	0	40.614732	6.004607	33.335447	6.004607	3.296653E+13	0.00041	2438.132642	18.077454	0.646352	0	0
0	0	0	40.477276	6.005851	33.148993	6.005851	3.061509E+13	0.000395	2534.104456	17.998228	0.642929	0	0
0	0	0	40.345047	6.007454	32.969111	6.007454	2.85109E+13	0.000385	2594.714876	18.009684	0.638992	0	0
0	0	0	40.209837	6.008837	32.785465	6.008837	2.650823E+13	0.000374	2673.479439	18.012814	0.63545	0	0
0	0	0	40.073361	6.010038	32.60032	6.010038	2.462898E+13	0.000361	2767.848239	17.923919	0.632147	0	0
0	0	0	39.935252	6.011295	32.412887	6.011295	2.286243E+13	0.00035	2858.111771	17.956587	0.628182	0	0
0	0	0	39.798531	6.012326	32.227588	6.012326	2.123813E+13	0.000337	2967.571809	17.934228	0.62476	0	0
0	0	0	39.656991	6.01344	32.035682	6.01344	1.967774E+13	0.000325	3075.576024	17.852698	0.621377	0	0
0	0	0	39.517534	6.014501	31.846629	6.014501	1.825221E+13	0.000314	3185.19639	17.873869	0.617677	0	0
0	0	0	39.370931	6.015393	31.648156	6.015393	1.686459E+13	0.0003	3328.370744	17.835623	0.614466	0	0
0	0	0	39.232373	6.01658	31.460117	6.01658	1.565003E+13	0.000293	3416.184333	17.759645	0.611109	0	0
0	0	0	39.083891	6.017582	31.258939	6.017582	1.444522E+13	0.000282	3545.088234	17.806915	0.607356	0	0
0	0	0	38.939942	6.018398	31.064091	6.018398	1.336565E+13	0.000271	3694.183444	17.76092	0.604291	0	0
0	0	0	38.787458	6.019226	30.857723	6.019226	1.230981E+13	0.000259	3859.805416	17.695403	0.600948	0	0
0	0	0	38.640446	6.020004	30.658775	6.020004	1.137079E+13	0.000248	4024.88093	17.731346	0.597248	0	0
0	0	0	38.486206	6.020868	30.449967	6.020868	1.046239E+13	0.000239	4188.718403	17.666146	0.594248	0	0
0	0	0	38.333927	6.021754	30.243753	6.021754	9.636669E+12	0.00023	4340.977855	17.609775	0.590931	0	0
0	0	0	38.174011	6.02221	30.027822	6.02221	8.839517E+12	0.000217	4616.40879	17.664927	0.587271	0	0
0	0	0	38.014258	6.022967	29.811694	6.022967	8.108951E+12	0.000207	4822.523383	17.57969	0.584575	0	0
0	0	0	37.852545	6.023821	29.592779	6.023821	7.430836E+12	0.0002	5004.182265	17.54019	0.580968	0	0
0	0	0	37.691118	6.024181	29.374915	6.024181	6.81043E+12	0.000187	5341.273417	17.557436	0.577704	0	0
0	0	0	37.525076	6.025009	29.150181	6.025009	6.226241E+12	0.00018	5543.552474	17.469335	0.574744	0	0
0	0	0	37.354625	6.025662	28.919736	6.025662	5.678582E+12	0.000172	5819.644532	17.447702	0.571295	0	0
0	0	0	37.185602	6.026121	28.691476	6.026121	5.183062E+12	0.000162	6176.883265	17.467785	0.567978	0	0
0	0	0	37.008902	6.026861	28.452469	6.026861	4.711175E+12	0.000155	6442.349907	17.374045	0.565176	0	0
0	0	0	36.833754	6.027394	28.215834	6.027394	4.285818E+12	0.000147	6802.279225	17.392733	0.561661	0	0
0	0	0	36.65493	6.027779	27.974451	6.027779	3.891111E+12	0.000138	7269.667055	17.360072	0.558794	0	0
0	0	0	36.47088	6.028482	27.725559	6.028482	3.522775E+12	0.000132	7581.033124	17.272149	0.555675	0	0
0	0	0	36.286503	6.028982	27.47651	6.028982	3.188728E+12	0.000125	8023.328652	17.279067	0.552319	0	0
0	0	0	36.095387	6.029481	27.218374	6.029481	2.875855E+12	0.000118	8505.582246	17.245599	0.549438	0	0
0	0	0	35.902516	6.029707	26.95827	6.029707	2.59121E+12	0.000108	9244.34795	17.15983	0.546571	0	0
0	0	0	35.705357	6.030276	26.691871	6.030276	2.329326E+12	0.000103	9734.642594	17.202016	0.543056	0	0
0	0	0	35.502481	6.030624	26.418092	6.030624	2.087443E+12	9.534717E-5	10487.987813	17.117089	0.540571	0	0
0	0	0	35.298747	6.031175	26.142841	6.031175	1.869805E+12	9.053672E-5	11045.242536	17.084935	0.537413	0	0
0	0	0	35.093748	6.031493	25.86623	6.031493	1.673708E+12	8.393871E-5	11913.454113	17.099514	0.534281	0	0
0	0	0	34.880744	6.032041	25.578474	6.032041	1.491705E+12	7.974125E-5	12540.560856	17.015659	0.531678	0	0
0	0	0	34.665984	6.032295	25.288797	6.032295	1.328229E+12	7.323427E-5	13654.80865	16.983096	0.528507	0	0
0	0	0	34.451225	6.032433	24.999295	6.032433	1.182666E+12	6.634428E-5	15072.889914	17.002993	0.525613	0	0
0	0	0	34.232014	6.032836	24.703375	6.032836	1.050522E+12	6.208798E-5	16106.17671	16.896319	0.523023	0	0
0	0	0	34.005044	6.033272	24.396941	6.033272	9.292366E+11	5.829527E-5	17154.05054	16.913693	0.519627	0	0
0	0	0	33.779177	6.033558	24.092221	6.033558	8.224422E+11	5.376422E-5	18599.72882	16.869505	0.517169	0	0
0	0	0	33.547674	6.034003	23.779644	6.034003	7.257063E+11	5.07647E-5	19698.726467	16.770166	0.514328	0	0
0	0	0	33.312374	6.034229	23.462299	6.034229	6.390343E+11	4.634437E-5	21577.593559	16.785494	0.511183	0	0
0	0	0	33.075399	6.034393	23.142791	6.034393	5.622039E+11	4.189805E-5	23867.459837	16.731573	0.508606	0	0
0	0	0	32.822376	6.034705	22.801416	6.034705	4.903379E+11	3.855345E-5	25938.014746	16.655413	0.505884	0	0
0	0	0	32.577438	6.035047	22.470872	6.035047	4.295312E+11	3.594703E-5	27818.713405	16.701109	0.502646	0	0
0	0	0	32.328171	6.035389	22.134489	6.035389	3.753854E+11	3.357186E-5	29786.851	16.59878	0.500532	0	0
0	0	0	32.077966	6.035575	21.797094	6.035575	3.278982E+11	3.047011E-5	32819.051785	16.567057	0.497414	0	0
0	0	0	31.829352	6.035755	21.461851	6.035755	2.866648E+11	2.767592E-5	36132.494362	16.566937	0.494599	0	0
0	0	0	31.576819	6.03598	21.121243	6.03598	2.500858E+11	2.538614E-5	39391.574135	16.464538	0.492286	0	0
0	0	0	31.324286	6.036172	20.780687	6.036172	2.181742E+11	2.315892E-5	43179.911984	16.444738	0.489326	0	0
0	0	0	31.062115	6.03633	20.427201	6.03633	1.893455E+11	2.088555E-5	47879.992751	16.441022	0.48671	0	0
0	0	0	30.805783	6.036726	20.081153	6.036726	1.648456E+11	2.016577E-5	49588.977643	16.332421	0.484292	0	0
0	0	0	30.543612	6.03677	19.727859	6.03677	1.430634E+11	1.771359E-5	56453.828532	16.372749	0.4812	0	0
0	0	0	30.282993	6.036919	19.376462	6.036919	1.242636E+11	1.605378E-5	62290.622485	16.298051	0.478821	0	0
0	0	0	30.017882	6.037135	19.018889	6.037135	1.076725E+11	1.483995E-5	67385.672164	16.235403	0.476086	0	0
0	0	0	29.753424	6.03731	18.662263	6.03731	9.332942E+10	1.360203E-5	73518.46478	16.243612	0.473258	0	0
0	0	0	29.486843	6.037465	18.302808	6.037465	8.080419E+10	1.240706E-5	80599.251493	16.138439	0.470958	0	0
0	0	0	29.21626	6.037627	17.937945	6.037627	6.980869E+10	1.135181E-5	88091.707432	16.102194	0.468183	0	0
0	0	0	28.946616	6.037695	17.574517	6.037695	6.034004E+10	1.006292E-5	99374.707123	16.116115	0.465356	0	0
0	0	0	28.669621	6.037697	17.201311	6.037697	5.194884E+10	8.668463E-6	115360.702374	15.988073	0.463241	0	0
0	0	0	28.392872	6.038011	16.827836	6.038011	4.473049E+10	8.460269E-6	118199.557848	16.018335	0.460083	0	0
0	0	0	28.116857	6.038165	16.455651	6.038165	3.853043E+10	7.798554E-6	128228.897379	15.938709	0.457916	0	0
0	0	0	27.838638	6.038172	16.080774	6.038172	3.315022E+10	6.73296E-6	148523.084571	15.851695	0.455352	0	0
0	0	0	27.557886	6.038399	15.702056	6.038399	2.848226E+10	6.453758E-6	154948.475044	15.870544	0.452683	0	0
0	0	0	27.279503	6.038693	15.326389	6.038693	2.450296E+10	6.527597E-6	153195.721847	15.78477	0.450516	0	0
0	0	0	26.995321	6.038494	14.943883	6.038494	2.101364E+10	5.002222E-6	199911.155553	15.729012	0.447873	0	0
0	0	0	26.711344	6.038767	14.560708	6.038767	1.80232E+10	5.025225E-6	198996.063772	15.750405	0.44527	0	0
0	0	0	26.424671	6.038954	14.174068	6.038954	1.543582E+10	4.874294E-6	205157.935811	15.622254	0.443275	0	0
0	0	0	26.137263	6.038888	13.786949	6.038888	1.321463E+10	3.98588E-6	250885.64886	15.643239	0.440301	0	0
0	0	0	25.850263	6.038955	13.400108	6.038955	1.131556E+10	3.575192E-6	279705.253956	15.574726	0.438319	0	0
0	0	0	25.561099	6.039075	13.010238	6.039075	9.678072E+9	3.342836E-6	299147.202518	15.499045	0.435703	0	0
0	0	0	25.26969	6.039228	12.617268	6.039228	8.267505E+9	3.241323E-6	308516.024132	15.50012	0.433179	0	0
0	0	0	24.980566	6.039175	12.22781	6.039175	7.071262E+9	2.648634E-6	377553.155258	15.392795	0.43125	0	0
0	0	0	24.689892	6.039361	11.835753	6.039361	6.043035E+9	2.684996E-6	372440.040716	15.359047	0.428673	0	0
0	0	0	24.397461	6.039495	11.441438	6.039495	5.159422E+9	2.644155E-6	378192.649667	15.356714	0.426294	0	0
0	0	0	24.101232	6.039481	11.042318	6.039481	4.395976E+9	2.219254E-6	450601.856134	15.23529	0.424418	0	0
0	0	0	23.804024	6.039488	10.641834	6.039488	3.743514E+9	1.904524E-6	525065.690344	15.27438	0.42163	0	0
0	0	0	23.505304	6.039661	10.238949	6.039661	3.18529E+9	2.020401E-6	494951.354616	15.185642	0.419872	0	0
0	0	0	23.192822	6.039741	9.81772	6.039741	2.690218E+9	1.925854E-6	519250.260939	15.112941	0.417467	0	0
0	0	0	22.889978	6.039675	9.409801	6.039675	2.283961E+9	1.477105E-6	676999.999568	15.125233	0.415168	0	0
0	0	0	22.589625	6.039615	9.005226	6.039615	1.941666E+9	1.155298E-6	865577.707604	15.024235	0.413212	0	0
0	0	0	22.288619	6.039741	8.599351	6.039741	1.650088E+9	1.181645E-6	846277.93523	14.995966	0.410648	0	0
0	0	0	21.987081	6.039934	8.192604	6.039934	1.401894E+9	1.456217E-6	686710.83849	14.974295	0.408547	0	0
0	0	0	21.681419	6.039841	7.780951	6.039841	1.188378E+9	1.014029E-6	986165.157009	14.86501	0.406539	0	0
0	0	0	21.378126	6.039675	7.372663	6.039675	1.008673E+9	6.525782E-7	1532383.319089	14.909483	0.403962	0	0
0	0	0	21.072015	6.039914	6.959635	6.039914	8.548393E+8	8.486356E-7	1178362.005738	14.795221	0.402059	0	0
0	0	0	20.76525	6.040008	6.546063	6.040008	7.242112E+8	9.076289E-7	1101771.870246	14.762939	0.39972	0	0
0	0	0	20.454239	6.039934	6.12716	6.039934	6.121374E+8	6.36089E-7	1572107.111068	14.723723	0.397672	0	0
0	0	0	20.143268	6.040048	5.707869	6.040048	5.174187E+8	7.307051E-7	1368541.201701	14.607065	0.395584	0	0
0	0	0	19.827397	6.039934	5.282516	6.039934	4.361993E+8	4.533037E-7	2206026.314603	14.612238	0.393192	0	0
0	0	0	19.507688	6.040054	4.851429	6.040054	3.669666E+8	5.294663E-7	1888694.399046	14.539571	0.391316	0	0
0	0	0	19.180097	6.0403	4.409409	6.0403	3.074098E+8	2.198737E-6	454806.648867	14.470394	0.389188	0	0
0	0	0	18.852383	6.04034	3.967723	6.04034	2.575018E+8	5.142546E-6	194456.227411	14.496519	0.386863	0	0
0	0	0	18.519687	6.040247	3.519652	6.040247	2.151162E+8	8.293159E-7	1205813.173364	14.356705	0.385092	0	0
0	0	0	18.182663	6.040174	3.065702	6.040174	1.792874E+8	4.229951E-7	2364093.756521	14.3805	0.382568	0	0
0	0	0	17.842658	6.040274	2.607302	6.040274	1.491854E+8	7.476159E-7	1337585.33151	14.284368	0.380903	0	0
0	0	0	17.496772	6.04034	2.141059	6.04034	1.237436E+8	2.474405E-6	404137.573998	14.24174	0.378472	0	0
0	0	0	17.141697	6.040407	1.662432	6.040407	1.02132E+8	-1.026163E-6	-974503.680316	14.24071	0.376463	0	0
0	0	0	16.780416	6.040407	1.17561	6.040407	8.401242E+7	-8.440293E-7	-1184793.019487	14.109755	0.374838	0	0
0	0	0	16.414071	6.040374	0.682051	6.040374	6.89186E+7	-2.781001E-6	-359582.756946	14.106802	0.372367	0	0
0	0	0	16.041315	6.040061	0.180588	6.040061	5.634096E+7	8.310053E-8	1.203362E+7	14.037324	0.370741	0	0
0	0	0	15.665781	6.040374	-0.326258	6.040374	4.598965E+7	-1.854876E-6	-539119.60838	13.972369	0.368733	0	0
0	0	0	15.281591	6.040473	-0.844216	6.040473	3.736487E+7	-1.500066E-7	-6666374.163517	13.991995	0.366513	0	0
0	0	0	14.888335	6.04042	-1.373982	6.04042	3.020914E+7	-2.333274E-7	-4285823.756884	13.860164	0.36498	0	0
0	0	0	14.486094	6.040547	-1.916339	6.040547	2.430548E+7	-5.876927E-8	-1.70157E+7	13.889719	0.36239	0	0
0	0	0	14.075237	6.040254	-2.469166	6.040254	1.946467E+7	7.966272E-8	1.255292E+7	13.790822	0.360936	0	0
0	0	0	13.655968	6.040513	-3.034839	6.040513	1.551726E+7	-4.579838E-8	-2.183483E+7	13.718012	0.358954	0	0
0	0	0	13.231676	6.040394	-3.606236	6.040394	1.233683E+7	-1.770721E-7	-5647416.362127	13.6954	0.357078	0	0
0	0	0	12.807669	6.040453	-4.177747	6.040453	9809785.5	-4.802914E-8	-2.082069E+7	13.573396	0.355307	0	0
0	0	0	12.374352	6.040553	-4.76192	6.040553	7761210	-1.811093E-8	-5.521529E+7	13.550029	0.353193	0	0
0	0	0	11.935563	6.040573	-5.353244	6.040573	6122301	-1.293272E-8	-7.732328E+7	13.477921	0.351448	0	0
0	0	0	11.491751	6.040467	-5.950972	6.040467	4816379.5	-2.056919E-8	-4.861639E+7	13.42318	0.3494	0	0
0	0	0	11.040793	6.040739	-6.559429	6.040739	3774408.5	-4.455083E-9	-2.244627E+8	13.429683	0.347471	0	0
0	0	0	10.58571	6.040547	-7.172089	6.040547	2951269	-7.135772E-9	-1.40139E+8	13.272065	0.346149	0	0
0	0	0	10.120173	6.040427	-7.799043	6.040427	2294639	-1.588636E-8	-6.294708E+7	13.307014	0.343705	0	0
0	0	0	9.645529	6.040487	-8.438799	6.040487	1775342	-6.362892E-9	-1.571612E+8	13.167354	0.342502	0	0
0	0	0	9.168068	6.040493	-9.082195	6.040493	1371476	-4.665394E-9	-2.143442E+8	13.142004	0.340243	0	0
0	0	0	8.680315	6.040467	-9.739356	6.040467	1053606.5	-4.499562E-9	-2.222439E+8	13.091839	0.338617	0	0
0	0	0	8.186642	6.040553	-10.404843	6.040553	806823	-1.882716E-9	-5.311476E+8	12.995774	0.336728	0	0
0	0	0	7.692111	6.040507	-11.071076	6.040507	617557	-1.906783E-9	-5.244435E+8	12.986896	0.334904	0	0
0	0	0	7.206646	6.040606	-11.72555	6.040606	475011.5	-8.665508E-10	-1.154E+9	12.859542	0.333477	0	0
0	0	0	6.753523	6.0407	-12.336427	6.0407	371812.5	-4.908413E-10	-2.037319E+9	12.837618	0.331495	0	0
0	0	0	6.326617	6.040547	-12.911197	6.040547	295188.5	-7.137228E-10	-1.401104E+9	12.789419	0.329988	0	0
0	0	0	5.913718	6.040414	-13.467149	6.040414	236136.5	-2.06166E-9	-4.850461E+8	12.712315	0.328165	0	0
0	0	0	5.514459	6.040533	-14.005533	6.040533	190295.5	-4.959685E-10	-2.016257E+9	12.714696	0.326341	0	0
0	0	0	5.125654	6.040606	-14.529684	6.040606	154223	-2.813448E-10	-3.554358E+9	12.58441	0.32494	0	0
0	0	0	4.734562	6.040493	-15.05631	6.040493	124833.5	-4.246488E-10	-2.354887E+9	12.616855	0.3228	0	0
0	0	0	4.37328	6.040533	-15.543265	6.040533	102686.5	-2.676325E-10	-3.736467E+9	12.468843	0.321782	0	0
0	0	0	4.017594	6.040693	-16.023081	6.040693	84724.5	-1.140997E-10	-8.764266E+9	12.463863	0.319655	0	0
0	0	0	3.679018	6.040533	-16.478781	6.040533	70554	-1.838854E-10	-5.438171E+9	12.374364	0.31836	0	0
0	0	0	3.355265	6.040427	-16.914678	6.040427	59226	-4.100318E-10	-2.438835E+9	12.304458	0.316457	0	0
0	0	0	3.040742	6.040633	-17.33919	6.040633	49966	-8.218439E-11	-1.216776E+10	12.289084	0.314911	0	0
0	0	0	2.731405	6.040433	-17.755346	6.040433	42271.5	-2.651995E-10	-3.770747E+9	12.147332	0.313431	0	0
0	0	0	2.438688	6.040719	-18.150753	6.040719	36085	-4.497366E-11	-2.223524E+10	12.150616	0.311541	0	0
0	0	0	2.154547	6.040646	-18.533384	6.040646	30947	-4.851543E-11	-2.0612E+10	12.037687	0.310418	0	0
0	0	0	1.879104	6.04058	-18.904314	6.04058	26665.5	-5.46029E-11	-1.831405E+10	12.006649	0.308449	0	0
0	0	0	1.618567	6.040693	-19.255779	6.040693	23162.5	-3.119327E-11	-3.20582E+10	11.940562	0.30718	0	0
0	0	0	1.374078	6.040866	-19.585828	6.040866	20295	-1.793927E-11	-5.574362E+10	11.854252	0.305529	0	0
0	0	0	1.153765	6.040573	-19.881684	6.040573	18016.5	-3.805762E-11	-2.627595E+10	11.863063	0.303811	0	0
0	0	0	0.960077	6.040926	-20.14391	6.040926	16225.5	-1.281746E-11	-7.801858E+10	11.728875	0.302489	0	0
0	0	0	0.793913	6.040693	-20.367003	6.040693	14831.5	-1.997379E-11	-5.006561E+10	11.749328	0.300666	0	0
0	0	0	0.653026	6.040547	-20.556334	6.040547	13744	-3.323098E-11	-3.00924E+10	11.593746	0.299609	0	0
0	0	0	0.530639	6.040753	-20.721976	6.040753	12864	-1.466615E-11	-6.818422E+10	11.620307	0.297759	0	0
0	0	0	0.427527	6.040507	-20.860053	6.040507	12166.5	-3.756551E-11	-2.662016E+10	11.504958	0.296649	0	0
0	0	0	0.340055	6.040719	-20.978672	6.040719	11604.5	-1.446298E-11	-6.914203E+10	11.487734	0.294667	0	0
0	0	0	0.266222	6.040553	-21.077574	6.040553	11150.5	-2.601958E-11	-3.843259E+10	11.395846	0.29349	0	0
0	0	0	0.208316	6.0405	-21.155415	6.0405	10807	-3.498299E-11	-2.858532E+10	11.297968	0.291984	0	0
0	0	0	0.157556	6.040673	-21.224425	6.040673	10514.5	-1.507044E-11	-6.635505E+10	11.266901	0.290504	0	0
0	0	0	0.125826	6.040653	-21.267111	6.040653	10335.5	-1.583179E-11	-6.316407E+10	11.143019	0.289196	0	0
0	0	0	0.087603	6.040719	-21.318852	6.040719	10124.5	-1.261842E-11	-7.924921E+10	11.120926	0.287663	0	0
0	0	0	0.063836	6.040606	-21.350478	6.040606	9995	-1.82336E-11	-5.48438E+10	10.996209	0.286434	0	0
0	0	0	0.046236	6.040467	-21.373699	6.040467	9900.5	-4.228122E-11	-2.365116E+10	11.017727	0.284531	0	0
0	0	0	0.022714	6.040513	-21.40556	6.040513	9775.5	-2.885102E-11	-3.466082E+10	10.90588	0.28358	0	0
0	0	0	0.004378	6.040779	-21.431211	6.040779	9679	-1.033052E-11	-9.680054E+10	10.882625	0.281756	0	0
0	0	0	-0.0053	6.040773	-21.444229	6.040773	9628.5	-1.044329E-11	-9.575528E+10	10.79607	0.280752	0	0
0	0	0	-0.014611	6.040613	-21.456209	6.040613	9580	-1.701247E-11	-5.878042E+10	10.739553	0.279338	0	0
0	0	0	-0.020491	6.040633	-21.464203	6.040633	9549.5	-1.570708E-11	-6.366557E+10	10.697861	0.278096	0	0
0	0	0	-0.029394	6.040846	-21.476955	6.040846	9504	-8.747686E-12	-1.143159E+11	10.620093	0.276669	0	0
0	0	0	-0.034825	6.040547	-21.483211	6.040547	9476	-2.291158E-11	-4.364605E+10	10.607765	0.275334	0	0
0	0	0	-0.042952	6.040739	-21.494846	6.040739	9434.5	-1.113588E-11	-8.979984E+10	10.488052	0.274158	0	0
0	0	0	-0.050547	6.040813	-21.505341	6.040813	9395.5	-9.286884E-12	-1.076787E+11	10.515983	0.272585	0	0
0	0	0	-0.056387	6.040433	-21.511863	6.040433	9366	-5.875963E-11	-1.701849E+10	10.389866	0.271555	0	0
0	0	0	-0.061696	6.040493	-21.51923	6.040493	9339	-3.176867E-11	-3.147756E+10	10.398298	0.269982	0	0
0	0	0	-0.066392	6.04066	-21.526148	6.04066	9315.5	-1.394985E-11	-7.168535E+10	10.244601	0.269084	0	0
0	0	0	-0.067944	6.040733	-21.528499	6.040733	9307.5	-1.118335E-11	-8.941863E+10	10.268413	0.267353	0	0
0	0	0	-0.071986	6.040527	-21.533215	6.040527	9287.5	-2.518766E-11	-3.970197E+10	10.122153	0.266428	0	0
0	0	0	-0.074763	6.040586	-21.537169	6.040586	9273.5	-1.842518E-11	-5.427356E+10	10.156564	0.264776	0	0
0	0	0	-0.077132	6.04068	-21.540692	6.04068	9261.5	-1.299599E-11	-7.69468E+10	9.994398	0.26389	0	0
0	0	0	-0.078153	6.04068	-21.542067	6.04068	9256.5	-1.298898E-11	-7.698836E+10	9.997812	0.262054	0	0
0	0	0	-0.080562	6.040427	-21.544416	6.040427	9244.5	-6.400125E-11	-1.56247E+10	9.857331	0.261446	0	0
0	0	0	-0.080685	6.040686	-21.545503	6.040686	9244	-1.270486E-11	-7.871002E+10	9.874538	0.259715	0	0
0	0	0	-0.081746	6.040686	-21.546933	6.040686	9238.5	-1.26973E-11	-7.875688E+10	9.742721	0.258829	0	0
0	0	0	-0.081215	6.04052	-21.545627	6.04052	9241.5	-2.612221E-11	-3.82816E+10	9.71419	0.257244	0	0
0	0	0	-0.081256	6.040673	-21.546226	6.040673	9241	-1.324513E-11	-7.549942E+10	9.59923	0.256279	0	0
0	0	0	-0.083257	6.0405	-21.548308	6.0405	9231	-2.988137E-11	-3.346566E+10	9.558378	0.25472	0	0
0	0	0	-0.084074	6.040726	-21.550212	6.040726	9227	-1.128946E-11	-8.857822E+10	9.462881	0.2539	0	0
0	0	0	-0.084074	6.040646	-21.549928	6.040646	9227	-1.446511E-11	-6.913185E+10	9.439601	0.252262	0	0
0	0	0	-0.085299	6.040673	-21.551673	6.040673	9221	-1.321647E-11	-7.566318E+10	9.346136	0.251429	0	0
0	0	0	-0.085422	6.04066	-21.551791	6.04066	9220	-1.380684E-11	-7.242786E+10	9.29187	0.249883	0	0
0	0	0	-0.087178	6.040586	-21.553897	6.040586	9211.5	-1.830199E-11	-5.463886E+10	9.205174	0.249011	0	0
0	0	0	-0.087668	6.04058	-21.554534	6.04058	9209	-1.885725E-11	-5.302999E+10	9.159826	0.247571	0	0
0	0	0	-0.088607	6.040493	-21.555492	6.040493	9204.5	-3.131114E-11	-3.193752E+10	9.082357	0.24658	0	0
0	0	0	-0.089505	6.0406	-21.557081	6.0406	9200	-1.725395E-11	-5.795773E+10	9.021485	0.245126	0	0
0	0	0	-0.089464	6.040586	-21.556979	6.040586	9200	-1.827914E-11	-5.470716E+10	8.919179	0.244333	0	0
0	0	0	-0.089995	6.04058	-21.557671	6.04058	9197.5	-1.88337E-11	-5.30963E+10	8.883717	0.242893	0	0
0	0	0	-0.090567	6.040593	-21.558488	6.040593	9194.5	-1.774115E-11	-5.636614E+10	8.793131	0.242021	0	0
0	0	0	-0.091833	6.040473	-21.559769	6.040473	9188.5	-3.688517E-11	-2.711117E+10	8.779636	0.240343	0	0
0	0	0	-0.09461	6.04066	-21.564172	6.04066	9174.5	-1.373871E-11	-7.278706E+10	8.677057	0.23951	0	0
0	0	0	-0.093752	6.04054	-21.562591	6.04054	9179	-2.302594E-11	-4.342928E+10	8.66351	0.23807	0	0
0	0	0	-0.093793	6.0406	-21.562859	6.0406	9178.5	-1.721363E-11	-5.809349E+10	8.524417	0.237488	0	0
0	0	0	-0.095018	6.0406	-21.56451	6.0406	9172.5	-1.720238E-11	-5.813149E+10	8.520033	0.235797	0	0
0	0	0	-0.096652	6.040673	-21.566971	6.040673	9164.5	-1.313549E-11	-7.612965E+10	8.360374	0.235176	0	0
0	0	0	-0.096978	6.040586	-21.567104	6.040586	9162.5	-1.820464E-11	-5.493106E+10	8.375177	0.233577	0	0
0	0	0	-0.097591	6.040713	-21.568379	6.040713	9160	-1.163313E-11	-8.596135E+10	8.23821	0.232876	0	0
0	0	0	-0.098367	6.0406	-21.569022	6.0406	9156	-1.717143E-11	-5.823625E+10	8.232678	0.231423	0	0
0	0	0	-0.09755	6.040666	-21.568158	6.040666	9160	-1.341658E-11	-7.453466E+10	8.100317	0.230445	0	0
0	0	0	-0.097918	6.040573	-21.568322	6.040573	9158	-1.934514E-11	-5.169257E+10	8.071403	0.229441	0	0
0	0	0	-0.098448	6.040493	-21.568754	6.040493	9155.5	-3.114445E-11	-3.210845E+10	7.941399	0.228238	0	0
0	0	0	-0.097836	6.0407	-21.568661	6.0407	9158.5	-1.209042E-11	-8.271013E+10	7.918253	0.227089	0	0
0	0	0	-0.099714	6.04056	-21.570696	6.04056	9149	-2.062931E-11	-4.847473E+10	7.828154	0.226071	0	0
0	0	0	-0.09951	6.040626	-21.570657	6.040626	9150.5	-1.54303E-11	-6.480757E+10	7.784173	0.225093	0	0
0	0	0	-0.099102	6.040626	-21.570107	6.040626	9152	-1.543283E-11	-6.479695E+10	7.709429	0.223772	0	0
0	0	0	-0.098857	6.040633	-21.569801	6.040633	9153.5	-1.505573E-11	-6.641987E+10	7.632521	0.222913	0	0
0	0	0	-0.097101	6.040746	-21.567836	6.040746	9162	-1.062668E-11	-9.410273E+10	7.586084	0.221473	0	0
0	0	0	-0.096856	6.040839	-21.567837	6.040839	9163.5	-8.551981E-12	-1.16932E+11	7.452013	0.220851	0	0
0	0	0	-0.095876	6.0406	-21.565665	6.0406	9168.5	-1.719488E-11	-5.815686E+10	7.417785	0.219543	0	0
0	0	0	-0.097101	6.040513	-21.567009	6.040513	9162	-2.704036E-11	-3.698175E+10	7.283055	0.21875	0	0
0	0	0	-0.096815	6.0407	-21.567286	6.0407	9163.5	-1.209702E-11	-8.2665E+10	7.277017	0.217535	0	0
0	0	0	-0.09657	6.040433	-21.56601	6.040433	9165	-5.749862E-11	-1.739172E+10	7.198519	0.216332	0	0
0	0	0	-0.096284	6.040566	-21.566098	6.040566	9166.5	-1.999464E-11	-5.001341E+10	7.143815	0.215447	0	0
0	0	0	-0.095794	6.0405	-21.565201	6.0405	9168.5	-2.967906E-11	-3.369379E+10	7.087649	0.214258	0	0
0	0	0	-0.093956	6.040646	-21.563245	6.040646	9177.5	-1.438751E-11	-6.950472E+10	6.982784	0.213491	0	0
0	0	0	-0.093793	6.04052	-21.562575	6.04052	9178.5	-2.594413E-11	-3.854436E+10	6.956678	0.212408	0	0
0	0	0	-0.093916	6.04068	-21.563308	6.04068	9178	-1.287882E-11	-7.764685E+10	6.823352	0.211416	0	0
0	0	0	-0.093834	6.040766	-21.563505	6.040766	9178.5	-1.011932E-11	-9.882084E+10	6.780275	0.210254	0	0
0	0	0	-0.09314	6.040666	-21.562215	6.040666	9182	-1.34488E-11	-7.435608E+10	6.710378	0.209091	0	0
0	0	0	-0.092037	6.040719	-21.560918	6.040719	9187.5	-1.145062E-11	-8.733155E+10	6.602378	0.208404	0	0
0	0	0	-0.092282	6.040633	-21.560941	6.040633	9186	-1.510919E-11	-6.618488E+10	6.590502	0.207082	0	0
0	0	0	-0.092976	6.04066	-21.561971	6.04066	9182.5	-1.375069E-11	-7.272365E+10	6.470113	0.20625	0	0
0	0	0	-0.09314	6.04066	-21.562191	6.04066	9182	-1.374994E-11	-7.272761E+10	6.419029	0.205245	0	0
0	0	0	-0.092527	6.040633	-21.561271	6.040633	9185	-1.510755E-11	-6.619209E+10	6.356408	0.204149	0	0
0	0	0	-0.092976	6.040507	-21.561428	6.040507	9182.5	-2.835206E-11	-3.527081E+10	6.25484	0.203316	0	0
0	0	0	-0.093058	6.040573	-21.561774	6.040573	9182	-1.939584E-11	-5.155746E+10	6.251886	0.202061	0	0
0	0	0	-0.093221	6.0406	-21.562089	6.0406	9181.5	-1.721926E-11	-5.807451E+10	6.12202	0.201268	0	0
0	0	0	-0.093058	6.040746	-21.562389	6.040746	9182	-1.064988E-11	-9.389776E+10	6.044743	0.200396	0	0
0	0	0	-0.093303	6.04056	-21.562057	6.04056	9181	-2.070146E-11	-4.830577E+10	5.976891	0.199233	0	0
0	0	0	-0.093344	6.040766	-21.562845	6.040766	9180.5	-1.012153E-11	-9.879932E+10	5.848604	0.198559	0	0
0	0	0	-0.094896	6.04068	-21.564629	6.04068	9173	-1.287181E-11	-7.768917E+10	5.795	0.197383	0	0
0	0	0	-0.096284	6.040427	-21.565601	6.040427	9166.5	-6.346124E-11	-1.575765E+10	5.71673	0.196352	0	0
0	0	0	-0.096815	6.04068	-21.567215	6.04068	9163.5	-1.285848E-11	-7.776972E+10	5.646581	0.19548	0	0
0	0	0	-0.098693	6.040866	-21.570408	6.040866	9154	-8.091457E-12	-1.235871E+11	5.608725	0.194489	0	0
0	0	0	-0.099551	6.040633	-21.570736	6.040633	9150	-1.504998E-11	-6.644528E+10	5.515454	0.193643	0	0
0	0	0	-0.099674	6.04054	-21.57057	6.04054	9149.5	-2.295194E-11	-4.356931E+10	5.444929	0.192864	0	0
0	0	0	-0.099265	6.040473	-21.569784	6.040473	9151.5	-3.673664E-11	-2.722078E+10	5.390066	0.191939	0	0
0	0	0	-0.100613	6.040606	-21.572072	6.040606	9145	-1.668297E-11	-5.994136E+10	5.291775	0.190908	0	0
0	0	0	-0.100939	6.040493	-21.572111	6.040493	9143.5	-3.110363E-11	-3.215059E+10	5.212713	0.190102	0	0
0	0	0	-0.101879	6.04056	-21.573613	6.04056	9138.5	-2.060563E-11	-4.853042E+10	5.158642	0.189058	0	0
0	0	0	-0.104492	6.040713	-21.577678	6.040713	9125.5	-1.158932E-11	-8.628634E+10	5.073889	0.188212	0	0
0	0	0	-0.103757	6.040826	-21.57709	6.040826	9129	-8.764394E-12	-1.14098E+11	5.002578	0.187631	0	0
0	0	0	-0.103798	6.0407	-21.576695	6.0407	9129	-1.205147E-11	-8.29774E+10	4.940717	0.186428	0	0
0	0	0	-0.104206	6.040573	-21.576796	6.040573	9127	-1.927966E-11	-5.186815E+10	4.830405	0.185556	0	0
0	0	0	-0.105758	6.040606	-21.579006	6.040606	9119.5	-1.663645E-11	-6.010897E+10	4.742743	0.18475	0	0
0	0	0	-0.105677	6.040586	-21.578825	6.040586	9120	-1.812019E-11	-5.518704E+10	4.690078	0.183799	0	0
0	0	0	-0.106575	6.040573	-21.579988	6.040573	9115.5	-1.925536E-11	-5.193358E+10	4.620216	0.182794	0	0
0	0	0	-0.105717	6.040706	-21.579305	6.040706	9119.5	-1.180589E-11	-8.470348E+10	4.511152	0.182226	0	0
0	0	0	-0.106902	6.040693	-21.580854	6.040693	9114	-1.227395E-11	-8.147335E+10	4.428862	0.181354	0	0
0	0	0	-0.105064	6.040566	-21.577928	6.040566	9122.5	-1.989866E-11	-5.025464E+10	4.355035	0.180442	0	0
0	0	0	-0.105023	6.04066	-21.578204	6.04066	9123	-1.366159E-11	-7.319795E+10	4.280038	0.179557	0	0
0	0	0	-0.104574	6.04058	-21.577315	6.04058	9125.5	-1.868627E-11	-5.351523E+10	4.176226	0.178804	0	0
0	0	0	-0.105799	6.040932	-21.580219	6.040932	9119	-7.119529E-12	-1.404587E+11	4.109886	0.177826	0	0
0	0	0	-0.105227	6.040713	-21.578669	6.040713	9122	-1.158487E-11	-8.631945E+10	4.024697	0.177072	0	0
0	0	0	-0.104411	6.040719	-21.577592	6.040719	9126	-1.137397E-11	-8.792008E+10	3.951888	0.176134	0	0
0	0	0	-0.102859	6.040533	-21.574839	6.040533	9133.5	-2.38047E-11	-4.200851E+10	3.867842	0.175526	0	0
0	0	0	-0.102328	6.040899	-21.575424	6.040899	9136.5	-7.575369E-12	-1.320068E+11	3.798504	0.174588	0	0
0	0	0	-0.100368	6.040859	-21.572641	6.040859	9146	-8.192668E-12	-1.220604E+11	3.733065	0.173901	0	0
0	0	0	-0.100409	6.040367	-21.570946	6.040367	9146	-9.267645E-10	-1.079023E+9	3.680944	0.17295	0	0
0	0	0	-0.098693	6.040487	-21.56906	6.040487	9154	-3.280812E-11	-3.048025E+10	3.551622	0.172315	0	0
0	0	0	-0.100123	6.040773	-21.572003	6.040773	9147	-9.921042E-12	-1.007959E+11	3.466787	0.17139	0	0
0	0	0	-0.097795	6.040453	-21.567732	6.040453	9158.5	-4.483899E-11	-2.230202E+10	3.379412	0.170624	0	0
0	0	0	-0.097713	6.040606	-21.568165	6.040606	9159	-1.670851E-11	-5.984974E+10	3.291112	0.169778	0	0
0	0	0	-0.097019	6.040693	-21.567537	6.040693	9162.5	-1.233927E-11	-8.104208E+10	3.226293	0.168985	0	0
0	0	0	-0.097387	6.040473	-21.567252	6.040473	9160.5	-3.677277E-11	-2.719404E+10	3.160534	0.168192	0	0
0	0	0	-0.095753	6.040673	-21.56576	6.040673	9169	-1.314194E-11	-7.609228E+10	3.105003	0.167466	0	0
0	0	0	-0.095917	6.040507	-21.56539	6.040507	9168	-2.830729E-11	-3.532659E+10	3.05743	0.16662	0	0
0	0	0	-0.096897	6.040779	-21.567679	6.040779	9163.5	-9.780321E-12	-1.022461E+11	2.99383	0.165867	0	0
0	0	0	-0.097468	6.040626	-21.567906	6.040626	9160.5	-1.544716E-11	-6.473682E+10	2.960737	0.165074	0	0
0	0	0	-0.096978	6.040673	-21.567411	6.040673	9162.5	-1.313262E-11	-7.614627E+10	2.9209	0.164307	0	0
0	0	0	-0.095508	6.040407	-21.564485	6.040407	9170	-9.208253E-11	-1.085982E+10	2.883393	0.163488	0	0
0	0	0	-0.097673	6.040726	-21.568536	6.040726	9159.5	-1.120687E-11	-8.923099E+10	2.843103	0.162801	0	0
0	0	0	-0.09608	6.040739	-21.566437	6.040739	9167	-1.082014E-11	-9.242026E+10	2.837452	0.162061	0	0
0	0	0	-0.096978	6.04064	-21.567293	6.04064	9162.5	-1.470879E-11	-6.798657E+10	2.794961	0.161361	0	0
0	0	0	-0.097387	6.040626	-21.567796	6.040626	9160.5	-1.544716E-11	-6.473682E+10	2.764566	0.160568	0	0
0	0	0	-0.098693	6.040633	-21.569581	6.040633	9154	-1.505656E-11	-6.641625E+10	2.744205	0.159749	0	0
0	0	0	-0.099919	6.040746	-21.571633	6.040746	9148.5	-1.061103E-11	-9.424159E+10	2.719563	0.158969	0	0
0	0	0	-0.099224	6.040473	-21.569729	6.040473	9151.5	-3.673664E-11	-2.722078E+10	2.656588	0.158361	0	0
0	0	0	-0.101389	6.040653	-21.573283	6.040653	9141	-1.400207E-11	-7.141803E+10	2.66129	0.157608	0	0
0	0	0	-0.102614	6.040686	-21.575052	6.040686	9135	-1.255505E-11	-7.96492E+10	2.601455	0.156868	0	0
0	0	0	-0.102369	6.040759	-21.574982	6.040759	9136.5	-1.024186E-11	-9.763853E+10	2.602772	0.156101	0	0
0	0	0	-0.103921	6.0404	-21.575797	6.0404	9128.5	-1.078612E-10	-9.271177E+9	2.544899	0.155388	0	0
0	0	0	-0.105064	6.04062	-21.578118	6.04062	9122.5	-1.578099E-11	-6.336739E+10	2.545314	0.154674	0	0
0	0	0	-0.10584	6.040793	-21.579778	6.040793	9119	-9.43178E-12	-1.060245E+11	2.473042	0.154066	0	0
0	0	0	-0.107147	6.040527	-21.580593	6.040527	9112.5	-2.471306E-11	-4.046443E+10	2.466514	0.153247	0	0
0	0	0	-0.107637	6.040686	-21.581821	6.040686	9110	-1.252069E-11	-7.986778E+10	2.412923	0.152573	0	0
0	0	0	-0.107637	6.040693	-21.581844	6.040693	9110	-1.226857E-11	-8.150912E+10	2.40953	0.151727	0	0
0	0	0	-0.10927	6.040573	-21.58362	6.040573	9102	-1.922685E-11	-5.201061E+10	2.344176	0.151318	0	0
0	0	0	-0.10927	6.04066	-21.583927	6.04066	9102	-1.363014E-11	-7.336683E+10	2.347308	0.150366	0	0
0	0	0	-0.108739	6.040779	-21.583638	6.040779	9105	-9.717884E-12	-1.029031E+11	2.283204	0.149838	0	0
0	0	0	-0.110087	6.040666	-21.585051	6.040666	9098	-1.332577E-11	-7.504259E+10	2.287259	0.149005	0	0
0	0	0	-0.111802	6.040853	-21.588025	6.040853	9090	-8.253047E-12	-1.211674E+11	2.222896	0.148437	0	0
0	0	0	-0.111394	6.04058	-21.586505	6.04058	9091.5	-1.861665E-11	-5.371536E+10	2.219022	0.147671	0	0
0	0	0	-0.111026	6.04036	-21.585229	6.04036	9093.5	1.788687E-9	5.590694E+8	2.161887	0.147142	0	0
0	0	0	-0.111394	6.040593	-21.586552	6.040593	9091.5	-1.75424E-11	-5.700473E+10	2.166197	0.146376	0	0
0	0	0	-0.111557	6.040826	-21.5876	6.040826	9091	-8.727911E-12	-1.145749E+11	2.095557	0.145781	0	0
0	0	0	-0.10976	6.040693	-21.584706	6.040693	9100	-1.22551E-11	-8.159869E+10	2.09484	0.145094	0	0
0	0	0	-0.111843	6.040946	-21.588411	6.040946	9089.5	-6.934588E-12	-1.442047E+11	2.050198	0.144327	0	0
0	0	0	-0.110414	6.040573	-21.585161	6.040573	9096.5	-1.921523E-11	-5.204206E+10	2.028787	0.143733	0	0
0	0	0	-0.109515	6.040726	-21.584494	6.040726	9101	-1.113529E-11	-8.980456E+10	1.978104	0.143072	0	0
0	0	0	-0.1078	6.040586	-21.581686	6.040586	9109	-1.809834E-11	-5.525369E+10	1.958422	0.142451	0	0
0	0	0	-0.106534	6.040633	-21.580146	6.040633	9115.5	-1.499323E-11	-6.669676E+10	1.926257	0.141804	0	0
0	0	0	-0.105513	6.040533	-21.578415	6.040533	9120.5	-2.377082E-11	-4.206839E+10	1.906395	0.141037	0	0
0	0	0	-0.104982	6.04064	-21.578078	6.04064	9123.5	-1.464618E-11	-6.827719E+10	1.859253	0.14039	0	0
0	0	0	-0.104084	6.0407	-21.577081	6.0407	9127.5	-1.204949E-11	-8.299104E+10	1.848441	0.139702	0	0
0	0	0	-0.104533	6.040733	-21.577804	6.040733	9125.5	-1.096467E-11	-9.120201E+10	1.818366	0.139227	0	0
0	0	0	-0.105391	6.040673	-21.578747	6.040673	9121.5	-1.307386E-11	-7.648853E+10	1.797831	0.138566	0	0
0	0	0	-0.102614	6.040427	-21.57413	6.040427	9135	-6.324316E-11	-1.581199E+10	1.740659	0.138051	0	0
0	0	0	-0.101103	6.040646	-21.572874	6.040646	9142.5	-1.433264E-11	-6.977081E+10	1.758064	0.137231	0	0
0	0	0	-0.100654	6.04062	-21.572175	6.04062	9144.5	-1.581904E-11	-6.321494E+10	1.693429	0.136822	0	0
0	0	0	-0.101062	6.040673	-21.572914	6.040673	9142.5	-1.310395E-11	-7.631284E+10	1.705307	0.136002	0	0
0	0	0	-0.100204	6.040606	-21.571522	6.040606	9147	-1.668662E-11	-5.992826E+10	1.644046	0.135553	0	0
0	0	0	-0.099592	6.040593	-21.570649	6.040593	9150	-1.765528E-11	-5.664027E+10	1.643871	0.134787	0	0
0	0	0	-0.100817	6.04046	-21.571827	6.04046	9144	-4.171424E-11	-2.397263E+10	1.599277	0.134139	0	0
0	0	0	-0.099796	6.0406	-21.570948	6.0406	9149	-1.715831E-11	-5.828081E+10	1.597397	0.13365	0	0
0	0	0	-0.099143	6.040686	-21.570375	6.040686	9152	-1.257842E-11	-7.950125E+10	1.555214	0.133069	0	0
0	0	0	-0.099265	6.040527	-21.569973	6.040527	9151.5	-2.481883E-11	-4.029198E+10	1.553246	0.132263	0	0
0	0	0	-0.099184	6.040626	-21.570217	6.040626	9152	-1.543283E-11	-6.479695E+10	1.497296	0.131827	0	0
0	0	0	-0.099633	6.04064	-21.57087	6.04064	9150	-1.468872E-11	-6.807945E+10	1.514356	0.131153	0	0
0	0	0	-0.098816	6.040633	-21.569746	6.040633	9153.5	-1.505573E-11	-6.641987E+10	1.435613	0.130624	0	0
0	0	0	-0.099755	6.04052	-21.570609	6.04052	9149	-2.586074E-11	-3.866865E+10	1.430273	0.129858	0	0
0	0	0	-0.10143	6.04056	-21.573007	6.04056	9140.5	-2.061014E-11	-4.851981E+10	1.400653	0.129356	0	0
0	0	0	-0.101511	6.040833	-21.574087	6.040833	9140.5	-8.651242E-12	-1.155903E+11	1.419252	0.128523	0	0
0	0	0	-0.103104	6.040706	-21.575784	6.040706	9132.5	-1.182272E-11	-8.45829E+10	1.370096	0.127995	0	0
0	0	0	-0.10486	6.040719	-21.578197	6.040719	9124	-1.137147E-11	-8.793935E+10	1.371618	0.127466	0	0
0	0	0	-0.104043	6.040653	-21.57686	6.040653	9127.5	-1.398139E-11	-7.152366E+10	1.307005	0.126845	0	0
0	0	0	-0.105391	6.040387	-21.57773	6.040387	9121.5	-1.666738E-10	-5.999744E+9	1.325214	0.126237	0	0
0	0	0	-0.107024	6.040966	-21.581988	6.040966	9113	-6.722453E-12	-1.487552E+11	1.245853	0.125801	0	0
0	0	0	-0.107882	6.040813	-21.5826	6.040813	9109	-9.003696E-12	-1.110655E+11	1.280332	0.125153	0	0
0	0	0	-0.107555	6.040773	-21.582018	6.040773	9110.5	-9.881453E-12	-1.011997E+11	1.215134	0.124638	0	0
0	0	0	-0.108413	6.04062	-21.58263	6.04062	9106.5	-1.575331E-11	-6.347873E+10	1.227309	0.124004	0	0
0	0	0	-0.110291	6.040773	-21.585705	6.040773	9097	-9.866811E-12	-1.013499E+11	1.17656	0.123581	0	0
0	0	0	-0.111475	6.040593	-21.586662	6.040593	9091.5	-1.75424E-11	-5.700473E+10	1.203323	0.122894	0	0
0	0	0	-0.11266	6.0407	-21.588636	6.0407	9085.5	-1.199405E-11	-8.337469E+10	1.16316	0.122392	0	0
0	0	0	-0.112864	6.040872	-21.589526	6.040872	9084.5	-7.925275E-12	-1.261786E+11	1.167511	0.121691	0	0
0	0	0	-0.113354	6.040946	-21.590447	6.040946	9082	-6.928866E-12	-1.443238E+11	1.10452	0.121348	0	0
0	0	0	-0.112455	6.040646	-21.588172	6.040646	9086.5	-1.424485E-11	-7.02008E+10	1.114786	0.120647	0	0
0	0	0	-0.112945	6.040626	-21.588761	6.040626	9084	-1.531816E-11	-6.5282E+10	1.055207	0.120317	0	0
0	0	0	-0.113272	6.040653	-21.589296	6.040653	9082.5	-1.391246E-11	-7.187803E+10	1.07275	0.119736	0	0
0	0	0	-0.112496	6.0406	-21.588062	6.0406	9086.5	-1.704109E-11	-5.868168E+10	1.043461	0.11926	0	0
0	0	0	-0.113599	6.040487	-21.589145	6.040487	9081	-3.254649E-11	-3.072528E+10	1.064002	0.118586	0	0
0	0	0	-0.114252	6.040786	-21.59109	6.040786	9077.5	-9.536341E-12	-1.04862E+11	0.996177	0.11811	0	0
0	0	0	-0.114007	6.040746	-21.590618	6.040746	9079	-1.053042E-11	-9.496301E+10	0.994132	0.117582	0	0
0	0	0	-0.112823	6.040753	-21.589046	6.040753	9084.5	-1.035717E-11	-9.655147E+10	0.955443	0.11708	0	0
0	0	0	-0.111108	6.040739	-21.586687	6.040739	9093	-1.073279E-11	-9.317239E+10	0.981919	0.116458	0	0
0	0	0	-0.112455	6.040806	-21.58874	6.040806	9086.5	-9.116192E-12	-1.096949E+11	0.922658	0.116036	0	0
0	0	0	-0.110618	6.0407	-21.585885	6.0407	9095.5	-1.200725E-11	-8.328302E+10	0.955561	0.115441	0	0
0	0	0	-0.110822	6.04068	-21.586089	6.04068	9094.5	-1.276165E-11	-7.835976E+10	0.875971	0.115045	0	0
0	0	0	-0.110495	6.040606	-21.585389	6.040606	9096	-1.659358E-11	-6.026427E+10	0.924626	0.114384	0	0
0	0	0	-0.108208	6.040786	-21.582946	6.040786	9107.5	-9.567857E-12	-1.045166E+11	0.850697	0.114014	0	0
0	0	0	-0.106003	6.040719	-21.579738	6.040719	9118.5	-1.136462E-11	-8.799239E+10	0.879136	0.113446	0	0
0	0	0	-0.105677	6.040719	-21.579298	6.040719	9120	-1.136649E-11	-8.797792E+10	0.832154	0.112917	0	0
0	0	0	-0.104737	6.040573	-21.577512	6.040573	9124.5	-1.927437E-11	-5.188236E+10	0.856907	0.11227	0	0
0	0	0	-0.105554	6.040646	-21.578872	6.040646	9120.5	-1.429815E-11	-6.99391E+10	0.791375	0.112071	0	0
0	0	0	-0.103553	6.04054	-21.575798	6.04054	9130.5	-2.290428E-11	-4.365997E+10	0.834383	0.111371	0	0
0	0	0	-0.103145	6.040593	-21.575437	6.040593	9132.5	-1.762152E-11	-5.674881E+10	0.782871	0.111027	0	0
0	0	0	-0.103308	6.040414	-21.575018	6.040414	9131.5	-7.972518E-11	-1.254309E+10	0.78425	0.110499	0	0
0	0	0	-0.102205	6.040513	-21.573887	6.040513	9137	-2.696658E-11	-3.708294E+10	0.76183	0.110116	0	0
0	0	0	-0.101511	6.040633	-21.573377	6.040633	9140.5	-1.503435E-11	-6.651434E+10	0.778863	0.109613	0	0
0	0	0	-0.10245	6.040773	-21.57514	6.040773	9135.5	-9.908569E-12	-1.009227E+11	0.715941	0.109098	0	0
0	0	0	-0.098734	6.040593	-21.569494	6.040593	9154	-1.7663E-11	-5.661552E+10	0.733483	0.108517	0	0
0	0	0	-0.10143	6.04064	-21.573291	6.04064	9140.5	-1.467347E-11	-6.815021E+10	0.687103	0.1082	0	0
0	0	0	-0.101838	6.040553	-21.573534	6.040553	9138.5	-2.13246E-11	-4.68942E+10	0.706939	0.107618	0	0
0	0	0	-0.103349	6.040739	-21.576232	6.040739	9131.5	-1.077824E-11	-9.277956E+10	0.648765	0.107248	0	0
0	0	0	-0.103186	6.040493	-21.575137	6.040493	9132	-3.106451E-11	-3.219107E+10	0.690062	0.106614	0	0
0	0	0	-0.102287	6.040779	-21.574943	6.040779	9136.5	-9.751504E-12	-1.025483E+11	0.661741	0.106257	0	0
0	0	0	-0.101675	6.040806	-21.574212	6.040806	9139.5	-9.169365E-12	-1.090588E+11	0.65517	0.105768	0	0
0	0	0	-0.103308	6.040613	-21.575728	6.040613	9131.5	-1.621601E-11	-6.166746E+10	0.617088	0.105398	0	0
0	0	0	-0.103716	6.040613	-21.576278	6.040613	9129.5	-1.621246E-11	-6.168097E+10	0	0	0	0
0	0	0	-0.103471	6.040527	-21.57564	6.040527	9130.5	-2.476188E-11	-4.038465E+10	0	0	0	0
0	0	0	-0.10437	6.040673	-21.577371	6.040673	9126.5	-1.308102E-11	-7.644663E+10	0	0	0	0
0	0	0	-0.105513	6.040779	-21.57929	6.040779	9120.5	-9.734427E-12	-1.027282E+11	0	0	0	0
0	0	0	-0.106126	6.040566	-21.579359	6.040566	9117.5	-1.988775E-11	-5.02822E+10	0	0	0	0
0	0	0	-0.109352	6.04064	-21.583966	6.04064	9102	-1.461166E-11	-6.843847E+10	0	0	0	0
0	0	0	-0.10976	6.040666	-21.584611	6.040666	9100	-1.332869E-11	-7.50261E+10	0	0	0	0
0	0	0	-0.110699	6.040606	-21.585664	6.040606	9095	-1.659176E-11	-6.027089E+10	0	0	0	0
0	0	0	-0.11074	6.0406	-21.585695	6.0406	9095	-1.705703E-11	-5.862684E+10	0	0	0	0
0	0	0	-0.11266	6.040613	-21.588329	6.040613	9085.5	-1.613432E-11	-6.197968E+10	0	0	0	0
0	0	0	-0.113926	6.040673	-21.590248	6.040673	9079	-1.301294E-11	-7.684659E+10	0	0	0	0
0	0	0	-0.113476	6.040653	-21.589571	6.040653	9081.5	-1.391092E-11	-7.188595E+10	0	0	0	0
0	0	0	-0.112619	6.040633	-21.588345	6.040633	9085.5	-1.494389E-11	-6.691699E+10	0	0	0	0
0	0	0	-0.112864	6.040859	-21.589479	6.040859	9084.5	-8.137578E-12	-1.228867E+11	0	0	0	0
0	0	0	-0.116457	6.040733	-21.593872	6.040733	9067	-1.089438E-11	-9.179044E+10	0	0	0	0
0	0	0	-0.116825	6.040799	-21.594604	6.040799	9065	-9.233132E-12	-1.083056E+11	0	0	0	0
0	0	0	-0.117968	6.0407	-21.59579	6.0407	9059.5	-1.195972E-11	-8.361397E+10	0	0	0	0
0	0	0	-0.116335	6.040786	-21.593896	6.040786	9067.5	-9.525835E-12	-1.049777E+11	0	0	0	0
0	0	0	-0.116294	6.0407	-21.593534	6.0407	9067.5	-1.197029E-11	-8.35402E+10	0	0	0	0
0	0	0	-0.114865	6.040713	-21.591655	6.040713	9074.5	-1.152455E-11	-8.677128E+10	0	0	0	0
0	0	0	-0.115559	6.04064	-21.592331	6.04064	9071.5	-1.45627E-11	-6.866857E+10	0	0	0	0
0	0	0	-0.113435	6.040786	-21.589989	6.040786	9081.5	-9.540543E-12	-1.048158E+11	0	0	0	0
0	0	0	-0.113517	0	-0.113517	0	9081.5	0	0	0	0	0	0
0	0	0	-0.113231	0	-0.113231	0	9082.5	0	0	0	0	0	0
