Vload_(V)	ILoad_(A)	RsLoad (ohm)	SunsVoc_Voltage_(V)	SunsVoc_Current_(A)	Model_Voltage_(V)	Model_Current_(A)	Carrier_Density_(cm-3)	Lifetime_(s)	Inverse_Lifetime_(s-1)	Efficiency_(%)	Intensity_(suns)	Dark_IV_Voltage_(V)	Dark_IV_Current_(A)
3.239077	5.921932	0	51.527936	-0.324784	51.698419	-0.324784	6.522731E+15	0.000465	2082.226016	18.791635	1.157979	0	0
3.188297	5.924274	-0.536884	52.41315	-0.996798	52.876388	-0.996798	8.974209E+15	0.000577	1599.403814	18.929841	1.157384	0	0
3.28424	5.923264	-0.552449	52.624562	-0.85284	53.008639	-0.85284	9.661475E+15	0.000634	1421.364437	18.751777	1.157781	0	0
6.051557	5.921821	2.225003	52.611535	-0.509337	52.841366	-0.509337	9.617885E+15	0.000665	1349.617068	18.885756	1.156591	0	0
11.123338	5.891899	4.910215	52.518427	-0.098784	52.563627	-0.098784	9.311123E+15	0.000688	1309.659835	18.712426	1.157106	0	0
15.539552	5.888266	4.223679	52.403472	0.296008	52.265715	0.296008	8.943756E+15	0.000707	1281.2689	18.813402	1.155638	0	0
19.885454	5.884928	3.536944	52.277573	0.649025	51.969972	0.649025	8.555435E+15	0.000722	1263.974488	18.67039	1.15667	0	0
24.130094	5.883984	2.829578	52.152491	0.977239	51.681023	0.977239	8.183707E+15	0.000736	1247.079252	18.730782	1.155202	0	0
28.4242	5.881089	2.137983	52.030552	1.284068	51.400411	1.284068	7.834409E+15	0.000751	1228.884698	18.660278	1.155916	0	0
32.76883	5.869552	1.524348	51.901631	1.576112	51.114357	1.576112	7.478719E+15	0.000766	1213.434631	18.652966	1.154726	0	0
37.053393	5.818907	1.116725	51.768341	1.851978	50.826486	1.851978	7.125216E+15	0.000779	1199.778296	18.660241	1.154924	0	0
38.130192	5.788167	1.050028	51.638317	2.107166	50.548054	2.107166	6.793876E+15	0.000792	1185.620768	18.578365	1.154488	0	0
39.190996	5.744053	0.995291	51.512908	2.347044	50.278518	2.347044	6.486521E+15	0.000807	1169.073674	18.665605	1.154012	0	0
40.25068	5.687047	0.93638	51.385988	2.578291	50.007728	2.578291	6.187301E+15	0.000823	1151.266412	18.54001	1.153932	0	0
41.289575	5.607217	0.887418	51.251431	2.792373	49.733184	2.792373	5.882668E+15	0.000836	1138.470564	18.673847	1.15306	0	0
42.35261	5.498308	0.836156	51.124144	2.98404	49.475859	2.98404	5.606037E+15	0.000849	1125.901942	18.510771	1.153099	0	0
43.402717	5.353658	0.786319	50.99853	3.158803	49.226735	3.158803	5.343698E+15	0.00086	1114.986624	18.656859	1.151592	0	0
44.437841	5.15388	0.745678	50.878307	3.319241	48.989389	3.319241	5.102224E+15	0.000872	1103.499533	18.510752	1.151473	0	0
45.434643	4.894982	0.709809	50.755144	3.472569	48.74989	3.472569	4.864291E+15	0.000883	1092.66761	18.632403	1.149727	0	0
46.419387	4.567963	0.674409	50.633819	3.612672	48.51786	3.612672	4.638975E+15	0.000894	1083.309205	18.509526	1.149608	0	0
47.380577	4.148169	0.647328	50.512697	3.742864	48.289662	3.742864	4.422742E+15	0.000903	1075.099097	18.597327	1.147109	0	0
48.344789	3.626049	0.622282	50.389126	3.868324	48.059074	3.868324	4.210825E+15	0.000912	1066.89889	18.538297	1.146871	0	0
49.237374	3.027942	0.604876	50.271639	3.983919	47.840135	3.983919	4.017236E+15	0.000922	1057.689804	18.539456	1.145046	0	0
50.077457	2.366027	0.598915	50.147332	4.096771	47.612327	4.096771	3.820531E+15	0.000931	1049.683544	18.553658	1.144014	0	0
50.874785	1.652494	0.597863	50.021678	4.201634	47.385889	4.201634	3.629919E+15	0.000939	1043.493041	18.48282	1.142507	0	0
51.57585	0.971584	0.559929	49.904232	4.29632	47.174737	4.29632	3.459002E+15	0.000947	1036.610987	18.559441	1.140801	0	0
42.273447	5.506214	0.841188	49.781967	4.386667	46.958608	4.386667	3.288278E+15	0.000953	1031.609936	18.436361	1.139254	0	0
52.360562	0	0	49.665992	4.469314	46.754196	4.469314	3.13292E+15	0.000959	1026.009775	18.554957	1.137429	0	0
0	0	0	49.545401	4.54987	46.543818	4.54987	2.977969E+15	0.000966	1021.006229	18.390234	1.136278	0	0
0	0	0	49.425995	4.623725	46.338151	4.623725	2.830953E+15	0.00097	1017.564849	18.529779	1.133977	0	0
0	0	0	49.309774	4.692886	46.138659	4.692886	2.693794E+15	0.000975	1013.595979	18.36092	1.133382	0	0
0	0	0	49.188816	4.75977	45.933361	4.75977	2.557066E+15	0.000979	1010.83009	18.498732	1.130922	0	0
0	0	0	49.073371	4.821123	45.738111	4.821123	2.432117E+15	0.000983	1007.645503	18.359034	1.130407	0	0
0	0	0	48.954536	4.880561	45.538724	4.880561	2.308974E+15	0.000986	1005.011092	18.460364	1.12759	0	0
0	0	0	48.836968	4.935342	45.343363	4.935342	2.192431E+15	0.000989	1003.606115	18.384007	1.127233	0	0
0	0	0	48.72332	4.985974	45.155347	4.985974	2.084611E+15	0.000991	1002.09289	18.408636	1.12513	0	0
0	0	0	48.605384	5.036223	44.961069	5.036223	1.977584E+15	0.000993	1000.318876	18.404108	1.124416	0	0
0	0	0	48.494512	5.080374	44.779952	5.080374	1.881334E+15	0.000994	999.688963	18.373745	1.122194	0	0
0	0	0	48.377842	5.12401	44.590731	5.12401	1.784466E+15	0.000995	999.894641	18.440416	1.120925	0	0
0	0	0	48.263786	5.163885	44.407158	5.163885	1.693997E+15	0.000994	1001.183944	18.353466	1.118981	0	0
0	0	0	48.152669	5.201278	44.228819	5.201278	1.609743E+15	0.000994	1002.078707	18.480185	1.117156	0	0
0	0	0	48.035795	5.237235	44.043201	5.237235	1.525114E+15	0.000991	1005.36359	18.329308	1.116204	0	0
0	0	0	47.927006	5.269989	43.870462	5.269989	1.449889E+15	0.000989	1007.313954	18.490095	1.113705	0	0
0	0	0	47.812051	5.302687	43.688892	5.302687	1.373984E+15	0.000987	1010.013739	18.343191	1.112395	0	0
0	0	0	47.698526	5.333648	43.510123	5.333648	1.302507E+15	0.000985	1012.493593	18.500708	1.109539	0	0
0	0	0	47.58255	5.363069	43.328754	5.363069	1.232929E+15	0.000981	1016.440455	18.363222	1.108507	0	0
0	0	0	47.469677	5.390809	43.152509	5.390809	1.168427E+15	0.000979	1019.579455	18.478205	1.10573	0	0
0	0	0	47.358683	5.416284	42.980239	5.416284	1.107972E+15	0.000975	1023.878002	18.382888	1.104778	0	0
0	0	0	47.246179	5.440984	42.806147	5.440984	1.049587E+15	0.000971	1028.252033	18.428936	1.101882	0	0
0	0	0	47.132571	5.464393	42.631228	5.464393	9.934705E+14	0.000966	1033.658782	18.415596	1.100573	0	0
0	0	0	47.024926	5.485543	42.466012	5.485543	9.42829E+14	0.000961	1039.002146	18.38998	1.098351	0	0
0	0	0	46.910869	5.506884	42.291514	5.506884	8.917498E+14	0.000956	1044.957171	18.446272	1.096645	0	0
0	0	0	46.800366	5.526744	42.122827	5.526744	8.446899E+14	0.000951	1050.532114	18.355049	1.094463	0	0
0	0	0	46.690433	5.545473	41.955595	5.545473	8.001471E+14	0.000945	1056.581794	18.463304	1.092638	0	0
0	0	0	46.576091	5.563371	41.782719	5.563371	7.561227E+14	0.000938	1065.063579	18.319064	1.091012	0	0
0	0	0	46.468895	5.579543	41.620923	5.579543	7.168949E+14	0.000931	1072.780633	18.470318	1.088592	0	0
0	0	0	46.357901	5.595449	41.453882	5.595449	6.782738E+14	0.000924	1081.285463	18.315237	1.087283	0	0
0	0	0	46.246948	5.6107	41.287237	5.6107	6.416099E+14	0.000917	1089.766311	18.46999	1.084387	0	0
0	0	0	46.139385	5.624765	41.126104	5.624765	6.078399E+14	0.00091	1098.400022	18.319141	1.083434	0	0
0	0	0	46.026512	5.638864	40.957391	5.638864	5.741978E+14	0.000902	1107.659637	18.442938	1.080618	0	0
0	0	0	45.915641	5.651669	40.792404	5.651669	5.428611E+14	0.000894	1118.662183	18.332593	1.079864	0	0
0	0	0	45.808281	5.66372	40.632779	5.66372	5.140579E+14	0.000886	1128.724712	18.414837	1.07669	0	0
0	0	0	45.697043	5.675857	40.46752	5.675857	4.857403E+14	0.000878	1138.427573	18.385265	1.075421	0	0
0	0	0	45.587723	5.686728	40.305916	5.686728	4.593553E+14	0.000869	1150.680839	18.393959	1.072485	0	0
0	0	0	45.476729	5.697463	40.141955	5.697463	4.339618E+14	0.00086	1162.464945	18.425065	1.071096	0	0
0	0	0	45.366675	5.707501	39.979794	5.707501	4.101062E+14	0.000851	1175.112306	18.35872	1.068438	0	0
0	0	0	45.256743	5.717074	39.818095	5.717074	3.875293E+14	0.000842	1188.089708	18.459562	1.066217	0	0
0	0	0	45.14534	5.726517	39.654335	5.726517	3.658657E+14	0.000833	1200.460064	18.331936	1.064233	0	0
0	0	0	45.035041	5.735131	39.492765	5.735131	3.455629E+14	0.000823	1214.989311	18.483714	1.061337	0	0
0	0	0	44.926783	5.74336	39.33428	5.74336	3.266907E+14	0.000814	1228.586317	18.323493	1.059829	0	0
0	0	0	44.813584	5.751225	39.169159	5.751225	3.080192E+14	0.000803	1245.692968	18.476424	1.056814	0	0
0	0	0	44.705857	5.758494	39.01212	5.758494	2.912086E+14	0.000793	1261.516479	18.319105	1.055545	0	0
0	0	0	44.594986	5.766227	38.850135	5.766227	2.748341E+14	0.000785	1273.447531	18.452993	1.05253	0	0
0	0	0	44.483338	5.772869	38.688047	5.772869	2.592468E+14	0.000774	1292.43777	18.345414	1.051419	0	0
0	0	0	44.373978	5.779529	38.529027	5.779529	2.448113E+14	0.000765	1307.513886	18.43104	1.048126	0	0
0	0	0	44.261065	5.785888	38.365265	5.785888	2.307265E+14	0.000754	1325.394102	18.375993	1.047094	0	0
0	0	0	44.151419	5.791548	38.206675	5.791548	2.17805E+14	0.000743	1345.622847	18.390466	1.04396	0	0
0	0	0	44.04361	5.79717	38.050602	5.79717	2.057884E+14	0.000734	1362.794734	18.408914	1.04281	0	0
0	0	0	43.929308	5.802831	37.885351	5.802831	1.937543E+14	0.000724	1381.772161	18.348202	1.040231	0	0
0	0	0	43.819785	5.807822	37.72738	5.807822	1.828694E+14	0.000713	1402.670232	18.446551	1.038168	0	0
0	0	0	43.706626	5.812933	37.564137	5.812933	1.722516E+14	0.000703	1422.443003	18.327241	1.036145	0	0
0	0	0	43.593754	5.817682	37.4016	5.817682	1.622627E+14	0.000692	1444.230851	18.466829	1.033645	0	0
0	0	0	43.483414	5.82216	37.242813	5.82216	1.530475E+14	0.000682	1465.415449	18.305536	1.032178	0	0
0	0	0	43.36948	5.826323	37.079284	5.826323	1.440712E+14	0.00067	1491.775217	18.470879	1.029123	0	0
0	0	0	43.256648	5.830487	36.917227	5.830487	1.35692E+14	0.00066	1514.909086	18.308992	1.02829	0	0
0	0	0	43.144838	5.83427	36.756951	5.83427	1.278619E+14	0.000649	1541.183369	18.459734	1.025116	0	0
0	0	0	43.027351	5.837855	36.588906	5.837855	1.201133E+14	0.000636	1573.521296	18.331928	1.024084	0	0
0	0	0	42.914437	5.841321	36.427326	5.841321	1.13103E+14	0.000624	1602.164772	18.431362	1.02099	0	0
0	0	0	42.797318	5.844471	36.260167	5.844471	1.062578E+14	0.00061	1638.728259	18.353595	1.019839	0	0
0	0	0	42.682812	5.847891	36.096308	5.847891	9.996099E+13	0.000601	1665.053807	18.387394	1.017221	0	0
0	0	0	42.568429	5.850824	35.933119	5.850824	9.403908E+13	0.000588	1699.803466	18.394566	1.015793	0	0
0	0	0	42.441019	5.854223	35.75114	5.854223	8.785028E+13	0.000577	1732.572547	18.363616	1.013214	0	0
0	0	0	42.319938	5.857065	35.578594	5.857065	8.234286E+13	0.000565	1770.866017	18.450013	1.01127	0	0
0	0	0	42.201798	5.859766	35.410277	5.859766	7.729888E+13	0.000553	1807.881963	18.342708	1.009009	0	0
0	0	0	42.082678	5.862337	35.240697	5.862337	7.252296E+13	0.000541	1847.237669	18.484944	1.006787	0	0
0	0	0	41.968866	5.864906	35.078503	5.864906	6.82334E+13	0.000532	1878.729637	18.332876	1.005319	0	0
0	0	0	41.839823	5.86718	34.89531	5.86718	6.367336E+13	0.000517	1932.99514	18.495132	1.002701	0	0
0	0	0	41.719926	5.869719	34.724559	5.869719	5.970804E+13	0.000509	1965.793782	18.341209	1.001471	0	0
0	0	0	41.599867	5.871786	34.554105	5.871786	5.598298E+13	0.000497	2013.582473	18.494717	0.998773	0	0
0	0	0	41.479603	5.873875	34.383304	5.873875	5.248301E+13	0.000486	2058.3772	18.360591	0.997781	0	0
0	0	0	41.35889	5.875951	34.211856	5.875951	4.918861E+13	0.000476	2101.360287	18.47311	0.994766	0	0
0	0	0	41.233522	5.877682	34.034281	5.877682	4.598459E+13	0.000462	2163.15321	18.386967	0.994052	0	0
0	0	0	41.111788	5.879651	33.861471	5.879651	4.30722E+13	0.000453	2206.686678	18.440907	0.991077	0	0
0	0	0	40.9845	5.881387	33.681143	5.881387	4.022299E+13	0.000441	2265.961748	18.440133	0.989966	0	0
0	0	0	40.862685	5.883057	33.508527	5.883057	3.767208E+13	0.000431	2319.741171	18.424586	0.987467	0	0
0	0	0	40.732049	5.884768	33.323483	5.884768	3.511514E+13	0.00042	2379.138811	18.495126	0.985761	0	0
0	0	0	40.600269	5.886165	33.137205	5.886165	3.271088E+13	0.000407	2457.975524	18.39993	0.983936	0	0
0	0	0	40.47339	5.887715	32.957569	5.887715	3.055109E+13	0.000397	2517.723735	18.51667	0.981873	0	0
0	0	0	40.342794	5.889004	32.773038	5.889004	2.847633E+13	0.000385	2599.390964	18.372078	0.980365	0	0
0	0	0	40.213628	5.890379	32.590374	5.890379	2.656243E+13	0.000374	2670.35777	18.537005	0.977667	0	0
0	0	0	40.079316	5.891688	32.400565	5.891688	2.470815E+13	0.000363	2751.628125	18.365277	0.976596	0	0
0	0	0	39.946108	5.893107	32.212133	5.893107	2.299659E+13	0.000355	2817.726394	18.536275	0.973621	0	0
0	0	0	39.808529	5.894221	32.017956	5.894221	2.135291E+13	0.000343	2917.300665	18.372428	0.972867	0	0
0	0	0	39.674789	5.89524	31.829263	5.89524	1.986748E+13	0.000331	3020.119056	18.505511	0.969733	0	0
0	0	0	39.53325	5.89653	31.629263	5.89653	1.840755E+13	0.000322	3102.170462	18.394473	0.969138	0	0
0	0	0	39.394936	5.89758	31.43408	5.89758	1.708437E+13	0.000312	3204.300969	18.471925	0.965964	0	0
0	0	0	39.252131	5.898599	31.232626	5.898599	1.581773E+13	0.000302	3316.029803	18.440834	0.964734	0	0
0	0	0	39.109366	5.89953	31.031331	5.89953	1.464514E+13	0.000291	3438.653101	18.445066	0.961997	0	0
0	0	0	38.961007	5.900366	30.822308	5.900366	1.351845E+13	0.000279	3586.159706	18.472987	0.960926	0	0
0	0	0	38.812811	5.901603	30.612941	5.901603	1.24794E+13	0.000273	3661.920542	18.408259	0.958585	0	0
0	0	0	38.661593	5.902251	30.400138	5.902251	1.150132E+13	0.00026	3846.649231	18.501287	0.956839	0	0
0	0	0	38.51013	5.903083	30.186721	5.903083	1.059839E+13	0.00025	3997.992981	18.381585	0.954816	0	0
0	0	0	38.352378	5.903737	29.964724	5.903737	9.733147E+12	0.000238	4202.204912	18.540986	0.952198	0	0
0	0	0	38.193483	5.904667	29.740718	5.904667	8.932946E+12	0.00023	4344.808697	18.387136	0.951008	0	0
0	0	0	38.032668	5.905315	29.514406	5.905315	8.18997E+12	0.000219	4561.029872	18.545009	0.948389	0	0
0	0	0	37.873079	5.906196	29.28946	5.906196	7.513698E+12	0.000212	4707.999216	18.390498	0.947239	0	0
0	0	0	37.706792	5.907004	29.055214	5.907004	6.868329E+12	0.000205	4885.967045	18.528614	0.944501	0	0
0	0	0	37.540832	5.907506	28.82186	5.907506	6.279455E+12	0.000194	5164.369824	18.421746	0.943351	0	0
0	0	0	37.370993	5.908343	28.582557	5.908343	5.729014E+12	0.000188	5331.94394	18.517678	0.940375	0	0
0	0	0	37.197193	5.908748	28.338331	5.908748	5.215618E+12	0.000176	5682.265678	18.462937	0.939225	0	0
0	0	0	37.025311	5.909456	28.096327	5.909456	4.753126E+12	0.000169	5900.265929	18.471351	0.936606	0	0
0	0	0	36.850163	5.909897	27.850135	5.909897	4.323983E+12	0.00016	6256.571607	18.486489	0.935258	0	0
0	0	0	36.669175	5.91052	27.595467	5.91052	3.921175E+12	0.000153	6542.567434	18.419927	0.932917	0	0
0	0	0	36.489249	5.911024	27.342454	5.911024	3.557915E+12	0.000145	6891.60481	18.521482	0.930854	0	0
0	0	0	36.300503	5.911624	27.076915	5.911624	3.212942E+12	0.000139	7212.113346	18.394104	0.929227	0	0
0	0	0	36.113798	5.912108	26.814404	5.912108	2.904608E+12	0.000132	7602.695621	18.537082	0.926728	0	0
0	0	0	35.920763	5.912593	26.543007	5.912593	2.616888E+12	0.000125	8022.642325	18.368927	0.925577	0	0
0	0	0	35.720991	5.913011	26.262256	5.913011	2.349089E+12	0.000117	8537.3597	18.522329	0.922919	0	0
0	0	0	35.525098	5.913522	25.986782	5.913522	2.113114E+12	0.000112	8946.808272	18.349149	0.921848	0	0
0	0	0	35.324998	5.913745	25.705867	5.913745	1.896522E+12	0.000103	9704.267879	18.505756	0.919032	0	0
0	0	0	35.120734	5.9142	25.418724	5.9142	1.698297E+12	9.771358E-5	10233.992265	18.372647	0.918159	0	0
0	0	0	34.91602	5.914385	25.131386	5.914385	1.520418E+12	8.961816E-5	11158.45211	18.481304	0.915223	0	0
0	0	0	34.71053	5.915004	24.84223	5.915004	1.360596E+12	8.736684E-5	11445.989749	18.394547	0.914271	0	0
0	0	0	34.5021	5.915276	24.549519	5.915276	1.215638E+12	8.124495E-5	12308.45779	18.44204	0.911494	0	0
0	0	0	34.289056	5.915501	24.250408	5.915501	1.083416E+12	7.494514E-5	13343.093692	18.419515	0.91074	0	0
0	0	0	34.071968	5.916111	23.944964	5.916111	9.634656E+11	7.362707E-5	13581.960355	18.403537	0.908439	0	0
0	0	0	33.850879	5.916013	23.635112	5.916013	8.549429E+11	6.425304E-5	15563.466241	18.475535	0.906971	0	0
0	0	0	33.624073	5.916457	23.316303	5.916457	7.56302E+11	6.144641E-5	16274.344125	18.390401	0.904789	0	0
0	0	0	33.395919	5.91669	22.995959	5.91669	6.685538E+11	5.673855E-5	17624.702116	18.505071	0.903202	0	0
0	0	0	33.165519	5.917015	22.672297	5.917015	5.902686E+11	5.340099E-5	18726.246282	18.364829	0.901734	0	0
0	0	0	32.916334	5.917347	22.32227	5.917347	5.158847E+11	5.004815E-5	19980.758454	18.520568	0.899632	0	0
0	0	0	32.677317	5.917447	21.986908	5.917447	4.533589E+11	4.497232E-5	22235.899013	18.360433	0.89868	0	0
0	0	0	32.429562	5.917483	21.639407	5.917483	3.965333E+11	3.964547E-5	25223.56535	18.534237	0.895823	0	0
0	0	0	32.18103	5.917751	21.290388	5.917751	3.466846E+11	3.68885E-5	27108.720849	18.375688	0.895387	0	0
0	0	0	31.933193	5.918025	20.942323	5.918025	3.03216E+11	3.452784E-5	28962.138968	18.524482	0.892491	0	0
0	0	0	31.68262	5.918149	20.590693	5.918149	2.648056E+11	3.113881E-5	32114.266715	18.420996	0.891737	0	0
0	0	0	31.427228	5.918585	20.231711	5.918585	2.30659E+11	3.065883E-5	32617.026509	18.501747	0.889039	0	0
0	0	0	31.16571	5.918642	19.864846	5.918642	2.002514E+11	2.708013E-5	36927.439703	18.470518	0.888206	0	0
0	0	0	30.905214	5.918829	19.499161	5.918829	1.739483E+11	2.494184E-5	40093.270241	18.476217	0.885707	0	0
0	0	0	30.642634	5.918899	19.130777	5.918899	1.5093E+11	2.213448E-5	45178.385595	18.512209	0.884477	0	0
0	0	0	30.373848	5.91917	18.75329	5.91917	1.30519E+11	2.101953E-5	47574.80098	18.444826	0.882493	0	0
0	0	0	30.104326	5.919453	18.374737	5.919453	1.128233E+11	2.0249E-5	49385.165077	18.539807	0.880986	0	0
0	0	0	29.835091	5.919626	17.996797	5.919626	9.754189E+10	1.881395E-5	53152.043812	18.401239	0.879557	0	0
0	0	0	29.559934	5.919419	17.611311	5.919419	8.406074E+10	1.48815E-5	67197.532988	18.565299	0.877256	0	0
0	0	0	29.283388	5.919852	17.222583	5.919852	7.238843E+10	1.548187E-5	64591.679753	18.400744	0.876265	0	0
0	0	0	29.004107	5.920023	16.830538	5.920023	6.224474E+10	1.450899E-5	68922.802853	18.570485	0.873726	0	0
0	0	0	28.719925	5.92011	16.43179	5.92011	5.338087E+10	1.303368E-5	76724.27631	18.403965	0.873051	0	0
0	0	0	28.436315	5.920294	16.033637	5.920294	4.579339E+10	1.243835E-5	80396.535148	18.541876	0.870591	0	0
0	0	0	28.153195	5.920321	15.636495	5.920321	3.929478E+10	1.085426E-5	92129.762461	18.41358	0.869996	0	0
0	0	0	27.8664	5.920427	15.234031	5.920427	3.365147E+10	9.946887E-6	100533.961429	18.509934	0.86714	0	0
0	0	0	27.582259	5.92031	14.835763	5.92031	2.886001E+10	7.917227E-6	126306.852734	18.438709	0.866703	0	0
0	0	0	27.296648	5.920605	14.434546	5.920605	2.473111E+10	8.289718E-6	120631.359339	18.483703	0.864085	0	0
0	0	0	27.008505	5.920618	14.030381	5.920618	2.116393E+10	7.168123E-6	139506.534256	18.468407	0.863252	0	0
0	0	0	26.719096	5.92071	13.624266	5.92071	1.809888E+10	6.59144E-6	151711.910366	18.43381	0.86111	0	0
0	0	0	26.425685	5.920874	13.212376	5.920874	1.544428E+10	6.494907E-6	153966.78496	18.496694	0.85984	0	0
0	0	0	26.130355	5.920875	12.798154	5.920875	1.316537E+10	5.538836E-6	180543.345906	18.407698	0.858015	0	0
0	0	0	25.835474	5.920888	12.384533	5.920888	1.122545E+10	4.7834E-6	209056.307484	18.5288	0.85623	0	0
0	0	0	25.538265	5.921058	11.967287	5.921058	9.559341E+9	4.865783E-6	205516.76065	18.385761	0.85504	0	0
0	0	0	25.239913	5.921065	11.548809	5.921065	8.135491E+9	4.173497E-6	239607.220613	18.555794	0.852739	0	0
0	0	0	24.939396	5.921117	11.127188	5.921117	6.915624E+9	3.776077E-6	264825.098576	18.386672	0.851787	0	0
0	0	0	24.634429	5.921339	10.698922	5.921339	5.864541E+9	4.402128E-6	227162.848969	18.543278	0.849406	0	0
0	0	0	24.328113	5.921535	10.268819	5.921535	4.969587E+9	5.573042E-6	179435.20372	18.394582	0.848811	0	0
0	0	0	24.018409	5.921346	9.834876	5.921346	4.203497E+9	3.192151E-6	313268.394503	18.522317	0.846193	0	0
0	0	0	23.70511	5.921483	9.395112	5.921483	3.548605E+9	3.518917E-6	284178.360672	18.421891	0.845915	0	0
0	0	0	23.371802	5.921536	8.927483	5.921536	2.963512E+9	3.326849E-6	300584.738311	18.494723	0.843297	0	0
0	0	0	23.044701	5.92151	8.468751	5.92151	2.483207E+9	2.615979E-6	382266.116009	18.45886	0.842543	0	0
0	0	0	22.716906	5.921549	8.008884	5.921549	2.079967E+9	2.415652E-6	413966.834177	18.449258	0.84044	0	0
0	0	0	22.388212	5.921438	7.548131	5.921438	1.741361E+9	1.568403E-6	637591.348039	18.501855	0.83921	0	0
0	0	0	22.053311	5.921484	7.078282	5.921484	1.452994E+9	1.442253E-6	693359.471315	18.42038	0.837505	0	0
0	0	0	21.709018	5.921725	6.594756	5.921725	1.206241E+9	2.596726E-6	385100.291795	18.531543	0.835957	0	0
0	0	0	21.364153	5.921653	6.111224	5.921653	1.001082E+9	1.599682E-6	625124.435512	18.403566	0.834648	0	0
0	0	0	21.012958	5.921673	5.61858	5.921673	8.279797E+8	1.423362E-6	702561.889415	18.541299	0.832823	0	0
0	0	0	20.652453	5.921745	5.112739	5.921745	6.81371E+8	1.621306E-6	616786.873063	18.376109	0.831712	0	0
0	0	0	20.284393	5.921765	4.596435	5.921765	5.584367E+8	1.484465E-6	673643.363359	18.539931	0.829372	0	0
0	0	0	19.906246	5.921745	4.066088	5.921745	4.551937E+8	1.083423E-6	923000.16881	18.369392	0.828856	0	0
0	0	0	19.516134	5.921752	3.518889	5.921752	3.686459E+8	9.092807E-7	1099770.416075	18.519962	0.826238	0	0
0	0	0	19.114629	5.921843	2.955477	5.921843	2.967207E+8	1.483608E-6	674032.392052	18.390736	0.825365	0	0
0	0	0	18.706304	5.921477	2.383753	5.921477	2.379497E+8	2.329394E-7	4292962.168549	18.489994	0.822945	0	0
0	0	0	18.288913	5.921954	1.79699	5.921954	1.898865E+8	-3.839152E-6	-260474.194681	18.402569	0.822508	0	0
0	0	0	17.861435	5.922019	1.197209	5.922019	1.507075E+8	-7.681744E-7	-1301787.69953	18.445719	0.81985	0	0
0	0	0	17.424688	5.921987	0.5847	5.921987	1.190144E+8	-9.687162E-7	-1032294.08072	18.439354	0.819414	0	0
0	0	0	16.978344	5.922026	-0.041474	5.922026	9.34999E+7	-4.433428E-7	-2255591.064029	18.40228	0.817272	0	0
0	0	0	16.529958	5.922006	-0.670344	5.922006	7.33742E+7	-4.396301E-7	-2274639.662548	18.483219	0.815843	0	0
0	0	0	16.077203	5.921843	-1.30492	5.921843	5.744467E+7	2.874391E-7	3478997.742898	18.360395	0.814534	0	0
0	0	0	15.630165	5.92198	-1.932358	5.92198	4.511265E+7	-4.167949E-7	-2399261.613804	18.483332	0.812908	0	0
0	0	0	15.181126	5.92196	-2.562141	5.92196	3.538973E+7	-5.50965E-7	-1814997.371662	18.33816	0.811638	0	0
0	0	0	14.731066	5.921993	-3.193513	5.921993	2.774702E+7	-2.016653E-7	-4958712.114877	18.508688	0.809416	0	0
0	0	0	14.279168	5.921941	-3.827205	5.921941	2.173322E+7	-1.074297E-6	-930841.492463	18.33414	0.808821	0	0
0	0	0	13.819757	5.922137	-4.472199	5.922137	1.695383E+7	-3.682844E-8	-2.715293E+7	18.502715	0.806243	0	0
0	0	0	13.361978	5.922032	-5.113978	5.922032	1.323716E+7	-5.86697E-8	-1.704457E+7	18.341717	0.805965	0	0
0	0	0	12.904037	5.921967	-5.756102	5.921967	1.033436E+7	-1.30948E-7	-7636618.018251	18.479062	0.803227	0	0
0	0	0	12.439562	5.922104	-6.408031	5.922104	8039677.5	-2.077436E-8	-4.813626E+7	18.372387	0.802751	0	0
0	0	0	11.973085	5.922071	-7.062231	5.922071	6247751	-1.991955E-8	-5.020193E+7	18.446297	0.800054	0	0
0	0	0	11.503179	5.922124	-7.721514	5.922124	4846224	-1.124379E-8	-8.8938E+7	18.405424	0.799578	0	0
0	0	0	11.030373	5.922019	-8.384355	5.922019	3753207	-1.912096E-8	-5.229862E+7	18.388977	0.797594	0	0
0	0	0	10.556382	5.922039	-9.04926	5.922039	2904849	-1.208846E-8	-8.272355E+7	18.424048	0.796523	0	0
0	0	0	10.081412	5.922124	-9.71576	5.922124	2247059.5	-5.21341E-9	-1.918131E+8	18.3469	0.794658	0	0
0	0	0	9.60538	5.922026	-10.383138	5.922026	1737225.5	-8.23488E-9	-1.214347E+8	18.451502	0.792913	0	0
0	0	0	9.132165	5.921869	-11.046356	5.921869	1345115	9.531009E-9	1.049207E+8	18.322466	0.791841	0	0
0	0	0	8.660789	5.921856	-11.707482	5.921856	1042543	6.115662E-9	1.635146E+8	18.482225	0.789898	0	0
0	0	0	8.18982	5.922182	-12.369211	5.922182	808210.5	-1.435415E-9	-6.966628E+8	18.302126	0.789144	0	0
0	0	0	7.719464	5.922319	-13.029439	5.922319	626756.5	-7.19476E-10	-1.3899E+9	18.465577	0.786843	0	0
0	0	0	7.251355	5.92228	-13.685903	5.92228	486632	-6.214121E-10	-1.609238E+9	18.288264	0.786446	0	0
0	0	0	6.795741	5.922345	-14.325209	5.922345	380396	-4.091111E-10	-2.444324E+9	18.445986	0.783907	0	0
0	0	0	6.388273	5.922208	-14.896258	5.922208	305193	-4.908753E-10	-2.037177E+9	18.300938	0.78359	0	0
0	0	0	6.042183	5.922071	-15.381208	5.922071	253118	-8.069989E-10	-1.239159E+9	18.415576	0.780892	0	0
0	0	0	5.743627	5.922169	-15.800334	5.922169	215392.5	-4.035761E-10	-2.477848E+9	18.323391	0.780416	0	0
0	0	0	5.470716	5.922052	-16.182705	5.922052	185848.5	-6.89241E-10	-1.450871E+9	18.369843	0.778115	0	0
0	0	0	5.210587	5.922221	-16.548198	5.922221	161468.5	-2.480036E-10	-4.032199E+9	18.348061	0.777321	0	0
0	0	0	4.93249	5.922378	-16.938852	5.922378	138931	-1.384929E-10	-7.220586E+9	18.333949	0.775417	0	0
0	0	0	4.683795	5.922541	-17.288294	5.922541	121454.5	-8.865785E-11	-1.127932E+10	18.399231	0.774346	0	0
0	0	0	4.447392	5.922235	-17.61875	5.922235	106884	-1.570867E-10	-6.365911E+9	18.305233	0.772561	0	0
0	0	0	4.214378	5.922163	-17.94532	5.922163	94234	-1.815546E-10	-5.507985E+9	18.411347	0.771291	0	0
0	0	0	3.980875	5.922169	-18.27287	5.922169	83059	-1.556258E-10	-6.425671E+9	18.270915	0.769863	0	0
0	0	0	3.734058	5.9223	-18.619561	5.9223	72684.5	-8.787679E-11	-1.137957E+10	18.420173	0.768117	0	0
0	0	0	3.478136	5.922313	-18.978585	5.922313	63293.5	-7.390137E-11	-1.353155E+10	18.255957	0.767403	0	0
0	0	0	3.222213	5.922359	-19.337733	5.922359	55116	-5.746326E-11	-1.740242E+10	18.425145	0.765063	0	0
0	0	0	2.954365	5.922202	-19.712835	5.922202	47686.5	-7.855294E-11	-1.273027E+10	18.263598	0.764547	0	0
0	0	0	2.688519	5.922274	-20.086002	5.922274	41303	-5.374939E-11	-1.860486E+10	18.41208	0.762087	0	0
0	0	0	2.413199	5.9223	-20.472285	5.9223	35591.5	-4.303073E-11	-2.323921E+10	18.284271	0.761849	0	0
0	0	0	2.122157	5.922345	-20.880697	5.922345	30410	-3.270556E-11	-3.057584E+10	18.376298	0.75927	0	0
0	0	0	1.815392	5.922398	-21.31119	5.922398	25763	-2.460239E-11	-4.064645E+10	18.3153	0.758794	0	0
0	0	0	1.521042	5.92213	-21.723016	5.92213	21973	-4.930138E-11	-2.028341E+10	18.344187	0.756533	0	0
0	0	0	1.26953	5.922058	-22.075518	5.922058	19180	-6.746093E-11	-1.48234E+10	18.354976	0.755858	0	0
0	0	0	1.061549	5.922176	-22.367707	5.922176	17140.5	-3.125659E-11	-3.199325E+10	18.304994	0.753835	0	0
0	0	0	0.889831	5.922274	-22.608956	5.922274	15621	-2.032829E-11	-4.919253E+10	18.375489	0.752724	0	0
0	0	0	0.743473	5.922241	-22.814118	5.922241	14432.5	-2.076366E-11	-4.816106E+10	18.253818	0.751574	0	0
0	0	0	0.62133	5.922156	-22.985104	5.922156	13510.5	-2.678693E-11	-3.733163E+10	18.389188	0.749828	0	0
0	0	0	0.52271	5.922274	-23.123904	5.922274	12809	-1.666891E-11	-5.999193E+10	18.228839	0.748876	0	0
0	0	0	0.43826	5.922424	-23.242959	5.922424	12237.5	-1.106609E-11	-9.036619E+10	18.401809	0.746615	0	0
0	0	0	0.367082	5.922117	-23.341571	5.922117	11775.5	-2.828293E-11	-3.535701E+10	18.226867	0.746099	0	0
0	0	0	0.317914	5.922313	-23.41132	5.922313	11466.5	-1.338826E-11	-7.469229E+10	18.390681	0.743719	0	0
0	0	0	0.270544	5.922189	-23.477267	5.922189	11176.5	-1.934584E-11	-5.16907E+10	18.212236	0.743679	0	0
0	0	0	0.231953	5.922228	-23.531554	5.922228	10946	-1.644176E-11	-6.082072E+10	18.353338	0.741021	0	0
0	0	0	0.200958	5.922274	-23.575213	5.922274	10764	-1.400766E-11	-7.13895E+10	18.225467	0.740981	0	0
0	0	0	0.179683	5.922221	-23.604846	5.922221	10641	-1.634378E-11	-6.118534E+10	18.312026	0.738204	0	0
0	0	0	0.15269	5.922182	-23.64255	5.922182	10486.5	-1.862443E-11	-5.369291E+10	18.237507	0.738125	0	0
0	0	0	0.133333	5.922235	-23.669911	5.922235	10377.5	-1.525174E-11	-6.556628E+10	18.246235	0.735864	0	0
0	0	0	0.123696	5.922228	-23.683403	5.922228	10324	-1.550747E-11	-6.448505E+10	18.264295	0.735149	0	0
0	0	0	0.114875	5.92228	-23.695985	5.92228	10274.5	-1.312017E-11	-7.62185E+10	18.207365	0.733166	0	0
0	0	0	0.104666	5.922248	-23.710174	5.922248	10218	-1.439652E-11	-6.946124E+10	18.300024	0.732253	0	0
0	0	0	0.091761	5.922189	-23.728038	5.922189	10147	-1.756384E-11	-5.693517E+10	18.181071	0.730746	0	0
0	0	0	0.078694	5.922137	-23.746158	5.922137	10075.5	-2.188624E-11	-4.569081E+10	18.32838	0.729	0	0
0	0	0	0.069465	5.922111	-23.758998	5.922111	10025.5	-2.495917E-11	-4.006544E+10	18.16488	0.728008	0	0
0	0	0	0.060031	5.922143	-23.772361	5.922143	9974.5	-2.09977E-11	-4.762426E+10	18.326896	0.725945	0	0
0	0	0	0.055703	5.922032	-23.777986	5.922032	9951	-4.410297E-11	-2.267421E+10	18.152613	0.725469	0	0
0	0	0	0.054069	5.921954	-23.779962	5.921954	9942.5	-2.005101E-10	-4.987279E+9	18.321764	0.723168	0	0
0	0	0	0.051823	5.922365	-23.784767	5.922365	9930.5	-1.019744E-11	-9.806379E+10	18.162422	0.722811	0	0
0	0	0	0.049741	5.922235	-23.787163	5.922235	9919	-1.457789E-11	-6.859704E+10	18.297191	0.720153	0	0
0	0	0	0.047045	5.922326	-23.791311	5.922326	9904.5	-1.118142E-11	-8.943409E+10	18.186973	0.719836	0	0
0	0	0	0.043207	5.922274	-23.796485	5.922274	9884	-1.286248E-11	-7.774551E+10	18.24798	0.717416	0	0
0	0	0	0.0419	5.922195	-23.798003	5.922195	9877	-1.667309E-11	-5.997687E+10	18.213159	0.717059	0	0
0	0	0	0.040593	5.922417	-23.800729	5.922417	9870.5	-9.045664E-12	-1.105502E+11	18.195842	0.715194	0	0
0	0	0	0.039491	5.922483	-23.802538	5.922483	9864.5	-7.968802E-12	-1.254894E+11	18.23414	0.714202	0	0
0	0	0	0.034917	5.922267	-23.808087	5.922267	9840	-1.305445E-11	-7.660225E+10	18.149172	0.712615	0	0
0	0	0	0.031936	5.922319	-23.812478	5.922319	9824	-1.127731E-11	-8.867361E+10	18.257304	0.711068	0	0
0	0	0	0.029853	5.922326	-23.815426	5.922326	9813	-1.107812E-11	-9.026801E+10	18.102339	0.710037	0	0
0	0	0	0.029486	5.922156	-23.815258	5.922156	9811	-1.945203E-11	-5.140852E+10	18.234392	0.708569	0	0
0	0	0	0.029731	5.922378	-23.815808	5.922378	9812.5	-9.781558E-12	-1.022332E+11	18.07202	0.707617	0	0
0	0	0	0.028301	5.922404	-23.817918	5.922404	9804.5	-9.233457E-12	-1.083018E+11	18.238836	0.705514	0	0
0	0	0	0.0263	5.922332	-23.820436	5.922332	9794	-1.087654E-11	-9.194102E+10	18.059379	0.705197	0	0
0	0	0	0.024749	5.922469	-23.823164	5.922469	9786	-8.097312E-12	-1.234978E+11	18.232441	0.702301	0	0
0	0	0	0.024585	5.922411	-23.823157	5.922411	9785	-9.089512E-12	-1.100169E+11	18.065206	0.70238	0	0
0	0	0	0.023115	5.922417	-23.825245	5.922417	9777.5	-8.960435E-12	-1.116017E+11	18.180015	0.700158	0	0
0	0	0	0.024953	5.922306	-23.822221	5.922306	9787	-1.162643E-11	-8.60109E+10	18.085212	0.699682	0	0
0	0	0	0.023687	5.92243	-23.824496	5.92243	9780.5	-8.728485E-12	-1.145674E+11	18.153699	0.697302	0	0
0	0	0	0.025116	5.922398	-23.82236	5.922398	9788	-9.347057E-12	-1.069856E+11	18.115794	0.697024	0	0
0	0	0	0.024585	5.922378	-23.823025	5.922378	9785	-9.754145E-12	-1.025205E+11	18.094405	0.694882	0	0
0	0	0	0.024708	5.922385	-23.82288	5.922385	9786	-9.614537E-12	-1.040092E+11	18.122286	0.694287	0	0
0	0	0	0.024218	5.922241	-23.822989	5.922241	9783.5	-1.407527E-11	-7.104661E+10	18.041099	0.692541	0	0
0	0	0	0.024708	5.922241	-23.822302	5.922241	9786	-1.407886E-11	-7.102846E+10	18.140259	0.691272	0	0
0	0	0	0.024463	5.922195	-23.822461	5.922195	9784.5	-1.651695E-11	-6.054388E+10	18.016722	0.689923	0	0
0	0	0	0.026178	5.922359	-23.820713	5.922359	9793.5	-1.021058E-11	-9.793762E+10	18.17025	0.688415	0	0
0	0	0	0.026872	5.922443	-23.82008	5.922443	9797.5	-8.520547E-12	-1.173634E+11	17.997723	0.687582	0	0
0	0	0	0.028301	5.922313	-23.81755	5.922313	9804.5	-1.144772E-11	-8.735368E+10	18.156243	0.685916	0	0
0	0	0	0.029036	5.922241	-23.81623	5.922241	9809	-1.411195E-11	-7.086191E+10	17.987768	0.685321	0	0
0	0	0	0.029363	5.92228	-23.815929	5.92228	9810.5	-1.252766E-11	-7.982335E+10	18.151767	0.683139	0	0
0	0	0	0.027689	5.922391	-23.818725	5.922391	9801.5	-9.49294E-12	-1.053414E+11	18.019062	0.682702	0	0
0	0	0	0.028873	5.9223	-23.816696	5.9223	9808	-1.185804E-11	-8.433098E+10	18.130151	0.680401	0	0
0	0	0	0.029363	5.922254	-23.815824	5.922254	9810.5	-1.354246E-11	-7.384184E+10	18.034974	0.680124	0	0
0	0	0	0.031242	5.922391	-23.813741	5.922391	9820.5	-9.511342E-12	-1.051376E+11	18.082217	0.677743	0	0
0	0	0	0.030466	5.922189	-23.814015	5.922189	9816	-1.69909E-11	-5.885505E+10	18.040065	0.677505	0	0
0	0	0	0.029812	5.922169	-23.814853	5.922169	9813	-1.838639E-11	-5.438804E+10	18.029007	0.675561	0	0
0	0	0	0.029853	5.922202	-23.814927	5.922202	9813	-1.616474E-11	-6.186304E+10	18.086455	0.67449	0	0
0	0	0	0.030302	5.922111	-23.813929	5.922111	9815.5	-2.443636E-11	-4.092263E+10	17.989134	0.673221	0	0
0	0	0	0.03067	5.922091	-23.813334	5.922091	9817.5	-2.744888E-11	-3.643136E+10	18.112164	0.671634	0	0
0	0	0	0.029486	5.922293	-23.81581	5.922293	9811	-1.207585E-11	-8.280989E+10	17.953555	0.670801	0	0
0	0	0	0.030057	5.922163	-23.814483	5.922163	9814	-1.8908E-11	-5.288766E+10	18.084501	0.669333	0	0
0	0	0	0.02969	5.922345	-23.815734	5.922345	9812	-1.055268E-11	-9.476266E+10	17.905481	0.668698	0	0
0	0	0	0.029649	5.922097	-23.814793	5.922097	9812	-2.635259E-11	-3.794693E+10	18.087943	0.666238	0	0
0	0	0	0.028669	5.922306	-23.817008	5.922306	9807	-1.165019E-11	-8.583549E+10	17.895219	0.666238	0	0
0	0	0	0.026055	5.922254	-23.820464	5.922254	9793	-1.35183E-11	-7.397379E+10	18.050619	0.663699	0	0
0	0	0	0.025116	5.92245	-23.82257	5.92245	9788	-8.40505E-12	-1.189761E+11	17.89704	0.66358	0	0
0	0	0	0.02434	5.922235	-23.822791	5.922235	9784	-1.437948E-11	-6.954355E+10	18.015566	0.66124	0	0
0	0	0	0.022911	5.922339	-23.825216	5.922339	9776	-1.068251E-11	-9.361096E+10	17.904203	0.66124	0	0
0	0	0	0.022094	5.922365	-23.826467	5.922365	9772	-1.003468E-11	-9.965437E+10	17.984787	0.658661	0	0
0	0	0	0.019644	5.922163	-23.829089	5.922163	9759	-1.880204E-11	-5.318572E+10	17.930759	0.658701	0	0
0	0	0	0.019848	5.922385	-23.829696	5.922385	9760	-9.588993E-12	-1.042862E+11	17.932466	0.656201	0	0
0	0	0	0.017521	5.922267	-23.832488	5.922267	9748	-1.293239E-11	-7.732521E+10	17.965391	0.655606	0	0
0	0	0	0.016214	5.92215	-23.833848	5.92215	9741	-1.989183E-11	-5.02719E+10	17.875314	0.654218	0	0
0	0	0	0.018011	5.922378	-23.832247	5.922378	9750.5	-9.719753E-12	-1.028833E+11	17.98224	0.653265	0	0
0	0	0	0.016091	5.922528	-23.835544	5.922528	9740.5	-7.265869E-12	-1.376298E+11	17.842852	0.651917	0	0
0	0	0	0.015111	5.922437	-23.836551	5.922437	9735.5	-8.576044E-12	-1.166039E+11	17.996149	0.650092	0	0
0	0	0	0.013927	5.922241	-23.837424	5.922241	9729	-1.399686E-11	-7.14446E+10	17.816919	0.649536	0	0
0	0	0	0.012253	5.922359	-23.840245	5.922359	9720	-1.013395E-11	-9.867819E+10	17.984587	0.647751	0	0
0	0	0	0.012947	5.922391	-23.839403	5.922391	9724	-9.41788E-12	-1.06181E+11	17.811409	0.647275	0	0
0	0	0	0.012988	5.92228	-23.838899	5.92228	9724	-1.24172E-11	-8.053342E+10	17.988179	0.644894	0	0
0	0	0	0.012375	5.922274	-23.839732	5.922274	9721	-1.265036E-11	-7.904913E+10	17.832214	0.644775	0	0
0	0	0	0.012498	5.922287	-23.839612	5.922287	9721.5	-1.218573E-11	-8.20632E+10	17.954938	0.642435	0	0
0	0	0	0.012253	5.922326	-23.840114	5.922326	9720	-1.097313E-11	-9.113168E+10	17.8428	0.642276	0	0
0	0	0	0.011273	5.922313	-23.841436	5.922313	9715	-1.134322E-11	-8.815843E+10	17.921549	0.639816	0	0
0	0	0	0.012008	5.922437	-23.840904	5.922437	9719	-8.561509E-12	-1.168018E+11	17.861462	0.639737	0	0
0	0	0	0.013682	5.922502	-23.838819	5.922502	9727.5	-7.588338E-12	-1.317812E+11	17.846206	0.637872	0	0
0	0	0	0.013845	5.922463	-23.838432	5.922463	9728.5	-8.14865E-12	-1.227197E+11	17.88778	0.636881	0	0
0	0	0	0.014376	5.922411	-23.837477	5.922411	9731	-9.03935E-12	-1.106274E+11	17.803095	0.635492	0	0
0	0	0	0.013764	5.922391	-23.838257	5.922391	9728	-9.421754E-12	-1.061374E+11	17.911487	0.634064	0	0
0	0	0	0.016622	5.922522	-23.834773	5.922522	9743.5	-7.348524E-12	-1.360818E+11	17.769688	0.633151	0	0
0	0	0	0.017316	5.922319	-23.832985	5.922319	9747	-1.118892E-11	-8.937412E+10	17.907527	0.631803	0	0
0	0	0	0.017725	5.922261	-23.832175	5.922261	9749	-1.319044E-11	-7.581247E+10	17.732017	0.631128	0	0
0	0	0	0.017439	5.922437	-23.833286	5.922437	9747.5	-8.586615E-12	-1.164603E+11	17.900227	0.629224	0	0
0	0	0	0.019154	5.922202	-23.829934	5.922202	9756.5	-1.607167E-11	-6.222129E+10	17.721783	0.628668	0	0
0	0	0	0.02042	5.922091	-23.827712	5.922091	9763.5	-2.72979E-11	-3.663285E+10	17.882634	0.626486	0	0
0	0	0	0.02091	5.922385	-23.828207	5.922385	9765.5	-9.594396E-12	-1.042275E+11	17.693156	0.626486	0	0
0	0	0	0.022666	5.922202	-23.825008	5.922202	9775	-1.610215E-11	-6.210353E+10	17.834108	0.624225	0	0
0	0	0	0.022503	5.922143	-23.825001	5.922143	9774	-2.057562E-11	-4.860121E+10	17.692191	0.624265	0	0
0	0	0	0.022135	5.922319	-23.826226	5.922319	9772	-1.121762E-11	-8.914547E+10	17.795283	0.621845	0	0
0	0	0	0.022707	5.922411	-23.825792	5.922411	9775.5	-9.080688E-12	-1.101238E+11	17.728338	0.621527	0	0
0	0	0	0.022993	5.922561	-23.825995	5.922561	9777	-6.914745E-12	-1.446185E+11	17.75979	0.619425	0	0
0	0	0	0.024789	5.922385	-23.822765	5.922385	9786	-9.614537E-12	-1.040092E+11	17.741391	0.619028	0	0
0	0	0	0.024708	5.922228	-23.822249	5.922228	9786	-1.469935E-11	-6.803021E+10	17.693969	0.617322	0	0
0	0	0	0.024667	5.9223	-23.822595	5.9223	9785.5	-1.183084E-11	-8.452489E+10	17.752481	0.616568	0	0
0	0	0	0.024953	5.922208	-23.821827	5.922208	9787	-1.57415E-11	-6.352635E+10	17.636467	0.615457	0	0
0	0	0	0.023115	5.922078	-23.823879	5.922078	9777.5	-2.978003E-11	-3.357954E+10	17.778344	0.613791	0	0
0	0	0	0.024259	5.922463	-23.823825	5.922463	9783.5	-8.194718E-12	-1.220298E+11	17.622608	0.61272	0	0
0	0	0	0.023564	5.922287	-23.824089	5.922287	9779.5	-1.225843E-11	-8.15765E+10	17.763913	0.61157	0	0
0	0	0	0.022788	5.922267	-23.825099	5.922267	9775.5	-1.296888E-11	-7.710768E+10	17.582357	0.611213	0	0
0	0	0	0.021278	5.922313	-23.827402	5.922313	9767.5	-1.140451E-11	-8.768458E+10	17.769633	0.609031	0	0
0	0	0	0.019726	5.922359	-23.829763	5.922359	9759.5	-1.017513E-11	-9.827881E+10	17.603201	0.608872	0	0
0	0	0	0.019889	5.922274	-23.829192	5.922274	9760.5	-1.270176E-11	-7.872922E+10	17.768495	0.606491	0	0
0	0	0	0.019317	5.922202	-23.829705	5.922202	9757.5	-1.607332E-11	-6.221491E+10	17.622274	0.606571	0	0
0	0	0	0.018786	5.922372	-23.831133	5.922372	9754.5	-9.868053E-12	-1.013371E+11	17.720261	0.60427	0	0
0	0	0	0.0165	5.922313	-23.834104	5.922313	9742.5	-1.137532E-11	-8.790958E+10	17.611502	0.60431	0	0
0	0	0	0.016336	5.92245	-23.834885	5.92245	9741.5	-8.36512E-12	-1.19544E+11	17.657329	0.602247	0	0
0	0	0	0.015275	5.922267	-23.835638	5.922267	9736	-1.291647E-11	-7.742052E+10	17.642374	0.601691	0	0
0	0	0	0.013682	5.922248	-23.837794	5.922248	9727.5	-1.370544E-11	-7.296375E+10	17.61054	0.600104	0	0
0	0	0	0.013192	5.922424	-23.839191	5.922424	9725	-8.794091E-12	-1.137127E+11	17.654	0.599311	0	0
0	0	0	0.01164	5.922515	-23.841735	5.922515	9717	-7.410531E-12	-1.349431E+11	17.552885	0.59816	0	0
0	0	0	0.011028	5.922437	-23.842279	5.922437	9714	-8.557104E-12	-1.16862E+11	17.647778	0.59693	0	0
0	0	0	0.012375	5.922528	-23.840757	5.922528	9721	-7.251323E-12	-1.379059E+11	17.505852	0.596177	0	0
0	0	0	0.009435	5.922385	-23.844303	5.922385	9705.5	-9.535447E-12	-1.048718E+11	17.679032	0.594431	0	0
0	0	0	0.009231	5.922195	-23.843827	5.922195	9704	-1.638106E-11	-6.104612E+10	17.49329	0.593876	0	0
0	0	0	0.009639	5.922241	-23.843438	5.922241	9706.5	-1.396449E-11	-7.161021E+10	17.662557	0.592011	0	0
0	0	0	0.00919	5.92245	-23.844909	5.92245	9704	-8.332919E-12	-1.20006E+11	17.46695	0.591773	0	0
0	0	0	0.00772	5.922169	-23.845841	5.922169	9696.5	-1.816811E-11	-5.50415E+10	17.616352	0.589789	0	0
0	0	0	0.005923	5.922202	-23.848493	5.922202	9687	-1.595718E-11	-6.26677E+10	17.449524	0.58971	0	0
0	0	0	0.007679	5.922326	-23.846529	5.922326	9696	-1.094604E-11	-9.135726E+10	17.598865	0.587449	0	0
0	0	0	0.008087	5.92262	-23.847139	5.92262	9698.5	-6.273412E-12	-1.594029E+11	17.463909	0.587568	0	0
0	0	0	0.0087	5.922404	-23.845413	5.922404	9701.5	-9.136456E-12	-1.094516E+11	17.554107	0.585267	0	0
0	0	0	0.007842	5.922332	-23.846326	5.922332	9697	-1.076882E-11	-9.286072E+10	17.477667	0.585267	0	0
0	0	0	0.009435	5.922391	-23.844329	5.922391	9705.5	-9.399962E-12	-1.063834E+11	17.501542	0.583204	0	0
0	0	0	0.010783	5.922267	-23.841939	5.922267	9712.5	-1.28853E-11	-7.760784E+10	17.482431	0.583164	0	0
0	0	0	0.011681	5.922326	-23.840916	5.922326	9717	-1.096975E-11	-9.115982E+10	17.448366	0.581418	0	0
0	0	0	0.011109	5.922326	-23.841718	5.922326	9714	-1.096636E-11	-9.118797E+10	17.519831	0.580625	0	0
0	0	0	0.012865	5.922195	-23.838729	5.922195	9723.5	-1.641397E-11	-6.09237E+10	17.411518	0.579395	0	0
0	0	0	0.013559	5.922476	-23.838885	5.922476	9727	-7.951965E-12	-1.257551E+11	17.519716	0.578126	0	0
0	0	0	0.012783	5.92245	-23.839868	5.92245	9723	-8.349234E-12	-1.197715E+11	17.364939	0.57757	0	0
0	0	0	0.013845	5.922241	-23.837538	5.922241	9728.5	-1.399614E-11	-7.144827E+10	17.532782	0.575745	0	0
0	0	0	0.014989	5.922319	-23.83625	5.922319	9734.5	-1.117457E-11	-8.948888E+10	17.357221	0.575468	0	0
0	0	0	0.016581	5.922124	-23.833227	5.922124	9743	-2.260468E-11	-4.423863E+10	17.525559	0.573484	0	0
0	0	0	0.017521	5.922163	-23.832068	5.922163	9748	-1.878085E-11	-5.324574E+10	17.34526	0.573325	0	0
0	0	0	0.018501	5.922313	-23.831297	5.922313	9753	-1.138758E-11	-8.781494E+10	17.504367	0.571183	0	0
0	0	0	0.018786	5.922208	-23.830476	5.922208	9754.5	-1.568923E-11	-6.373801E+10	17.340709	0.571342	0	0
0	0	0	0.019807	5.922163	-23.82886	5.922163	9760	-1.880397E-11	-5.318027E+10	17.48244	0.56912	0	0
0	0	0	0.020216	5.922359	-23.829075	5.922359	9762	-1.017774E-11	-9.825364E+10	17.372737	0.56916	0	0
0	0	0	0.019358	5.922137	-23.829385	5.922137	9757.5	-2.119547E-11	-4.717989E+10	17.440119	0.566938	0	0
0	0	0	0.02091	5.922241	-23.827629	5.922241	9765.5	-1.404937E-11	-7.117756E+10	17.382742	0.566938	0	0
0	0	0	0.019848	5.9223	-23.829354	5.9223	9760	-1.180001E-11	-8.474572E+10	17.37523	0.564954	0	0
0	0	0	0.020052	5.922378	-23.829383	5.922378	9761	-9.73022E-12	-1.027726E+11	17.385242	0.564637	0	0
0	0	0	0.020542	5.922515	-23.829248	5.922515	9764	-7.446375E-12	-1.342935E+11	17.327894	0.56309	0	0
0	0	0	0.020828	5.922483	-23.828716	5.922483	9765.5	-7.888827E-12	-1.267616E+11	17.408602	0.562376	0	0
0	0	0	0.020502	5.922208	-23.82807	5.922208	9763.5	-1.57037E-11	-6.367925E+10	17.28477	0.561305	0	0
0	0	0	0.020828	5.922248	-23.82777	5.922248	9765.5	-1.375897E-11	-7.267983E+10	17.422137	0.559956	0	0
0	0	0	0.01895	5.921993	-23.829379	5.921993	9755.5	-7.089313E-11	-1.410574E+10	17.23695	0.55948	0	0
0	0	0	0.017235	5.922326	-23.833126	5.922326	9746.5	-1.100305E-11	-9.08839E+10	17.384232	0.558131	0	0
0	0	0	0.017316	5.922274	-23.832801	5.922274	9747	-1.26842E-11	-7.883827E+10	17.215127	0.557298	0	0
0	0	0	0.016295	5.922228	-23.834049	5.922228	9741.5	-1.463251E-11	-6.834098E+10	17.372714	0.555671	0	0
0	0	0	0.015438	5.922398	-23.835935	5.922398	9737	-9.298354E-12	-1.075459E+11	17.184454	0.555433	0	0
0	0	0	0.014131	5.922352	-23.837584	5.922352	9730	-1.030195E-11	-9.706903E+10	17.332963	0.553449	0	0
0	0	0	0.013437	5.922437	-23.838899	5.922437	9726.5	-8.568116E-12	-1.167118E+11	17.168214	0.553529	0	0
0	0	0	0.012743	5.922359	-23.839558	5.922359	9722.5	-1.013656E-11	-9.865282E+10	17.288968	0.551307	0	0
0	0	0	0.011681	5.922261	-23.840653	5.922261	9717	-1.314715E-11	-7.606213E+10	17.181475	0.551386	0	0
0	0	0	0.008251	5.922313	-23.845675	5.922313	9699	-1.132453E-11	-8.830386E+10	17.246763	0.549442	0	0
0	0	0	0.008822	5.922319	-23.844899	5.922319	9702	-1.113726E-11	-8.978865E+10	17.211618	0.549244	0	0
0	0	0	0.007434	5.922326	-23.846873	5.922326	9694.5	-1.094434E-11	-9.137139E+10	17.206868	0.547459	0	0
0	0	0	0.007761	5.922411	-23.846756	5.922411	9696.5	-9.007303E-12	-1.11021E+11	17.229997	0.547141	0	0
0	0	0	0.007148	5.92243	-23.847694	5.92243	9693.5	-8.650843E-12	-1.155957E+11	17.171539	0.545594	0	0
0	0	0	0.005882	5.922541	-23.849917	5.922541	9687	-7.071196E-12	-1.414188E+11	17.242304	0.544959	0	0
0	0	0	0.00433	5.92228	-23.851042	5.92228	9678.5	-1.23591E-11	-8.091202E+10	17.120557	0.543888	0	0
0	0	0	0.006045	5.922254	-23.848531	5.922254	9687.5	-1.337267E-11	-7.477939E+10	17.262201	0.542619	0	0
0	0	0	0.00625	5.922391	-23.848797	5.922391	9688.5	-9.383497E-12	-1.065701E+11	17.069647	0.542222	0	0
0	0	0	0.006331	5.922359	-23.848551	5.922359	9689	-1.010163E-11	-9.899392E+10	17.239071	0.540437	0	0
0	0	0	0.006617	5.922026	-23.846809	5.922026	9690.5	-4.593511E-11	-2.176984E+10	0	0	0	0
0	0	0	0.007271	5.922476	-23.847706	5.922476	9694	-7.924987E-12	-1.261832E+11	0	0	0	0
0	0	0	0.00625	5.92228	-23.84835	5.92228	9688.5	-1.237187E-11	-8.082851E+10	0	0	0	0
0	0	0	0.005392	5.922469	-23.850315	5.922469	9684	-8.012913E-12	-1.247986E+11	0	0	0	0
0	0	0	0.007271	5.922293	-23.84697	5.922293	9694	-1.193184E-11	-8.380935E+10	0	0	0	0
0	0	0	0.006658	5.922476	-23.848566	5.922476	9691	-7.922535E-12	-1.262222E+11	0	0	0	0
0	0	0	0.00821	5.922496	-23.846468	5.922496	9699	-7.653696E-12	-1.306558E+11	0	0	0	0
0	0	0	0.007516	5.92213	-23.84597	5.92213	9695.5	-2.175404E-11	-4.596848E+10	0	0	0	0
0	0	0	0.010374	5.922372	-23.842933	5.922372	9710.5	-9.823541E-12	-1.017963E+11	0	0	0	0
0	0	0	0.011191	5.922326	-23.841603	5.922326	9714.5	-1.096692E-11	-9.118328E+10	0	0	0	0
0	0	0	0.011395	5.922189	-23.840765	5.922189	9715.5	-1.681694E-11	-5.946386E+10	0	0	0	0
0	0	0	0.010497	5.922411	-23.842918	5.922411	9711	-9.020772E-12	-1.108553E+11	0	0	0	0
0	0	0	0.012212	5.922293	-23.84004	5.922293	9720	-1.196384E-11	-8.358517E+10	0	0	0	0
0	0	0	0.014376	5.922463	-23.837687	5.922463	9731	-8.150744E-12	-1.226882E+11	0	0	0	0
0	0	0	0.014784	5.922365	-23.83672	5.922365	9733.5	-9.995148E-12	-1.000485E+11	0	0	0	0
0	0	0	0.016622	5.922319	-23.833958	5.922319	9743.5	-1.11849E-11	-8.940622E+10	0	0	0	0
0	0	0	0.016785	5.922339	-23.833808	5.922339	9744	-1.064754E-11	-9.391839E+10	0	0	0	0
0	0	0	0.016622	5.9223	-23.83388	5.9223	9743.5	-1.178006E-11	-8.488924E+10	0	0	0	0
0	0	0	0.016867	5.92213	-23.832853	5.92213	9744.5	-2.186398E-11	-4.573732E+10	0	0	0	0
0	0	0	0.016826	5.922424	-23.834093	5.922424	9744	-8.811272E-12	-1.13491E+11	0	0	0	0
0	0	0	0.017439	5.922313	-23.832787	5.922313	9747.5	-1.138116E-11	-8.786449E+10	0	0	0	0
0	0	0	0.017357	5.922385	-23.83319	5.922385	9747	-9.57622E-12	-1.044253E+11	0	0	0	0
0	0	0	0.018337	5.922319	-23.831553	5.922319	9752	-1.119466E-11	-8.932829E+10	0	0	0	0
0	0	0	0.017766	5.922163	-23.831724	5.922163	9749	-1.878277E-11	-5.324028E+10	0	0	0	0
0	0	0	0.017684	5.922313	-23.832443	5.922313	9749	-1.138291E-11	-8.785097E+10	0	0	0	0
0	0	0	0.017276	5.922169	-23.832437	5.922169	9746.5	-1.826179E-11	-5.475913E+10	0	0	0	0
0	0	0	0.017235	5.922287	-23.832968	5.922287	9746.5	-1.221707E-11	-8.185271E+10	0	0	0	0
0	0	0	0.018541	5.92213	-23.830504	5.92213	9753.5	-2.188417E-11	-4.569512E+10	0	0	0	0
0	0	0	0.017153	5.922248	-23.832925	5.922248	9746	-1.37315E-11	-7.282525E+10	0	0	0	0
0	0	0	0.01703	5.922241	-23.83307	5.922241	9745.5	-1.40206E-11	-7.132364E+10	0	0	0	0
0	0	0	0.014703	5.922215	-23.83623	5.922215	9733	-1.529377E-11	-6.538609E+10	0	0	0	0
0	0	0	0.014172	5.92228	-23.837238	5.92228	9730.5	-1.24255E-11	-8.047963E+10	0	0	0	0
0	0	0	0.011395	5.922437	-23.841763	5.922437	9715.5	-8.558426E-12	-1.168439E+11	0	0	0	0
0	0	0	0.011109	5.922359	-23.841849	5.922359	9714	-1.01277E-11	-9.873914E+10	0	0	0	0
0	0	0	0.011395	5.922522	-23.842105	5.922522	9715.5	-7.327406E-12	-1.364739E+11	0	0	0	0
0	0	0	0.007434	5.922169	-23.846242	5.922169	9694.5	-1.816436E-11	-5.505285E+10	0	0	0	0
0	0	0	0.0087	5.922339	-23.84515	5.922339	9701.5	-1.06011E-11	-9.432982E+10	0	0	0	0
0	0	0	0.008332	5.922202	-23.845113	5.922202	9699.5	-1.597778E-11	-6.258693E+10	0	0	0	0
0	0	0	0.006781	5.922163	-23.847132	5.922163	9691.5	-1.867199E-11	-5.355615E+10	0	0	0	0
0	0	0	0.006617	5.922235	-23.84765	5.922235	9690.5	-1.424206E-11	-7.021455E+10	0	0	0	0
0	0	0	0.006944	5.922391	-23.847823	5.922391	9692.5	-9.387372E-12	-1.065261E+11	0	0	0	0
0	0	0	0.00482	5.922463	-23.851091	5.922463	9681	-8.108864E-12	-1.233218E+11	0	0	0	0
0	0	0	0.004657	5.922411	-23.85111	5.922411	9680.5	-8.99244E-12	-1.112045E+11	0	0	0	0
0	0	0	0.004698	5.922215	-23.850264	5.922215	9680.5	-1.521128E-11	-6.57407E+10	0	0	0	0
0	0	0	0.004698	5.922372	-23.850895	5.922372	9680.5	-9.793191E-12	-1.021118E+11	0	0	0	0
0	0	0	0.004698	5.922169	-23.85008	5.922169	9680.5	-1.813813E-11	-5.513247E+10	0	0	0	0
0	0	0	0.004902	5.922456	-23.85095	5.922456	9681.5	-8.210169E-12	-1.218002E+11	0	0	0	0
0	0	0	0.003799	5.922522	-23.852759	5.922522	9676	-7.297616E-12	-1.370311E+11	0	0	0	0
0	0	0	0.003391	5.9226	-23.853648	5.9226	9673.5	-6.440595E-12	-1.552652E+11	0	0	0	0
0	0	0	0.003677	5.92245	-23.852642	5.92245	9675.5	-8.308446E-12	-1.203595E+11	0	0	0	0
0	0	0	0.00482	5.922365	-23.850696	5.922365	9681	-9.941237E-12	-1.005911E+11	0	0	0	0
0	0	0	0.00527	5.922352	-23.850014	5.922352	9683.5	-1.025271E-11	-9.753515E+10	0	0	0	0
0	0	0	0.00674	5.922398	-23.848136	5.922398	9691	-9.254426E-12	-1.080564E+11	0	0	0	0
0	0	0	0.007271	5.922319	-23.847076	5.922319	9694	-1.112808E-11	-8.986275E+10	0	0	0	0
0	0	0	0.007516	5.922515	-23.847521	5.922515	9695.5	-7.394134E-12	-1.352423E+11	0	0	0	0
0	0	0	0.007883	5.922463	-23.846795	5.922463	9697	-8.122265E-12	-1.231184E+11	0	0	0	0
0	0	0	0.009598	5.922306	-23.843758	5.922306	9706	-1.153021E-11	-8.672869E+10	0	0	0	0
0	0	0	0.009802	5.922496	-23.844234	5.922496	9707.5	-7.660404E-12	-1.305414E+11	0	0	0	0
0	0	0	0.010374	5.92258	-23.843774	5.92258	9710.5	-6.660396E-12	-1.501412E+11	0	0	0	0
0	0	0	0.011109	5.922378	-23.841928	5.922378	9714	-9.683369E-12	-1.032698E+11	0	0	0	0
0	0	0	0.013478	5.922339	-23.838448	5.922339	9726.5	-1.062842E-11	-9.408737E+10	0	0	0	0
0	0	0	0.013723	5.922326	-23.838052	5.922326	9728	-1.098216E-11	-9.105674E+10	0	0	0	0
0	0	0	0.015846	5.922248	-23.834758	5.922248	9739	-1.372164E-11	-7.28776E+10	0	0	0	0
0	0	0	0.015234	5.922208	-23.835459	5.922208	9736	-1.565947E-11	-6.385912E+10	0	0	0	0
0	0	0	0.01654	5.922293	-23.833968	5.922293	9742.5	-1.199154E-11	-8.339213E+10	0	0	0	0
0	0	0	0.014662	5.922287	-23.836576	5.922287	9732.5	-1.219952E-11	-8.197045E+10	0	0	0	0
0	0	0	0.018133	5.922306	-23.831787	5.922306	9751	-1.158367E-11	-8.632845E+10	0	0	0	0
0	0	0	0.017602	5.9223	-23.832505	5.9223	9748.5	-1.17861E-11	-8.48457E+10	0	0	0	0
0	0	0	0.016908	5.922326	-23.833584	5.922326	9744.5	-1.100079E-11	-9.090256E+10	0	0	0	0
0	0	0	0.016581	5.922345	-23.834121	5.922345	9743	-1.047847E-11	-9.543377E+10	0	0	0	0
0	0	0	0.017561	5.922261	-23.832404	5.922261	9748	-1.318909E-11	-7.582025E+10	0	0	0	0
0	0	0	0.016826	5.922097	-23.832778	5.922097	9744	-2.616996E-11	-3.821175E+10	0	0	0	0
0	0	0	0.016173	5.92228	-23.834431	5.92228	9741	-1.243891E-11	-8.039288E+10	0	0	0	0
0	0	0	0.014907	5.922156	-23.835707	5.922156	9734	-1.929936E-11	-5.181519E+10	0	0	0	0
0	0	0	0.013927	5.922522	-23.838554	5.922522	9729	-7.337588E-12	-1.362846E+11	0	0	0	0
0	0	0	0.014335	5.922306	-23.837114	5.922306	9731	-1.155991E-11	-8.650588E+10	0	0	0	0
0	0	0	0.013396	0	0.013396	0	9726	0	0	0	0	0	0
0	0	0	0.010292	0	0.010292	0	9709.5	0	0	0	0	0	0
