Vload_(V)	ILoad_(A)	RsLoad (ohm)	SunsVoc_Voltage_(V)	SunsVoc_Current_(A)	Model_Voltage_(V)	Model_Current_(A)	Carrier_Density_(cm-3)	Lifetime_(s)	Inverse_Lifetime_(s-1)	Efficiency_(%)	Intensity_(suns)	Dark_IV_Voltage_(V)	Dark_IV_Current_(A)
3.65195	6.321893	0	64.868593	-0.952273	65.182606	-0.952273	3.214592E+15	0.000186	5373.389053	19.230737	1.137232	0	0
3.635863	6.322461	-0.639885	64.833842	-0.746462	65.081594	-0.746462	3.185084E+15	0.000189	5269.712608	19.089721	1.136504	0	0
5.319613	6.315954	5.937716	64.688014	-0.311628	64.794258	-0.311628	3.063718E+15	0.000194	5142.287685	19.170823	1.134241	0	0
11.489074	6.259605	6.571194	64.512498	0.149566	64.459881	0.149566	2.922791E+15	0.000199	5016.493694	18.977401	1.132111	0	0
15.946004	6.257645	5.875204	64.334165	0.579893	64.123755	0.579893	2.78518E+15	0.000204	4898.292547	19.121886	1.130761	0	0
21.551236	6.2505	5.031797	64.158363	0.966565	63.79713	0.966565	2.654846E+15	0.000208	4793.613692	19.112136	1.130285	0	0
27.604752	6.244248	4.104135	63.992608	1.310656	63.489326	1.310656	2.536645E+15	0.000212	4695.410133	19.026027	1.129438	0	0
33.555551	6.231073	3.225317	63.824974	1.62927	63.182434	1.62927	2.421583E+15	0.000217	4606.538067	19.165996	1.127242	0	0
39.457477	6.21238	2.365587	63.657544	1.928926	62.876829	1.928926	2.311017E+15	0.000221	4519.377438	19.17379	1.12441	0	0
45.319509	6.191753	1.499947	63.490849	2.217802	62.570322	2.217802	2.205129E+15	0.000226	4425.544328	19.117599	1.120851	0	0
46.582719	6.187946	1.309422	63.320723	2.48919	62.261332	2.48919	2.101239E+15	0.00023	4337.819824	18.911973	1.116762	0	0
48.050942	6.167073	1.137518	63.152068	2.74108	61.956847	2.74108	2.002283E+15	0.000235	4253.557026	19.059036	1.112422	0	0
49.50972	6.129465	0.999948	62.982066	2.973931	61.654006	2.973931	1.906475E+15	0.000239	4177.318925	19.049631	1.108677	0	0
50.927081	6.065618	0.900825	62.818229	3.185153	61.363531	3.185153	1.817768E+15	0.000243	4105.208561	19.153295	1.104999	0	0
52.360425	5.968105	0.815671	62.655414	3.379572	61.07785	3.379572	1.733031E+15	0.000247	4039.459318	18.971588	1.100936	0	0
53.77592	5.82332	0.745091	62.493578	3.557587	60.797267	3.557587	1.652076E+15	0.000251	3981.411144	19.173376	1.095657	0	0
55.131017	5.617254	0.688029	62.334356	3.723866	60.522047	3.723866	1.575518E+15	0.000255	3924.094659	19.192882	1.090443	0	0
56.52493	5.312192	0.636901	62.178973	3.880561	60.253067	3.880561	1.503672E+15	0.000259	3863.911592	18.984346	1.084965	0	0
57.902429	4.881516	0.597657	62.023222	4.027172	59.985715	4.027172	1.434412E+15	0.000262	3807.514369	18.969583	1.079355	0	0
59.244028	4.300799	0.565793	61.868452	4.164046	59.721787	4.164046	1.368242E+15	0.000266	3753.818728	19.001871	1.073639	0	0
60.515926	3.57476	0.541849	61.715274	4.290795	59.462569	4.290795	1.305282E+15	0.00027	3703.992907	19.113058	1.068624	0	0
61.734791	2.691889	0.52819	61.562259	4.40862	59.205924	4.40862	1.244825E+15	0.000273	3658.797938	19.023235	1.063265	0	0
62.883044	1.704914	0.538488	61.412593	4.518867	58.955454	4.518867	1.18798E+15	0.000277	3613.155399	19.165583	1.057588	0	0
63.835796	0.793419	0.552638	61.259537	4.622893	58.702021	4.622893	1.132117E+15	0.00028	3572.881277	19.08196	1.051303	0	0
53.235837	5.885925	0.769594	61.109504	4.72107	58.453813	4.72107	1.07952E+15	0.000283	3530.609872	19.135783	1.045507	0	0
64.607999	0	0	60.958368	4.812973	58.205936	4.812973	1.028637E+15	0.000286	3492.694304	18.907058	1.039222	0	0
0	0	0	60.808293	4.898706	57.96131	4.898706	9.801344E+14	0.000289	3457.410447	19.015314	1.033083	0	0
0	0	0	60.659485	4.978036	57.720527	4.978036	9.339711E+14	0.000292	3426.186592	19.087317	1.027419	0	0
0	0	0	60.516965	5.051937	57.489794	5.051937	8.915067E+14	0.000295	3392.111593	19.032213	1.021941	0	0
0	0	0	60.369381	5.121523	57.253711	5.121523	8.492817E+14	0.000297	3365.765957	19.124332	1.015802	0	0
0	0	0	60.224126	5.186452	57.022306	5.186452	8.094069E+14	0.000299	3340.652587	19.159079	1.009397	0	0
0	0	0	60.081484	5.246944	56.795975	5.246944	7.718257E+14	0.000301	3316.760772	19.221828	1.003496	0	0
0	0	0	59.942721	5.303524	56.576214	5.303524	7.367197E+14	0.000304	3291.995183	18.997029	0.997237	0	0
0	0	0	59.80502	5.356561	56.359173	5.356561	7.032561E+14	0.000306	3269.1074	19.040265	0.991058	0	0
0	0	0	59.668871	5.406292	56.145454	5.406292	6.714744E+14	0.000308	3247.518981	18.970635	0.985103	0	0
0	0	0	59.53264	5.454234	55.931968	5.454234	6.409327E+14	0.00031	3224.183588	19.14206	0.979387	0	0
0	0	0	59.397144	5.501788	55.718919	5.501788	6.117667E+14	0.000313	3192.818341	19.007516	0.97379	0	0
0	0	0	59.263649	5.5441	55.511307	5.5441	5.841758E+14	0.000315	3171.158493	19.183461	0.967624	0	0
0	0	0	59.126847	5.584428	55.299904	5.584428	5.570428E+14	0.000317	3153.239405	19.229387	0.962027	0	0
0	0	0	58.995271	5.622309	55.096563	5.622309	5.320023E+14	0.000319	3132.106368	19.074121	0.956668	0	0
0	0	0	58.859571	5.65775	54.888746	5.65775	5.072262E+14	0.000321	3118.713833	19.051626	0.950846	0	0
0	0	0	58.731508	5.690501	54.692572	5.690501	4.847906E+14	0.000322	3102.169208	19.018707	0.944891	0	0
0	0	0	58.598339	5.722421	54.48956	5.722421	4.624035E+14	0.000324	3087.967277	19.139311	0.939704	0	0
0	0	0	58.47048	5.751252	54.295466	5.751252	4.41784E+14	0.000325	3076.677955	18.960502	0.934292	0	0
0	0	0	58.33915	5.779613	54.096546	5.779613	4.214679E+14	0.000326	3064.729259	19.128401	0.928788	0	0
0	0	0	58.21374	5.806373	53.906404	5.806373	4.028574E+14	0.000328	3048.113218	19.174524	0.923111	0	0
0	0	0	58.08776	5.831331	53.716419	5.831331	3.849129E+14	0.000329	3035.784491	19.304986	0.917818	0	0
0	0	0	57.956266	5.854435	53.519937	5.854435	3.669589E+14	0.00033	3034.366492	19.021503	0.912393	0	0
0	0	0	57.832368	5.876773	53.334026	5.876773	3.507425E+14	0.000331	3022.976011	19.024916	0.906902	0	0
0	0	0	57.704508	5.897805	53.143373	5.897805	3.346955E+14	0.000331	3018.244371	19.07608	0.90157	0	0
0	0	0	57.582325	5.917566	52.961136	5.917566	3.199914E+14	0.000332	3009.847709	19.014262	0.896396	0	0
0	0	0	57.456957	5.936762	52.77469	5.936762	3.055224E+14	0.000333	3002.738238	19.149886	0.890918	0	0
0	0	0	57.336203	5.954164	52.595691	5.954164	2.921577E+14	0.000334	2998.229728	19.144798	0.885096	0	0
0	0	0	57.213652	5.971402	52.414102	5.971402	2.791476E+14	0.000334	2990.880536	19.250171	0.879935	0	0
0	0	0	57.091592	5.987239	52.234059	5.987239	2.667245E+14	0.000335	2988.755001	19.043252	0.874682	0	0
0	0	0	56.974595	6.00224	52.061408	6.00224	2.553001E+14	0.000335	2982.543906	19.103756	0.869204	0	0
0	0	0	56.852167	6.016743	51.881496	6.016743	2.438341E+14	0.000335	2981.123586	18.982731	0.863898	0	0
0	0	0	56.733414	6.03058	51.706967	6.03058	2.331729E+14	0.000336	2976.07274	19.132389	0.859108	0	0
0	0	0	56.61605	6.043403	51.534995	6.043403	2.23066E+14	0.000336	2973.987484	18.954297	0.854252	0	0
0	0	0	56.495786	6.055686	51.359308	6.055686	2.131364E+14	0.000336	2975.26855	19.1206	0.848866	0	0
0	0	0	56.382383	6.067465	51.193307	6.067465	2.04155E+14	0.000337	2968.717323	19.271435	0.844024	0	0
0	0	0	56.261711	6.078505	51.017773	6.078505	1.949901E+14	0.000336	2973.387772	19.170537	0.839088	0	0
0	0	0	56.147082	6.089285	50.850624	6.089285	1.866449E+14	0.000337	2968.754449	19.12034	0.834152	0	0
0	0	0	56.031801	6.099361	50.683039	6.099361	1.785937E+14	0.000337	2968.206011	18.991383	0.829111	0	0
0	0	0	55.912395	6.10874	50.51024	6.10874	1.706021E+14	0.000336	2976.28733	19.101144	0.82444	0	0
0	0	0	55.802299	6.117876	50.350358	6.117876	1.635355E+14	0.000336	2971.818857	18.924222	0.819663	0	0
0	0	0	55.683546	6.126585	50.178793	6.126585	1.562258E+14	0.000336	2978.074129	19.101029	0.814926	0	0
0	0	0	55.572716	6.135298	50.018029	6.135298	1.496857E+14	0.000337	2969.539343	19.054386	0.809832	0	0
0	0	0	55.454004	6.143012	49.847177	6.143012	1.429707E+14	0.000336	2980.486939	19.209202	0.805373	0	0
0	0	0	55.338232	6.150622	49.680367	6.150622	1.367003E+14	0.000335	2984.582455	19.014086	0.800808	0	0
0	0	0	55.226136	6.157633	49.51908	6.157633	1.308806E+14	0.000334	2989.695404	19.067774	0.796005	0	0
0	0	0	55.112814	6.164532	49.356108	6.164532	1.252395E+14	0.000334	2993.135353	19.089862	0.79144	0	0
0	0	0	55.002024	6.171212	49.196743	6.171212	1.199508E+14	0.000334	2992.438907	18.895776	0.787417	0	0
0	0	0	54.889438	6.17759	49.035091	6.17759	1.14797E+14	0.000334	2994.45186	18.982577	0.782733	0	0
0	0	0	54.777587	6.18372	48.874601	6.18372	1.098886E+14	0.000334	2995.302178	19.051726	0.778075	0	0
0	0	0	54.663693	6.189427	48.71161	6.189427	1.050991E+14	0.000333	3002.470048	19.285704	0.773894	0	0
0	0	0	54.554251	6.194662	48.555153	6.194662	1.006874E+14	0.000332	3010.171063	19.068025	0.769382	0	0
0	0	0	54.441461	6.200096	48.393797	6.200096	9.632843E+13	0.000332	3011.995007	19.094579	0.765042	0	0
0	0	0	54.333121	6.20504	48.239008	6.20504	9.23141E+13	0.000332	3015.385362	18.872669	0.760622	0	0
0	0	0	54.217145	6.209613	48.073948	6.209613	8.819682E+13	0.00033	3032.648956	19.054295	0.756573	0	0
0	0	0	54.108397	6.214398	47.918619	6.214398	8.449861E+13	0.00033	3030.48497	18.883931	0.752432	0	0
0	0	0	53.995525	6.218582	47.758117	6.218582	8.081981E+13	0.000328	3045.107418	19.030421	0.747986	0	0
0	0	0	53.885389	6.223051	47.601057	6.223051	7.738078E+13	0.000329	3042.853432	19.123014	0.743897	0	0
0	0	0	53.774027	6.227235	47.44253	6.227235	7.404869E+13	0.000328	3045.176365	18.973301	0.740007	0	0
0	0	0	53.664626	6.230954	47.287137	6.230954	7.09118E+13	0.000327	3054.960175	19.056058	0.735892	0	0
0	0	0	53.549508	6.234599	47.123846	6.234599	6.77512E+13	0.000326	3069.313353	19.004866	0.731459	0	0
0	0	0	53.4437	6.238089	46.973571	6.238089	6.496798E+13	0.000325	3072.836886	19.096799	0.727608	0	0
0	0	0	53.329929	6.241757	46.812024	6.241757	6.210014E+13	0.000325	3074.032747	18.791964	0.723427	0	0
0	0	0	53.221958	6.245107	46.6588	6.245107	5.949336E+13	0.000325	3074.576111	18.905152	0.719471	0	0
0	0	0	53.108228	6.247745	46.498299	6.247745	5.686359E+13	0.000322	3106.280738	18.935132	0.715276	0	0
0	0	0	52.996254	6.250665	46.339896	6.250665	5.438598E+13	0.000321	3119.860423	19.199289	0.711584	0	0
0	0	0	52.887383	6.253714	46.18562	6.253714	5.20788E+13	0.000321	3118.641961	18.925282	0.707482	0	0
0	0	0	52.776675	6.256313	46.029238	6.256313	4.983137E+13	0.000319	3135.022708	18.931847	0.703248	0	0
0	0	0	52.665314	6.258728	45.872114	6.258728	4.766696E+13	0.000317	3156.673515	18.978155	0.699173	0	0
0	0	0	52.558853	6.26099	45.721924	6.26099	4.568442E+13	0.000315	3175.733886	18.832018	0.695785	0	0
0	0	0	52.446022	6.263357	45.562748	6.263357	4.367186E+13	0.000313	3192.969518	18.881711	0.691644	0	0
0	0	0	52.338621	6.265621	45.411191	6.265621	4.183744E+13	0.000312	3204.086239	18.799869	0.687542	0	0
0	0	0	52.227587	6.268	45.254431	6.268	4.002083E+13	0.000312	3207.91228	19.008918	0.683704	0	0
0	0	0	52.117205	6.2701	45.098857	6.2701	3.82921E+13	0.00031	3222.050549	18.846916	0.680079	0	0
0	0	0	52.007518	6.27183	44.944635	6.27183	3.664731E+13	0.000307	3254.230191	19.047269	0.676228	0	0
0	0	0	51.896647	6.273785	44.788491	6.273785	3.50557E+13	0.000306	3269.13305	18.823785	0.672272	0	0
0	0	0	51.784101	6.275805	44.62992	6.275805	3.350994E+13	0.000305	3276.294158	18.817116	0.668686	0	0
0	0	0	51.674578	6.277575	44.475805	6.277575	3.207044E+13	0.000304	3291.91873	18.562997	0.665153	0	0
0	0	0	51.560276	6.279038	44.315384	6.279038	3.063336E+13	0.0003	3332.566411	18.783273	0.661104	0	0
0	0	0	51.451732	6.281095	44.162251	6.281095	2.932774E+13	0.000302	3313.834822	19.051111	0.657624	0	0
0	0	0	51.341923	6.282665	44.007899	6.282665	2.806296E+13	0.0003	3329.894503	18.91765	0.654197	0	0
0	0	0	51.228438	6.284152	43.848519	6.284152	2.681262E+13	0.000298	3353.094618	18.896121	0.650624	0	0
0	0	0	51.114912	6.285463	43.68927	6.285463	2.561708E+13	0.000295	3387.719397	18.841442	0.646668	0	0
0	0	0	51.001713	6.286875	43.530334	6.286875	2.447762E+13	0.000293	3407.954512	18.837245	0.643373	0	0
0	0	0	50.880551	6.288306	43.360293	6.288306	2.331366E+13	0.000291	3431.85558	18.521984	0.639668	0	0
0	0	0	50.764493	6.289771	43.197283	6.289771	2.225027E+13	0.000291	3439.098476	18.762217	0.636122	0	0
0	0	0	50.648722	6.291083	43.034833	6.291083	2.123748E+13	0.000289	3455.912388	18.670523	0.632113	0	0
0	0	0	50.532051	6.29202	42.871573	6.29202	2.026314E+13	0.000285	3511.943301	18.971236	0.628778	0	0
0	0	0	50.415095	6.293332	42.707442	6.293332	1.933098E+13	0.000284	3519.559782	18.767943	0.625404	0	0
0	0	0	50.298956	6.294612	42.544468	6.294612	1.84475E+13	0.000284	3522.858326	18.731175	0.621686	0	0
0	0	0	50.180693	6.295505	42.379003	6.295505	1.758909E+13	0.00028	3573.819125	18.749167	0.618127	0	0
0	0	0	50.060226	6.296691	42.210094	6.296691	1.67555E+13	0.000279	3582.94765	18.584908	0.61503	0	0
0	0	0	49.941309	6.297486	42.043817	6.297486	1.597119E+13	0.000275	3640.468454	18.716996	0.611392	0	0
0	0	0	49.819739	6.298159	41.873991	6.298159	1.520711E+13	0.000269	3717.932276	18.675335	0.607647	0	0
0	0	0	49.698822	6.299014	41.704831	6.299014	1.448322E+13	0.000266	3763.087996	18.834883	0.604207	0	0
0	0	0	49.576965	6.300021	41.53416	6.300021	1.37884E+13	0.000265	3778.745069	18.637138	0.601071	0	0
0	0	0	49.451434	6.301056	41.358329	6.301056	1.310731E+13	0.000264	3787.059045	18.829713	0.597524	0	0
0	0	0	49.328761	6.301717	41.186938	6.301717	1.24741E+13	0.00026	3853.003052	18.608207	0.594005	0	0
0	0	0	49.201677	6.3025	41.009247	6.3025	1.185023E+13	0.000257	3898.429871	18.706962	0.590842	0	0
0	0	0	49.073369	6.303107	40.83007	6.303107	1.125187E+13	0.000251	3977.194166	18.393073	0.587389	0	0
0	0	0	48.943141	6.303735	40.648189	6.303735	1.067534E+13	0.000247	4051.957947	18.521142	0.583644	0	0
0	0	0	48.812872	6.304654	40.465855	6.304654	1.012808E+13	0.000247	4054.693889	18.65176	0.580415	0	0
0	0	0	48.68003	6.305339	40.280239	6.305339	9.598794E+12	0.000243	4108.128513	18.608113	0.5772	0	0
0	0	0	48.538899	6.305963	40.08317	6.305963	9.066654E+12	0.000239	4185.486533	18.684419	0.574104	0	0
0	0	0	48.399197	6.306595	39.888065	6.306595	8.568877E+12	0.000235	4252.942311	18.582454	0.570491	0	0
0	0	0	48.256637	6.306937	39.689367	6.306937	8.088999E+12	0.000227	4404.34483	18.693239	0.567527	0	0
0	0	0	48.112034	6.307628	39.487347	6.307628	7.629622E+12	0.000225	4453.794472	18.36897	0.564206	0	0
0	0	0	47.959673	6.308149	39.27476	6.308149	7.173722E+12	0.000219	4563.941081	18.410299	0.561269	0	0
0	0	0	47.805923	6.308694	39.060199	6.308694	6.741213E+12	0.000214	4664.275196	18.28561	0.557775	0	0
0	0	0	47.64372	6.309194	38.833934	6.309194	6.313098E+12	0.000209	4791.820706	18.71233	0.554997	0	0
0	0	0	47.478577	6.309539	38.603789	6.309539	5.905086E+12	0.000201	4983.785328	18.556631	0.552006	0	0
0	0	0	47.309473	6.310009	38.367949	6.310009	5.514547E+12	0.000195	5133.588644	18.559365	0.548778	0	0
0	0	0	47.130527	6.310403	38.118521	6.310403	5.12932E+12	0.000187	5335.956818	18.578431	0.545575	0	0
0	0	0	46.950519	6.310925	37.867424	6.310925	4.768909E+12	0.000183	5478.458857	18.281485	0.543035	0	0
0	0	0	46.761977	6.311388	37.604531	6.311388	4.41849E+12	0.000177	5663.424976	18.212292	0.539872	0	0
0	0	0	46.567309	6.311669	37.333374	6.311669	4.083644E+12	0.000168	5963.855895	18.198659	0.536829	0	0
0	0	0	46.363412	6.311985	37.049323	6.311985	3.760064E+12	0.000159	6277.338105	18.498966	0.533905	0	0
0	0	0	46.147958	6.312558	36.748805	6.312558	3.445927E+12	0.000155	6452.858092	18.314316	0.531073	0	0
0	0	0	45.913719	6.312815	36.422621	6.312815	3.134073E+12	0.000145	6900.079955	18.556055	0.528109	0	0
0	0	0	45.671436	6.31321	36.085029	6.31321	2.841141E+12	0.000137	7280.587292	18.323098	0.525026	0	0
0	0	0	45.408775	6.313385	35.719419	6.313385	2.554391E+12	0.000126	7934.309076	18.443644	0.52238	0	0
0	0	0	45.127329	6.314099	35.326838	6.314099	2.279149E+12	0.000123	8146.191466	18.07503	0.51968	0	0
0	0	0	44.827997	6.314076	34.910509	6.314076	2.018861E+12	0.000108	9223.25461	18.149816	0.516492	0	0
0	0	0	44.506204	6.314574	34.462112	6.314574	1.77208E+12	0.000102	9838.996634	18.301149	0.513673	0	0
0	0	0	44.162932	6.314816	33.984226	6.314816	1.541969E+12	9.146816E-5	10932.766629	18.161811	0.511133	0	0
0	0	0	43.7943	6.315166	33.470878	6.315166	1.328006E+12	8.28772E-5	12066.045154	18.200585	0.508354	0	0
0	0	0	43.404066	6.315398	32.92766	6.315398	1.133752E+12	7.327909E-5	13646.457778	18.195387	0.505086	0	0
0	0	0	42.997864	6.315753	32.362012	6.315753	9.616585E+11	6.575176E-5	15208.719379	18.30517	0.502518	0	0
0	0	0	42.57251	6.316121	31.769681	6.316121	8.093727E+11	5.886846E-5	16987.023713	17.981341	0.500018	0	0
0	0	0	42.136416	6.316438	31.162478	6.316438	6.782377E+11	5.219634E-5	19158.433207	18.098282	0.497279	0	0
0	0	0	41.682232	6.316788	30.530034	6.316788	5.641926E+11	4.639305E-5	21554.953196	17.845388	0.494381	0	0
0	0	0	41.208405	6.317107	29.870299	6.317107	4.655988E+11	4.083931E-5	24486.211915	18.205722	0.491986	0	0
0	0	0	40.727636	6.317242	29.201224	6.317242	3.831524E+11	3.458099E-5	28917.622458	17.993932	0.489353	0	0
0	0	0	40.234411	6.3175	28.514584	6.3175	3.137156E+11	2.997837E-5	33357.379046	18.047193	0.48664	0	0
0	0	0	39.721055	6.317701	27.800029	6.317701	2.547735E+11	2.551315E-5	39195.47278	18.126117	0.483875	0	0
0	0	0	39.187075	6.318088	27.056412	6.318088	2.051823E+11	2.263996E-5	44169.686256	17.963075	0.481546	0	0
0	0	0	38.630759	6.318098	26.282431	6.318098	1.637537E+11	1.811386E-5	55206.345509	17.848958	0.478846	0	0
0	0	0	38.059046	6.318329	25.48659	6.318329	1.298764E+11	1.529801E-5	65367.991912	17.748621	0.476068	0	0
0	0	0	37.464997	6.318552	24.659672	6.318552	1.020788E+11	1.282653E-5	77963.41588	17.892087	0.473554	0	0
0	0	0	36.839707	6.318921	23.788973	6.318921	7.92208E+10	1.118889E-5	89374.405125	17.806944	0.471159	0	0
0	0	0	36.181543	6.31894	22.873245	6.31894	6.066721E+10	8.624387E-6	115950.271402	17.803535	0.468631	0	0
0	0	0	35.49655	6.319091	21.919905	6.319091	4.59562E+10	6.885012E-6	145243.036934	18.162979	0.4658	0	0
0	0	0	34.780195	6.319164	20.923087	6.319164	3.437253E+10	5.288208E-6	189099.970666	18.137377	0.463511	0	0
0	0	0	34.032885	6.319349	19.882948	6.319349	2.538798E+10	4.188845E-6	238729.280548	17.705493	0.461116	0	0
0	0	0	33.264137	6.319449	18.813156	6.319449	1.858958E+10	3.192602E-6	313224.153368	17.715491	0.458429	0	0
0	0	0	32.483831	6.319457	17.727489	6.319457	1.354802E+10	2.335157E-6	428236.805504	17.81799	0.455836	0	0
0	0	0	31.664486	6.319745	16.58684	6.319745	9.718688E+9	1.89913E-6	526557.020944	17.825573	0.453706	0	0
0	0	0	30.830521	6.319864	15.426229	6.319864	6.930511E+9	1.43413E-6	697286.670231	17.527778	0.451377	0	0
0	0	0	29.977894	6.3199	14.23985	6.3199	4.904975E+9	1.03315E-6	967913.89785	17.576656	0.448691	0	0
0	0	0	29.105747	6.320089	13.025918	6.320089	3.444064E+9	8.01354E-7	1247887.891051	18.026236	0.446494	0	0
0	0	0	28.225718	6.32018	11.801255	6.32018	2.410559E+9	5.906931E-7	1692926.546007	17.646167	0.444324	0	0
0	0	0	27.332336	6.320096	10.558464	6.320096	1.678081E+9	3.921275E-7	2550191.134859	17.511462	0.441863	0	0
0	0	0	26.430501	6.320299	9.303147	6.320299	1.164179E+9	3.065788E-7	3261804.469614	17.452367	0.439283	0	0
0	0	0	25.52401	6.320327	8.041812	6.320327	8.061333E+8	2.160907E-7	4627686.290513	17.801435	0.437364	0	0
0	0	0	24.622053	6.320675	6.785876	6.320675	5.592321E+8	1.928403E-7	5185637.053292	17.626646	0.435088	0	0
0	0	0	23.729161	6.320669	5.543539	6.320669	3.893799E+8	1.335136E-7	7489875.250288	17.692379	0.432495	0	0
0	0	0	22.841618	6.320669	4.308625	6.320669	2.717046E+8	9.316797E-8	1.07333E+7	17.423026	0.430153	0	0
0	0	0	21.962897	6.320731	3.085797	6.320731	1.902714E+8	6.87707E-8	1.454108E+7	17.512138	0.428181	0	0
0	0	0	21.104593	6.320794	1.891372	6.320794	1.343523E+8	5.133358E-8	1.948043E+7	17.694001	0.425839	0	0
0	0	0	20.258541	6.320836	0.714051	6.320836	9.533976E+7	3.786981E-8	2.640626E+7	17.726585	0.423338	0	0
0	0	0	19.4316	6.320934	-0.436858	6.320934	6.818173E+7	2.983811E-8	3.351418E+7	17.23951	0.421327	0	0
0	0	0	18.627323	6.32108	-1.556398	6.32108	4.920992E+7	2.541428E-8	3.934795E+7	17.118706	0.419197	0	0
0	0	0	17.840443	6.321038	-2.651136	6.321038	3.576848E+7	1.756859E-8	5.691978E+7	17.749939	0.416762	0	0
0	0	0	17.079126	6.321233	-3.71108	6.321233	2.626935E+7	1.67219E-8	5.980181E+7	17.376815	0.414407	0	0
0	0	0	16.344558	6.321268	-4.73329	6.321268	1.95033E+7	1.310777E-8	7.629062E+7	17.125277	0.412342	0	0
0	0	0	15.638289	6.320982	-5.715043	6.320982	1.464704E+7	6.753634E-9	1.480684E+8	17.025721	0.410318	0	0
0	0	0	14.953419	6.321192	-6.668691	6.321192	1.109582E+7	6.641899E-9	1.505594E+8	17.416711	0.407738	0	0
0	0	0	14.295541	6.321198	-7.584097	6.321198	8498093.75	5.137996E-9	1.946284E+8	17.322505	0.405779	0	0
0	0	0	13.66482	6.321303	-8.46206	6.321303	6580599.5	4.684107E-9	2.134878E+8	16.968086	0.403768	0	0
0	0	0	13.050311	6.321422	-9.317523	6.321422	5129369.5	4.569294E-9	2.188522E+8	17.309569	0.401479	0	0
0	0	0	12.464755	6.321415	-10.132259	6.321415	4045391.5	3.551146E-9	2.815992E+8	17.188779	0.399216	0	0
0	0	0	11.904927	6.321707	-10.912279	6.321707	3223940.75	7.298551E-9	1.370135E+8	17.15231	0.39743	0	0
0	0	0	11.369477	6.321505	-11.656594	6.321505	2594814	2.810372E-9	3.558248E+8	17.143979	0.39526	0	0
0	0	0	10.851996	6.321408	-12.376278	6.321408	2103726.25	1.820173E-9	5.493984E+8	17.338417	0.392944	0	0
0	0	0	10.3582	6.321498	-13.063697	6.321498	1722037.75	1.832141E-9	5.458095E+8	16.918487	0.390959	0	0
0	0	0	9.887722	6.32138	-13.717895	6.32138	1422990	1.164278E-9	8.589011E+8	16.828032	0.389147	0	0
0	0	0	9.437049	6.321554	-14.34563	6.321554	1185354.75	1.46874E-9	6.808558E+8	17.384464	0.386897	0	0
0	0	0	9.006958	6.321624	-14.94434	6.321624	995677.75	1.553332E-9	6.437774E+8	16.975257	0.384899	0	0
0	0	0	8.596918	6.321233	-15.513399	6.321233	843179	5.367371E-10	1.86311E+9	16.961058	0.382914	0	0
0	0	0	8.197536	6.321659	-16.07074	6.321659	717129.25	1.28526E-9	7.780527E+8	16.919395	0.380903	0	0
0	0	0	7.820859	6.321707	-16.595054	6.321707	615563.75	1.393555E-9	7.17589E+8	16.737345	0.378693	0	0
0	0	0	7.461416	6.321631	-17.094904	6.321631	532087.5	8.521737E-10	1.17347E+9	17.115134	0.376801	0	0
0	0	0	7.114468	6.321742	-17.578098	6.321742	462267.25	1.288761E-9	7.759393E+8	16.859004	0.374988	0	0
0	0	0	6.784631	6.321693	-18.036859	6.321693	404404.5	8.514965E-10	1.174403E+9	16.518537	0.372884	0	0
0	0	0	6.466881	6.322063	-18.480449	6.322063	355522.75	-8.774265E-10	-1.139697E+9	16.980184	0.370728	0	0
0	0	0	6.160444	6.321512	-18.904665	6.321512	313986	3.462985E-10	2.887682E+9	16.93355	0.369127	0	0
0	0	0	5.863643	6.321777	-19.3187	6.321777	278388	1.009893E-9	9.902039E+8	16.737428	0.367155	0	0
0	0	0	5.581912	6.321812	-19.710856	6.321812	248338.25	1.289195E-9	7.75678E+8	16.805139	0.364985	0	0
0	0	0	5.309287	6.321819	-20.09023	6.321819	222351.75	1.263187E-9	7.916485E+8	16.644182	0.363212	0	0
0	0	0	5.047075	6.32177	-20.454889	6.32177	199926.75	6.840553E-10	1.46187E+9	16.952576	0.361306	0	0
0	0	0	4.793357	6.321791	-20.80801	6.321791	180383.5	7.440068E-10	1.344074E+9	16.54814	0.359255	0	0
0	0	0	4.549195	6.321875	-21.148091	6.321875	163382.5	3.784119E-9	2.642623E+8	16.756757	0.357337	0	0
0	0	0	4.319285	6.321596	-21.466864	6.321596	148841.25	2.104005E-10	4.752841E+9	16.624707	0.355802	0	0
0	0	0	4.087333	6.321854	-21.790667	6.321854	135482	1.456889E-9	6.863941E+8	16.52575	0.353936	0	0
0	0	0	3.859874	6.321951	-22.107569	6.321951	123546.75	-8.85697E-10	-1.129054E+9	16.684388	0.351713	0	0
0	0	0	3.638743	6.321735	-22.414374	6.321735	112952.25	3.009674E-10	3.322619E+9	16.382692	0.350178	0	0
0	0	0	3.427741	6.321763	-22.708089	6.321763	103691.25	3.357084E-10	2.978776E+9	16.331727	0.348485	0	0
0	0	0	3.219556	6.321763	-22.997768	6.321763	95298.25	3.085354E-10	3.241119E+9	16.397706	0.346407	0	0
0	0	0	3.012882	6.321826	-23.285607	6.321826	87638.25	5.497376E-10	1.81905E+9	16.6721	0.344661	0	0
0	0	0	2.814702	6.321854	-23.561482	6.321854	80872.25	8.696499E-10	1.149888E+9	16.178948	0.343086	0	0
0	0	0	2.618237	6.321875	-23.834942	6.321875	74680.25	1.729678E-9	5.781422E+8	16.576075	0.341181	0	0
0	0	0	2.419118	6.321903	-24.112126	6.321903	68888.25	-2.963128E-9	-3.374812E+8	16.463754	0.33913	0	0
0	0	0	2.221428	6.321972	-24.387497	6.321972	63582.5	-3.358658E-10	-2.977379E+9	16.371362	0.337714	0	0
0	0	0	2.024596	6.321923	-24.661177	6.321923	58705.5	-8.034507E-10	-1.244631E+9	16.045866	0.335927	0	0
0	0	0	1.823639	6.322098	-24.941538	6.322098	54112.25	-1.108361E-10	-9.022329E+9	16.292703	0.333982	0	0
0	0	0	1.635995	6.32184	-25.201545	6.32184	50148.25	3.973518E-10	2.516661E+9	16.167788	0.332421	0	0
0	0	0	1.454517	6.32193	-25.45445	6.32193	46590.75	-5.19564E-10	-1.924691E+9	16.364645	0.33086	0	0
0	0	0	1.291742	6.321833	-25.680529	6.321833	43615.25	3.054028E-10	3.274365E+9	16.302686	0.328862	0	0
0	0	0	1.14567	6.322126	-25.885034	6.322126	41107.5	-7.411526E-11	-1.34925E+10	16.365474	0.327155	0	0
0	0	0	1.014788	6.321944	-26.066376	6.321944	38983	-3.172317E-10	-3.15227E+9	16.264718	0.325686	0	0
0	0	0	0.897261	6.322049	-26.23036	6.322049	37169	-9.992311E-11	-1.00077E+10	15.875127	0.324151	0	0
0	0	0	0.781367	6.321805	-26.390575	6.321805	35463	1.694876E-10	5.900136E+9	16.066377	0.322087	0	0
0	0	0	0.668862	6.322	-26.547961	6.322	33881.75	-1.324885E-10	-7.547825E+9	16.243943	0.320909	0	0
0	0	0	0.559093	6.321993	-26.70067	6.321993	32407	-1.355219E-10	-7.378883E+9	15.974615	0.319017	0	0
0	0	0	0.452101	6.322091	-26.849967	6.322091	31031.25	-6.57982E-11	-1.519798E+10	15.968476	0.317191	0	0
0	0	0	0.343966	6.322126	-27.000586	6.322126	29700	-5.354797E-11	-1.867484E+10	15.84478	0.315802	0	0
0	0	0	0.243589	6.321847	-27.139049	6.321847	28515.75	2.6018E-10	3.843493E+9	15.879786	0.314333	0	0
0	0	0	0.14113	6.32193	-27.281979	6.32193	27355.5	-3.050591E-10	-3.278053E+9	15.714272	0.312401	0	0
0	0	0	0.04202	6.322174	-27.420948	6.322174	26278	-3.916914E-11	-2.55303E+10	15.84089	0.3108	0	0
0	0	0	-0.046187	6.322077	-27.543261	6.322077	25354.75	-5.78347E-11	-1.729066E+10	15.799388	0.30945	0	0
0	0	0	-0.127697	6.322154	-27.657014	6.322154	24530.5	-3.949734E-11	-2.531816E+10	15.57421	0.307823	0	0
0	0	0	-0.202305	6.322167	-27.760891	6.322167	23799.75	-3.637552E-11	-2.749101E+10	15.72489	0.306036	0	0
0	0	0	-0.25817	6.321923	-27.837561	6.321923	23266.75	-3.184316E-10	-3.140392E+9	15.890717	0.304806	0	0
0	0	0	-0.301824	6.322244	-27.899704	6.322244	22858.5	-2.73118E-11	-3.661422E+10	15.64618	0.303271	0	0
0	0	0	-0.327184	6.322098	-27.934352	6.322098	22624.75	-4.634144E-11	-2.157896E+10	15.751086	0.301312	0	0
0	0	0	-0.355606	6.322007	-27.973505	6.322007	22365.5	-8.212357E-11	-1.217677E+10	15.711975	0.300135	0	0
0	0	0	-0.37047	6.322167	-27.994889	6.322167	22231.25	-3.397823E-11	-2.943061E+10	15.523529	0.298772	0	0
0	0	0	-0.375657	6.322265	-28.002532	6.322265	22184.5	-2.501736E-11	-3.997225E+10	15.488163	0.296933	0	0
0	0	0	-0.379659	6.322209	-28.007857	6.322209	22148.5	-2.937795E-11	-3.403913E+10	15.669387	0.295649	0	0
0	0	0	-0.383456	6.322049	-28.012441	6.322049	22114.5	-5.945141E-11	-1.682046E+10	15.35783	0.2943	0	0
0	0	0	-0.38754	6.322272	-28.019098	6.322272	22077.75	-2.443931E-11	-4.091768E+10	15.383953	0.292698	0	0
0	0	0	-0.389296	6.322042	-28.020536	6.322042	22062	-6.208178E-11	-1.610779E+10	15.538981	0.291005	0	0
0	0	0	-0.391093	6.322119	-28.023371	6.322119	22046	-4.09749E-11	-2.440519E+10	15.209494	0.289906	0	0
0	0	0	-0.392359	6.3223	-28.025925	6.3223	22034.75	-2.272105E-11	-4.401206E+10	15.221536	0.288332	0	0
0	0	0	-0.393502	6.32207	-28.026511	6.32207	22024.5	-5.221622E-11	-1.915114E+10	15.320138	0.286757	0	0
0	0	0	-0.394605	6.322098	-28.028167	6.322098	22014.75	-4.5092E-11	-2.217688E+10	15.351813	0.285566	0	0
0	0	0	-0.395503	6.322237	-28.030026	6.322237	22006.5	-2.682607E-11	-3.727717E+10	15.228113	0.284084	0	0
0	0	0	-0.394278	6.32223	-28.028291	6.32223	22017.5	-2.739402E-11	-3.650432E+10	15.310854	0.282417	0	0
0	0	0	-0.393788	6.322133	-28.027183	6.322133	22022	-3.855062E-11	-2.593992E+10	15.232926	0.2812	0	0
0	0	0	-0.392849	6.322195	-28.02615	6.322195	22030.25	-3.05677E-11	-3.271427E+10	15.280463	0.279916	0	0
0	0	0	-0.392563	6.322042	-28.025082	6.322042	22033	-6.200018E-11	-1.612899E+10	15.170655	0.278328	0	0
0	0	0	-0.393012	6.322167	-28.026255	6.322167	22028.75	-3.366873E-11	-2.970115E+10	15.03107	0.276899	0	0
0	0	0	-0.392236	6.32207	-28.024749	6.32207	22035.75	-5.224289E-11	-1.914136E+10	14.970656	0.275722	0	0
0	0	0	-0.392073	6.321979	-28.024126	6.321979	22037.25	-1.070209E-10	-9.343965E+9	14.973546	0.2742	0	0
0	0	0	-0.391705	6.321986	-28.023645	6.321986	22040.5	-9.904891E-11	-1.009602E+10	15.154466	0.272652	0	0
0	0	0	-0.391256	6.321979	-28.022989	6.321979	22044.5	-1.070562E-10	-9.340892E+9	15.012904	0.271726	0	0
0	0	0	-0.392522	6.322216	-28.025787	6.322216	22033.25	-2.859523E-11	-3.497086E+10	14.666202	0.270204	0	0
0	0	0	-0.390562	6.322216	-28.023059	6.322216	22050.75	-2.861795E-11	-3.494311E+10	14.680347	0.268444	0	0
0	0	0	-0.390154	6.322237	-28.022582	6.322237	22054.5	-2.688458E-11	-3.719604E+10	14.902051	0.267637	0	0
0	0	0	-0.391011	6.322028	-28.022862	6.322028	22046.75	-6.843463E-11	-1.461249E+10	14.673384	0.266248	0	0
0	0	0	-0.392318	6.32207	-28.024863	6.32207	22035	-5.224111E-11	-1.914201E+10	14.852194	0.264607	0	0
0	0	0	-0.392971	6.322147	-28.026107	6.322147	22029.25	-3.644445E-11	-2.743902E+10	14.770918	0.263535	0	0
0	0	0	-0.393175	6.322042	-28.025934	6.322042	22027.25	-6.1984E-11	-1.61332E+10	14.444559	0.262371	0	0
0	0	0	-0.393094	6.322112	-28.026125	6.322112	22028.25	-4.224579E-11	-2.3671E+10	14.751646	0.260531	0	0
0	0	0	-0.39293	6.322084	-28.025776	6.322084	22029.75	-4.841635E-11	-2.065418E+10	14.625505	0.259645	0	0
0	0	0	-0.393706	6.322021	-28.026581	6.322021	22022.75	-7.207535E-11	-1.387437E+10	14.557582	0.258467	0	0
0	0	0	-0.394278	6.321889	-28.026798	6.321889	22017.5	2.209784E-9	4.525329E+8	14.481557	0.256826	0	0
0	0	0	-0.393298	6.321833	-28.025191	6.321833	22026.25	1.542322E-10	6.483729E+9	14.546342	0.255728	0	0
0	0	0	-0.394972	6.322014	-28.028312	6.322014	22011.25	-7.617782E-11	-1.312718E+10	14.429997	0.254603	0	0
0	0	0	-0.396116	6.322195	-28.030696	6.322195	22001.25	-3.052746E-11	-3.275739E+10	14.374005	0.253188	0	0
0	0	0	-0.395993	6.322209	-28.030586	6.322209	22002.25	-2.918397E-11	-3.426539E+10	14.611255	0.251944	0	0
0	0	0	-0.397953	6.322174	-28.033161	6.322174	21984.75	-3.276976E-11	-3.051594E+10	14.39494	0.250885	0	0
0	0	0	-0.398362	6.322098	-28.033394	6.322098	21981.25	-4.502338E-11	-2.221068E+10	14.142488	0.249641	0	0
0	0	0	-0.399138	6.32216	-28.034748	6.32216	21974.25	-3.446005E-11	-2.901911E+10	14.195834	0.24808	0	0
0	0	0	-0.399709	6.32223	-28.035849	6.32223	21969.25	-2.733398E-11	-3.65845E+10	14.156135	0.247313	0	0
0	0	0	-0.400363	6.322056	-28.035996	6.322056	21963.25	-5.652152E-11	-1.769238E+10	14.142811	0.245804	0	0
0	0	0	-0.402772	6.322147	-28.039745	6.322147	21942	-3.630011E-11	-2.754813E+10	14.227834	0.244481	0	0
0	0	0	-0.402159	6.322167	-28.038984	6.322167	21947.25	-3.354416E-11	-2.981145E+10	14.243354	0.2437	0	0
0	0	0	-0.402935	6.322154	-28.040002	6.322154	21940.5	-3.53271E-11	-2.830688E+10	14.172723	0.242324	0	0
0	0	0	-0.401384	6.322014	-28.037234	6.322014	21954.25	-7.598055E-11	-1.316126E+10	14.002653	0.240974	0	0
0	0	0	-0.402527	6.322126	-28.039312	6.322126	21944	-3.95642E-11	-2.527538E+10	13.931285	0.240154	0	0
0	0	0	-0.404201	6.322202	-28.041977	6.322202	21929.25	-2.974225E-11	-3.36222E+10	13.845351	0.238765	0	0
0	0	0	-0.405631	6.322167	-28.043814	6.322167	21916.5	-3.349716E-11	-2.985327E+10	14.083761	0.237521	0	0
0	0	0	-0.405181	6.322265	-28.043615	6.322265	21920.5	-2.471965E-11	-4.045365E+10	14.055543	0.236515	0	0
0	0	0	-0.405386	6.321923	-28.042406	6.321923	21918.5	-2.999792E-10	-3.333564E+9	13.645135	0.235629	0	0
0	0	0	-0.403221	6.321819	-28.038937	6.321819	21937.75	1.24629E-10	8.023812E+9	13.842997	0.233948	0	0
0	0	0	-0.403344	6.322112	-28.040388	6.322112	21936.75	-4.207031E-11	-2.376973E+10	13.746013	0.233247	0	0
0	0	0	-0.403303	6.322035	-28.039996	6.322035	21937.25	-6.475676E-11	-1.54424E+10	13.751714	0.232162	0	0
0	0	0	-0.403303	6.322265	-28.041001	6.322265	21937.25	-2.473854E-11	-4.042276E+10	13.779654	0.23072	0	0
0	0	0	-0.402241	6.322126	-28.038915	6.322126	21946.75	-3.956916E-11	-2.527221E+10	13.629943	0.229939	0	0
0	0	0	-0.403221	6.3223	-28.04104	6.3223	21937.75	-2.262103E-11	-4.420666E+10	13.490937	0.228814	0	0
0	0	0	-0.40265	6.322251	-28.040031	6.322251	21943	-2.570786E-11	-3.889861E+10	13.397736	0.22724	0	0
0	0	0	-0.402486	6.322084	-28.039073	6.322084	21944.5	-4.822899E-11	-2.073442E+10	13.710511	0.226578	0	0
0	0	0	-0.400322	6.322105	-28.036152	6.322105	21963.75	-4.350768E-11	-2.298445E+10	13.533141	0.225493	0	0
0	0	0	-0.401098	6.322063	-28.037049	6.322063	21956.75	-5.418902E-11	-1.845392E+10	13.334806	0.224249	0	0
0	0	0	-0.400853	6.322216	-28.037379	6.322216	21959	-2.849887E-11	-3.508911E+10	13.304982	0.22323	0	0
0	0	0	-0.399097	6.322021	-28.034082	6.322021	21974.5	-7.191744E-11	-1.390483E+10	13.266749	0.222278	0	0
0	0	0	-0.398158	6.322404	-28.034451	6.322404	21983	-1.803532E-11	-5.544674E+10	13.248664	0.220822	0	0
0	0	0	-0.397382	6.322126	-28.032153	6.322126	21990	-3.964714E-11	-2.52225E+10	13.379312	0.219989	0	0
0	0	0	-0.396687	6.321854	-28.029998	6.321854	21996	2.365314E-10	4.227769E+9	13.190639	0.219128	0	0
0	0	0	-0.397014	6.321993	-28.031062	6.321993	21993.25	-9.197292E-11	-1.087277E+10	13.090318	0.217964	0	0
0	0	0	-0.396728	6.322021	-28.030786	6.322021	21995.75	-7.198699E-11	-1.38914E+10	13.316353	0.21676	0	0
0	0	0	-0.396116	6.32214	-28.030452	6.32214	22001.25	-3.742632E-11	-2.671916E+10	13.030744	0.21594	0	0
0	0	0	-0.395748	6.322077	-28.029666	6.322077	22004.5	-5.019271E-11	-1.992321E+10	13.057798	0.214616	0	0
0	0	0	-0.393992	6.321749	-28.025791	6.321749	22020	6.436995E-11	1.55352E+10	13.267077	0.213783	0	0
0	0	0	-0.394768	6.321965	-28.027815	6.321965	22013.25	-1.274629E-10	-7.845418E+9	13.012631	0.212856	0	0
0	0	0	-0.396034	6.321868	-28.02915	6.321868	22002	3.68038E-10	2.71711E+9	12.763905	0.211573	0	0
0	0	0	-0.396116	6.322021	-28.029934	6.322021	22001.25	-7.200499E-11	-1.388793E+10	12.9593	0.210753	0	0
0	0	0	-0.397096	6.321923	-28.030871	6.321923	21992.5	-3.00992E-10	-3.322347E+9	12.885914	0.209919	0	0
0	0	0	-0.395095	6.322307	-28.029763	6.322307	22010.25	-2.23137E-11	-4.481552E+10	12.799022	0.208583	0	0
0	0	0	-0.395707	6.32216	-28.029975	6.32216	22004.75	-3.450788E-11	-2.897889E+10	12.923254	0.207696	0	0
0	0	0	-0.395054	6.322028	-28.028487	6.322028	22010.75	-6.832288E-11	-1.463639E+10	12.871953	0.206809	0	0
0	0	0	-0.39779	6.322105	-28.032629	6.322105	21986.25	-4.355225E-11	-2.296092E+10	12.64183	0.205539	0	0
0	0	0	-0.398403	6.321951	-28.032811	6.321951	21980.75	-1.575783E-10	-6.346053E+9	12.728041	0.204838	0	0
0	0	0	-0.397218	6.321972	-28.031255	6.321972	21991.5	-1.161671E-10	-8.608291E+9	12.455303	0.203951	0	0
0	0	0	-0.398076	6.322307	-28.033911	6.322307	21983.75	-2.228683E-11	-4.486954E+10	12.471265	0.202681	0	0
0	0	0	-0.40122	6.32207	-28.03725	6.32207	21955.75	-5.205322E-11	-1.921111E+10	12.456241	0.202046	0	0
0	0	0	-0.400649	6.322112	-28.036637	6.322112	21960.75	-4.211634E-11	-2.374376E+10	12.533823	0.201159	0	0
0	0	0	-0.401588	6.322147	-28.038097	6.322147	21952.5	-3.631748E-11	-2.753495E+10	12.38467	0.199836	0	0
0	0	0	-0.401669	6.322105	-28.038028	6.322105	21951.75	-4.348391E-11	-2.299701E+10	12.64716	0.199029	0	0
0	0	0	-0.404201	6.321972	-28.040972	6.321972	21929.25	-1.158383E-10	-8.632727E+9	12.382746	0.198314	0	0
0	0	0	-0.404324	6.322237	-28.0423	6.322237	21928	-2.673038E-11	-3.741062E+10	12.290664	0.196872	0	0
0	0	0	-0.406897	6.322133	-28.045423	6.322133	21905.25	-3.834624E-11	-2.607817E+10	12.454277	0.196449	0	0
0	0	0	-0.405712	6.322119	-28.043714	6.322119	21915.75	-4.073281E-11	-2.455023E+10	12.105283	0.195337	0	0
0	0	0	-0.406856	6.322237	-28.045823	6.322237	21905.5	-2.670295E-11	-3.744904E+10	12.154536	0.194213	0	0
0	0	0	-0.407917	6.322091	-28.046661	6.322091	21896.25	-4.642848E-11	-2.15385E+10	12.150248	0.193551	0	0
0	0	0	-0.406774	6.322174	-28.045435	6.322174	21906.25	-3.265275E-11	-3.062529E+10	11.919287	0.192611	0	0
0	0	0	-0.40608	6.322084	-28.044073	6.322084	21912.5	-4.815866E-11	-2.07647E+10	12.025344	0.191328	0	0
0	0	0	-0.407182	6.322391	-28.046948	6.322391	21902.75	-1.847283E-11	-5.413355E+10	12.009718	0.190891	0	0
0	0	0	-0.406611	6.322202	-28.04533	6.322202	21907.75	-2.971309E-11	-3.36552E+10	11.789508	0.189833	0	0
0	0	0	-0.407182	6.322223	-28.046217	6.322223	21902.75	-2.782617E-11	-3.59374E+10	11.983479	0.188787	0	0
0	0	0	-0.408081	6.322126	-28.04704	6.322126	21894.75	-3.94754E-11	-2.533223E+10	11.879077	0.188205	0	0
0	0	0	-0.406937	6.321896	-28.044444	6.321896	21904.75	-3.297702E-9	-3.032415E+8	12.001549	0.187319	0	0
0	0	0	-0.408734	6.322077	-28.047736	6.322077	21889	-4.992925E-11	-2.002834E+10	11.861956	0.186128	0	0
0	0	0	-0.406978	6.322202	-28.045841	6.322202	21904.5	-2.970869E-11	-3.366019E+10	11.920437	0.185572	0	0
0	0	0	-0.406447	6.322216	-28.045163	6.322216	21909.25	-2.84343E-11	-3.516879E+10	11.759371	0.1845	0	0
0	0	0	-0.404936	6.322021	-28.042208	6.322021	21922.75	-7.174808E-11	-1.393766E+10	11.895779	0.183574	0	0
0	0	0	-0.404977	6.32214	-28.042783	6.32214	21922.25	-3.729194E-11	-2.681545E+10	11.699071	0.182899	0	0
0	0	0	-0.404651	6.322133	-28.042298	6.322133	21925.25	-3.838126E-11	-2.605439E+10	11.556855	0.181722	0	0
0	0	0	-0.404242	6.322119	-28.041668	6.322119	21928.75	-4.075697E-11	-2.453568E+10	11.59759	0.181007	0	0
0	0	0	-0.403956	6.322321	-28.042154	6.322321	21931.5	-2.150963E-11	-4.64908E+10	11.524668	0.180359	0	0
0	0	0	-0.402364	6.322119	-28.039055	6.322119	21945.5	-4.078811E-11	-2.451695E+10	11.332232	0.179075	0	0
0	0	0	-0.401914	6.322244	-28.038978	6.322244	21949.5	-2.62257E-11	-3.813053E+10	11.509702	0.178652	0	0
0	0	0	-0.39926	6.322056	-28.034462	6.322056	21973.25	-5.654725E-11	-1.768433E+10	11.288688	0.177924	0	0
0	0	0	-0.399138	6.322042	-28.03423	6.322042	21974.25	-6.183486E-11	-1.617211E+10	11.344478	0.176654	0	0
0	0	0	-0.400363	6.321944	-28.035508	6.321944	21963.25	-1.787302E-10	-5.595025E+9	11.348305	0.176058	0	0
0	0	0	-0.398688	6.322042	-28.033605	6.322042	21978.25	-6.184611E-11	-1.616917E+10	11.258334	0.17533	0	0
0	0	0	-0.399995	6.322077	-28.035576	6.322077	21966.5	-5.010603E-11	-1.995768E+10	11.232287	0.174325	0	0
0	0	0	-0.39828	6.32216	-28.033555	6.32216	21981.75	-3.447181E-11	-2.900921E+10	11.214124	0.17369	0	0
0	0	0	-0.397504	6.322154	-28.032445	6.322154	21988.75	-3.540479E-11	-2.824477E+10	10.977315	0.172896	0	0
0	0	0	-0.396075	6.322007	-28.029816	6.322007	22001.5	-8.0787E-11	-1.237823E+10	11.12199	0.171956	0	0
0	0	0	-0.396728	6.32223	-28.0317	6.32223	21995.75	-2.736695E-11	-3.654042E+10	11.007635	0.171414	0	0
0	0	0	-0.397463	6.322021	-28.031809	6.322021	21989	-7.19649E-11	-1.389566E+10	10.797087	0.170435	0	0
0	0	0	-0.39877	6.322133	-28.034115	6.322133	21977.5	-3.847272E-11	-2.599244E+10	10.958517	0.169575	0	0
0	0	0	-0.398648	6.322014	-28.033427	6.322014	21978.5	-7.606447E-11	-1.314674E+10	10.858761	0.169125	0	0
0	0	0	-0.397953	6.322174	-28.033161	6.322174	21984.75	-3.276976E-11	-3.051594E+10	10.776703	0.167841	0	0
0	0	0	-0.397872	6.321896	-28.031829	6.321896	21985.5	-3.309858E-9	-3.021277E+8	10.81546	0.167272	0	0
0	0	0	-0.396769	6.322028	-28.030874	6.322028	21995.25	-6.827477E-11	-1.46467E+10	10.678239	0.166597	0	0
0	0	0	-0.397831	6.321958	-28.032046	6.321958	21985.75	-1.408466E-10	-7.099921E+9	10.636399	0.165645	0	0
0	0	0	-0.398525	6.32191	-28.032799	6.32191	21979.75	-5.514988E-10	-1.813241E+9	10.764524	0.165062	0	0
0	0	0	-0.399995	6.322035	-28.035393	6.322035	21966.5	-6.48431E-11	-1.542184E+10	10.501619	0.164454	0	0
0	0	0	-0.400894	6.322084	-28.036857	6.322084	21958.75	-4.826031E-11	-2.072096E+10	10.669937	0.163223	0	0
0	0	0	-0.402609	6.321979	-28.038786	6.321979	21943.5	-1.065657E-10	-9.383886E+9	10.577026	0.162853	0	0
0	0	0	-0.403303	6.322286	-28.041093	6.322286	21937.25	-2.342266E-11	-4.269371E+10	10.437738	0.162085	0	0
0	0	0	-0.40461	6.322	-28.041662	6.322	21925.5	-8.573573E-11	-1.166375E+10	10.591403	0.16104	0	0
0	0	0	-0.403017	6.322154	-28.040116	6.322154	21939.75	-3.532589E-11	-2.830785E+10	10.495687	0.160683	0	0
0	0	0	-0.406121	6.322181	-28.044557	6.322181	21912	-3.18724E-11	-3.137511E+10	10.261336	0.15977	0	0
0	0	0	-0.406856	6.322147	-28.045427	6.322147	21905.5	-3.623972E-11	-2.759403E+10	10.459994	0.158804	0	0
0	0	0	-0.40755	6.322119	-28.046271	6.322119	21899.5	-4.070261E-11	-2.456845E+10	10.333529	0.158473	0	0
0	0	0	-0.407223	6.32223	-28.046304	6.32223	21902.25	-2.725062E-11	-3.669641E+10	10.221288	0.157348	0	0
0	0	0	-0.408938	6.322112	-28.048173	6.322112	21887	-4.19749E-11	-2.382376E+10	10.37021	0.156912	0	0
0	0	0	-0.408367	6.322237	-28.047926	6.322237	21892.25	-2.66868E-11	-3.747171E+10	10.193684	0.156237	0	0
0	0	0	-0.408122	6.32223	-28.047554	6.32223	21894.25	-2.724067E-11	-3.670982E+10	10.220166	0.155244	0	0
0	0	0	-0.408571	6.321951	-28.04696	6.321951	21890.25	-1.569295E-10	-6.37229E+9	10.282721	0.154794	0	0
0	0	0	-0.408653	6.322223	-28.048262	6.322223	21889.5	-2.780933E-11	-3.595915E+10	10.036947	0.154133	0	0
0	0	0	-0.409347	6.322049	-28.048467	6.322049	21883.5	-5.88304E-11	-1.699801E+10	10.116566	0.152968	0	0
0	0	0	-0.40951	6.322404	-28.050248	6.322404	21882	-1.795246E-11	-5.570267E+10	10.127506	0.152796	0	0
0	0	0	-0.41	6.322119	-28.04968	6.322119	21877.75	-4.066218E-11	-2.459287E+10	9.980337	0.15187	0	0
0	0	0	-0.410368	6.322063	-28.049948	6.322063	21874.5	-5.398603E-11	-1.852331E+10	10.120842	0.151156	0	0
0	0	0	-0.408407	6.32223	-28.047952	6.32223	21891.75	-2.723756E-11	-3.671401E+10	10.010465	0.150666	0	0
0	0	0	-0.407468	6.322223	-28.046615	6.322223	21900	-2.782267E-11	-3.594191E+10	9.921669	0.149647	0	0
0	0	0	-0.408122	6.322021	-28.04664	6.322021	21894.25	-7.16548E-11	-1.39558E+10	10.018738	0.149105	0	0
0	0	0	-0.407427	6.322077	-28.045918	6.322077	21900.5	-4.995548E-11	-2.001782E+10	9.779603	0.148668	0	0
0	0	0	-0.40755	6.322293	-28.047033	6.322293	21899.5	-2.297499E-11	-4.352559E+10	9.875773	0.14757	0	0
0	0	0	-0.406366	6.322167	-28.044837	6.322167	21910	-3.348723E-11	-2.986213E+10	9.843803	0.147252	0	0
0	0	0	-0.405263	6.322265	-28.043729	6.322265	21919.75	-2.47188E-11	-4.045504E+10	9.684498	0.146405	0	0
0	0	0	-0.403997	6.322035	-28.040962	6.322035	21931	-6.473831E-11	-1.544681E+10	9.826309	0.145678	0	0
0	0	0	-0.404365	6.322042	-28.041504	6.322042	21927.75	-6.170401E-11	-1.62064E+10	9.672424	0.14532	0	0
0	0	0	-0.403507	6.32216	-28.040828	6.32216	21935.25	-3.439889E-11	-2.907071E+10	9.700258	0.144169	0	0
0	0	0	-0.40265	6.322244	-28.040001	6.322244	21943	-2.621794E-11	-3.814183E+10	9.751576	0.143904	0	0
0	0	0	-0.401547	6.322286	-28.038649	6.322286	21952.75	-2.343921E-11	-4.266356E+10	9.543577	0.143203	0	0
0	0	0	-0.400199	6.322042	-28.035708	6.322042	21964.75	-6.180812E-11	-1.61791E+10	9.6873	0.14233	0	0
0	0	0	-0.40122	6.322091	-28.037342	6.322091	21955.75	-4.655464E-11	-2.148013E+10	9.528495	0.142052	0	0
0	0	0	-0.400853	6.322042	-28.036617	6.322042	21959	-6.179194E-11	-1.618334E+10	9.553445	0.141033	0	0
0	0	0	-0.400118	6.322216	-28.036356	6.322216	21965.5	-2.850731E-11	-3.507873E+10	9.591405	0.140702	0	0
0	0	0	-0.398035	6.322202	-28.033397	6.322202	21984	-2.981651E-11	-3.353847E+10	9.406936	0.139855	0	0
0	0	0	-0.399015	6.322056	-28.034121	6.322056	21975.25	-5.65524E-11	-1.768272E+10	9.54422	0.139247	0	0
0	0	0	-0.398117	6.322112	-28.033114	6.322112	21983.25	-4.215949E-11	-2.371945E+10	9.377918	0.138929	0	0
0	0	0	-0.397953	6.322042	-28.032582	6.322042	21984.75	-6.18644E-11	-1.616438E+10	9.392731	0.137884	0	0
0	0	0	-0.398362	6.321937	-28.032694	6.321937	21981.25	-2.068262E-10	-4.834978E+9	9.405532	0.137593	0	0
0	0	0	-0.398607	6.322	-28.033309	6.322	21979	-8.594493E-11	-1.163536E+10	9.263517	0.136653	0	0
0	0	0	-0.398648	6.322042	-28.033548	6.322042	21978.5	-6.184681E-11	-1.616898E+10	9.436255	0.136071	0	0
0	0	0	-0.397912	6.322209	-28.033257	6.322209	21985.25	-2.916142E-11	-3.429189E+10	9.220778	0.135555	0	0
0	0	0	-0.398974	6.322035	-28.033973	6.322035	21975.75	-6.48704E-11	-1.541535E+10	9.323023	0.134841	0	0
0	0	0	-0.39926	6.322244	-28.035284	6.322244	21973.25	-2.625408E-11	-3.808932E+10	9.227569	0.134364	0	0
0	0	0	-0.400853	6.321972	-28.036312	6.321972	21959	-1.159954E-10	-8.621031E+9	9.212515	0.133464	0	0
0	0	0	-0.401996	6.322021	-28.038116	6.322021	21948.75	-7.183317E-11	-1.392115E+10	9.233258	0.133107	0	0
0	0	0	-0.401179	6.321937	-28.036614	6.321937	21956	-2.065886E-10	-4.840539E+9	9.079087	0.132141	0	0
0	0	0	-0.403507	6.321944	-28.039884	6.321944	21935.25	-1.785023E-10	-5.602167E+9	9.223605	0.131916	0	0
0	0	0	-0.403425	6.322251	-28.041111	6.322251	21936	-2.569966E-11	-3.891102E+10	9.021136	0.131188	0	0
0	0	0	-0.404365	6.322216	-28.042265	6.322216	21927.75	-2.845831E-11	-3.513912E+10	9.172393	0.130434	0	0
0	0	0	-0.405181	6.322098	-28.042884	6.322098	21920.5	-4.489895E-11	-2.227224E+10	8.9518	0.130103	0	0
0	0	0	-0.406733	6.321951	-28.044403	6.321951	21906.75	-1.570478E-10	-6.36749E+9	9.06552	0.129217	0	0
0	0	0	-0.406447	6.322056	-28.044463	6.322056	21909.25	-5.638255E-11	-1.773598E+10	8.97659	0.128939	0	0
0	0	0	-0.407713	6.322112	-28.046468	6.322112	21898	-4.199599E-11	-2.38118E+10	8.999306	0.127841	0	0
0	0	0	-0.407958	6.322363	-28.047906	6.322363	21895.75	-1.956289E-11	-5.111719E+10	8.974071	0.127682	0	0
0	0	0	-0.408326	6.322349	-28.048356	6.322349	21892.5	-2.015815E-11	-4.960773E+10	8.869814	0.126729	0	0
0	0	0	-0.409796	6.322056	-28.049122	6.322056	21879.5	-5.630599E-11	-1.77601E+10	8.955771	0.126359	0	0
0	0	0	-0.409551	6.322105	-28.048994	6.322105	21881.5	-4.334476E-11	-2.307084E+10	8.809721	0.125565	0	0
0	0	0	-0.410368	6.322321	-28.051076	6.322321	21874.5	-2.145373E-11	-4.661194E+10	8.949126	0.125261	0	0
0	0	0	-0.408081	6.322014	-28.046553	6.322014	21894.75	-7.577463E-11	-1.319703E+10	8.743878	0.124414	0	0
0	0	0	-0.410939	6.322021	-28.050561	6.322021	21869.25	-7.157298E-11	-1.397175E+10	8.875412	0.12403	0	0
0	0	0	-0.409796	6.322174	-28.04964	6.322174	21879.5	-3.261288E-11	-3.066274E+10	8.69463	0.123448	0	0
0	0	0	-0.410694	6.322063	-28.050403	6.322063	21871.5	-5.397862E-11	-1.852585E+10	8.844376	0.122667	0	0
0	0	0	-0.410082	6.322154	-28.049946	6.322154	21877	-3.522486E-11	-2.838904E+10	8.635649	0.12231	0	0
0	0	0	-0.41	6.322063	-28.049437	6.322063	21877.75	-5.399405E-11	-1.852056E+10	8.799264	0.121661	0	0
0	0	0	-0.408898	6.322209	-28.048542	6.322209	21887.5	-2.903176E-11	-3.444504E+10	8.580948	0.121251	0	0
0	0	0	-0.409592	6.322112	-28.049082	6.322112	21881.25	-4.196387E-11	-2.383002E+10	8.72513	0.120616	0	0
0	0	0	-0.40804	6.322265	-28.047593	6.322265	21895	-2.469089E-11	-4.050077E+10	8.578774	0.12006	0	0
0	0	0	-0.408448	6.32223	-28.048009	6.32223	21891.5	-2.723725E-11	-3.671443E+10	8.729147	0.119293	0	0
0	0	0	-0.408407	6.322091	-28.047342	6.322091	21891.75	-4.641894E-11	-2.154293E+10	8.548288	0.119028	0	0
0	0	0	-0.408122	6.322293	-28.047828	6.322293	21894.25	-2.296948E-11	-4.353602E+10	8.678838	0.11842	0	0
0	0	0	-0.406937	6.322216	-28.045845	6.322216	21904.75	-2.842846E-11	-3.517601E+10	8.444148	0.118062	0	0
0	0	0	-0.405998	6.322028	-28.043716	6.322028	21913.25	-6.802023E-11	-1.470151E+10	8.610404	0.117401	0	0
0	0	0	-0.404691	6.32184	-28.041074	6.32184	21924.75	1.737217E-10	5.756333E+9	8.4312	0.117043	0	0
0	0	0	-0.40363	6.322112	-28.040786	6.322112	21934.25	-4.206551E-11	-2.377244E+10	8.63122	0.116316	0	0
0	0	0	-0.402241	6.322279	-28.039585	6.322279	21946.75	-2.385577E-11	-4.191857E+10	8.406341	0.115773	0	0
0	0	0	-0.401874	6.322272	-28.039043	6.322272	21949.75	-2.429762E-11	-4.115629E+10	8.537081	0.115416	0	0
0	0	0	-0.401343	6.322091	-28.037512	6.322091	21954.5	-4.655199E-11	-2.148136E+10	8.332353	0.114728	0	0
0	0	0	-0.402119	6.322209	-28.03911	6.322209	21947.75	-2.911168E-11	-3.435048E+10	8.473911	0.114397	0	0
0	0	0	-0.401424	6.322042	-28.037412	6.322042	21954	-6.177787E-11	-1.618703E+10	8.335658	0.11359	0	0
0	0	0	-0.400689	6.322126	-28.036755	6.322126	21960.5	-3.959395E-11	-2.525638E+10	8.466224	0.113563	0	0
0	0	0	-0.398443	6.321986	-28.033021	6.321986	21980.5	-9.877927E-11	-1.012358E+10	8.338906	0.112399	0	0
0	0	0	-0.398443	6.32184	-28.032381	6.32184	21980.5	1.741635E-10	5.741733E+9	8.338042	0.112611	0	0
0	0	0	-0.398403	6.322223	-28.034	6.322223	21980.75	-2.792526E-11	-3.580987E+10	8.399534	0.111473	0	0
0	0	0	-0.399791	6.32193	-28.034652	6.32193	21968.5	-2.449851E-10	-4.081881E+9	8.247565	0.111579	0	0
0	0	0	-0.400404	6.322098	-28.036236	6.322098	21963	-4.4986E-11	-2.222914E+10	8.443613	0.110626	0	0
0	0	0	-0.400526	6.321986	-28.035919	6.321986	21961.75	-9.869501E-11	-1.013222E+10	8.198413	0.110375	0	0
0	0	0	-0.400158	6.322098	-28.035895	6.322098	21965	-4.49901E-11	-2.222711E+10	8.36664	0.109858	0	0
0	0	0	-0.399791	6.322042	-28.035139	6.322042	21968.5	-6.181867E-11	-1.617634E+10	8.141135	0.109289	0	0
0	0	0	-0.401179	6.321979	-28.036797	6.321979	21956	-1.066264E-10	-9.378544E+9	8.256191	0.108972	0	0
0	0	0	-0.40171	6.322084	-28.037993	6.322084	21951.25	-4.824383E-11	-2.072804E+10	8.198562	0.108178	0	0
0	0	0	-0.401384	6.322056	-28.037417	6.322056	21954.25	-5.649836E-11	-1.769963E+10	8.154976	0.108099	0	0
0	0	0	-0.402405	6.321861	-28.037984	6.321861	21945.25	2.872869E-10	3.480841E+9	8.286479	0.107371	0	0
0	0	0	-0.403548	6.322174	-28.040946	6.322174	21935	-3.26956E-11	-3.058515E+10	8.074281	0.106961	0	0
0	0	0	-0.403956	6.321875	-28.040204	6.321875	21931.5	5.079583E-10	1.968666E+9	8.253705	0.106524	0	0
0	0	0	-0.404365	6.322258	-28.042448	6.322258	21927.75	-2.519973E-11	-3.968297E+10	8.103523	0.105809	0	0
0	0	0	-0.406161	6.322209	-28.044735	6.322209	21911.75	-2.906393E-11	-3.440691E+10	8.121981	0.10577	0	0
0	0	0	-0.406325	6.322035	-28.044201	6.322035	21910.25	-6.467705E-11	-1.546143E+10	8.251881	0.104804	0	0
0	0	0	-0.408734	6.321944	-28.047157	6.321944	21889	-1.78126E-10	-5.614004E+9	8.008772	0.104777	0	0
0	0	0	-0.409714	6.32223	-28.04977	6.32223	21880.25	-2.722325E-11	-3.673331E+10	0	0	0	0
0	0	0	-0.409224	6.322042	-28.048266	6.322042	21884.5	-6.15823E-11	-1.623843E+10	0	0	0	0
0	0	0	-0.409224	6.322335	-28.049546	6.322335	21884.5	-2.078646E-11	-4.810825E+10	0	0	0	0
0	0	0	-0.408816	6.322223	-28.04849	6.322223	21888.25	-2.780774E-11	-3.596121E+10	0	0	0	0
0	0	0	-0.409592	6.322202	-28.049478	6.322202	21881.25	-2.967715E-11	-3.369596E+10	0	0	0	0
0	0	0	-0.410123	6.322098	-28.049759	6.322098	21876.5	-4.480883E-11	-2.231703E+10	0	0	0	0
0	0	0	-0.410817	6.321951	-28.050085	6.321951	21870.5	-1.567879E-10	-6.378044E+9	0	0	0	0
0	0	0	-0.410735	6.321958	-28.050002	6.321958	21871.25	-1.401131E-10	-7.13709E+9	0	0	0	0
0	0	0	-0.41196	6.322105	-28.052347	6.322105	21860.25	-4.330266E-11	-2.309327E+10	0	0	0	0
0	0	0	-0.411593	6.322112	-28.051866	6.322112	21863.5	-4.192983E-11	-2.384937E+10	0	0	0	0
0	0	0	-0.411797	6.322007	-28.051693	6.322007	21861.75	-8.027386E-11	-1.245736E+10	0	0	0	0
0	0	0	-0.411593	6.322314	-28.05275	6.322314	21863.5	-2.179796E-11	-4.587586E+10	0	0	0	0
0	0	0	-0.411389	6.322293	-28.052374	6.322293	21865.5	-2.293932E-11	-4.359327E+10	0	0	0	0
0	0	0	-0.410041	6.322098	-28.049646	6.322098	21877.25	-4.481036E-11	-2.231627E+10	0	0	0	0
0	0	0	-0.410531	6.322119	-28.050419	6.322119	21873	-4.065336E-11	-2.459822E+10	0	0	0	0
0	0	0	-0.410082	6.322028	-28.049398	6.322028	21877	-6.790771E-11	-1.472587E+10	0	0	0	0
0	0	0	-0.408979	6.321923	-28.047407	6.321923	21886.75	-2.995447E-10	-3.3384E+9	0	0	0	0
0	0	0	-0.407754	6.322342	-28.04753	6.322342	21897.75	-2.047607E-11	-4.883749E+10	0	0	0	0
0	0	0	-0.407427	6.322237	-28.046619	6.322237	21900.5	-2.669686E-11	-3.745759E+10	0	0	0	0
0	0	0	-0.406325	6.322056	-28.044292	6.322056	21910.25	-5.638512E-11	-1.773517E+10	0	0	0	0
0	0	0	-0.405222	6.321972	-28.042392	6.321972	21920	-1.157894E-10	-8.63637E+9	0	0	0	0
0	0	0	-0.404079	0	-0.404079	0	21930.25	0	0	0	0	0	0
0	0	0	-0.402772	0	-0.402772	0	21942	0	0	0	0	0	0
