Vload_(V)	ILoad_(A)	RsLoad (ohm)	SunsVoc_Voltage_(V)	SunsVoc_Current_(A)	Model_Voltage_(V)	Model_Current_(A)	Carrier_Density_(cm-3)	Lifetime_(s)	Inverse_Lifetime_(s-1)	Efficiency_(%)	Intensity_(suns)	Dark_IV_Voltage_(V)	Dark_IV_Current_(A)
3.743103	6.31847	0	64.810781	-0.952607	65.160213	-0.952607	3.165628E+15	0.000183	5454.959399	18.984822	1.137044	0	0
3.849021	6.317526	1.870482	64.772272	-0.730478	65.041909	-0.730478	3.133361E+15	0.000187	5342.765432	18.754848	1.134847	0	0
5.373059	6.310315	5.904943	64.633387	-0.313787	64.751825	-0.313787	3.019262E+15	0.000191	5217.685478	18.962503	1.132413	0	0
11.524207	6.2818	6.227614	64.459995	0.128907	64.41	0.128907	2.881701E+15	0.000195	5102.869155	18.98826	1.131156	0	0
16.081362	6.273829	5.606995	64.286235	0.544163	64.069521	0.544163	2.74913E+15	0.0002	4991.019976	18.924729	1.130931	0	0
21.765963	6.261707	4.826072	64.111291	0.935826	63.728785	0.935826	2.620823E+15	0.000204	4881.122548	19.044051	1.130798	0	0
28.211903	6.230827	4.019306	63.932019	1.304568	63.384778	1.304568	2.494545E+15	0.000209	4777.729964	18.986122	1.130349	0	0
34.023895	6.223652	3.125604	63.758708	1.641577	63.053048	1.641577	2.37731E+15	0.000213	4677.097029	18.937317	1.128576	0	0
39.457445	6.24071	2.156378	63.583846	1.942633	62.728414	1.942633	2.263695E+15	0.000217	4596.37313	18.80546	1.125492	0	0
45.26676	6.214576	1.36231	63.416334	2.22467	62.414374	2.22467	2.159114E+15	0.000221	4509.012392	18.94021	1.120967	0	0
46.695408	6.195492	1.211273	63.251314	2.487086	62.106569	2.487086	2.060035E+15	0.000226	4423.490776	18.909426	1.117315	0	0
48.130211	6.167153	1.076651	63.083148	2.731303	61.798469	2.731303	1.962973E+15	0.00023	4346.840895	18.978764	1.113345	0	0
49.578975	6.119432	0.97073	62.915147	2.96145	61.4924	2.96145	1.869819E+15	0.000234	4271.098914	18.838291	1.110024	0	0
50.991298	6.045703	0.889439	62.746369	3.177381	61.187746	3.177381	1.779955E+15	0.000238	4198.583071	19.007827	1.106531	0	0
52.413545	5.935857	0.817274	62.577959	3.376198	60.887733	3.376198	1.693885E+15	0.000242	4133.07988	18.920717	1.102733	0	0
53.838422	5.7721	0.756584	62.41155	3.557307	60.595178	3.557307	1.612258E+15	0.000245	4075.425181	18.850429	1.097242	0	0
55.215208	5.537074	0.707205	62.25049	3.724963	60.312558	3.724963	1.536394E+15	0.000249	4017.320632	18.913717	1.091526	0	0
56.576169	5.210327	0.663277	62.091391	3.882665	60.034392	3.882665	1.464391E+15	0.000252	3958.859521	18.924231	1.08614	0	0
57.900351	4.771104	0.629911	61.933027	4.029737	59.759865	4.029737	1.395534E+15	0.000256	3903.644017	18.954672	1.080729	0	0
59.257069	4.163452	0.59973	61.774948	4.168078	59.487695	4.168078	1.329516E+15	0.00026	3850.068418	18.853374	1.07525	0	0
60.524908	3.42736	0.57652	61.618585	4.29461	59.221651	4.29461	1.266801E+15	0.000263	3803.145259	18.986896	1.070064	0	0
61.724969	2.563373	0.565625	61.465489	4.411342	58.962929	4.411342	1.207816E+15	0.000266	3759.017308	18.868756	1.064572	0	0
62.838	1.616736	0.587434	61.311984	4.519884	58.706267	4.519884	1.151005E+15	0.000269	3720.252653	18.936475	1.058671	0	0
63.740338	0.765854	0.634822	61.161991	4.62219	58.455745	4.62219	1.097681E+15	0.000272	3679.258037	18.828386	1.051936	0	0
52.628985	5.913177	0.809873	61.011182	4.717448	58.206526	4.717448	1.046183E+15	0.000274	3643.74706	18.998017	1.045703	0	0
64.549785	0	0	60.861352	4.806438	57.960631	4.806438	9.970561E+14	0.000277	3610.91978	18.911248	1.039775	0	0
0	0	0	60.710379	4.890516	57.714667	4.890516	9.495471E+14	0.000279	3580.891858	18.977703	1.033834	0	0
0	0	0	60.564552	4.970882	57.476169	4.970882	9.054985E+14	0.000282	3543.869978	19.067865	1.027867	0	0
0	0	0	60.412517	5.046423	57.23122	5.046423	8.614425E+14	0.000284	3516.413382	18.900774	1.022481	0	0
0	0	0	60.261259	5.116849	56.989179	5.116849	8.194443E+14	0.000286	3492.080986	18.857144	1.016567	0	0
0	0	0	60.113553	5.182577	56.753566	5.182577	7.801412E+14	0.000288	3467.471229	18.85386	1.010334	0	0
0	0	0	59.970788	5.244021	56.526098	5.244021	7.43707E+14	0.000291	3440.671787	19.032711	1.004221	0	0
0	0	0	59.824225	5.301912	56.294938	5.301912	7.078428E+14	0.000292	3420.305385	18.944759	0.998478	0	0
0	0	0	59.682441	5.355922	56.071691	5.355922	6.745851E+14	0.000294	3398.319516	19.086157	0.992524	0	0
0	0	0	59.540493	5.406168	55.849878	5.406168	6.426598E+14	0.000296	3380.995002	18.941125	0.986715	0	0
0	0	0	59.402261	5.454023	55.633794	5.454023	6.128466E+14	0.000298	3359.548528	18.986801	0.981065	0	0
0	0	0	59.263294	5.501658	55.416094	5.501658	5.841039E+14	0.0003	3330.682549	18.792284	0.975508	0	0
0	0	0	59.126777	5.543512	55.204955	5.543512	5.570294E+14	0.000302	3313.655479	18.900616	0.969328	0	0
0	0	0	58.99169	5.583677	54.996248	5.583677	5.313349E+14	0.000304	3293.897942	19.066016	0.963361	0	0
0	0	0	58.85501	5.620965	54.786843	5.620965	5.064115E+14	0.000305	3280.666399	19.043561	0.957856	0	0
0	0	0	58.722699	5.655823	54.584457	5.655823	4.832805E+14	0.000306	3265.927137	19.071747	0.9521	0	0
0	0	0	58.587653	5.688491	54.379468	5.688491	4.606476E+14	0.000307	3257.506428	18.98031	0.94645	0	0
0	0	0	58.457792	5.719442	54.182199	5.719442	4.397836E+14	0.000308	3244.443105	18.974829	0.941091	0	0
0	0	0	58.324134	5.748429	53.980825	5.748429	4.191995E+14	0.000309	3239.076171	18.810016	0.935507	0	0
0	0	0	58.196275	5.776567	53.787442	5.776567	4.003252E+14	0.00031	3224.391924	19.020778	0.929963	0	0
0	0	0	58.063801	5.803365	53.58844	5.803365	3.815834E+14	0.000311	3215.499187	19.018165	0.924101	0	0
0	0	0	57.932797	5.827962	53.392712	5.827962	3.638358E+14	0.000311	3211.333999	19.207485	0.918742	0	0
0	0	0	57.804652	5.851007	53.20168	5.851007	3.472055E+14	0.000312	3207.069588	18.914973	0.913158	0	0
0	0	0	57.677691	5.872971	53.012753	5.872971	3.314161E+14	0.000312	3202.015503	18.976887	0.907561	0	0
0	0	0	57.550771	5.893738	52.824508	5.893738	3.162916E+14	0.000313	3198.746691	19.007502	0.902163	0	0
0	0	0	57.424055	5.913628	52.636933	5.913628	3.018262E+14	0.000313	3195.089602	18.8332	0.897121	0	0
0	0	0	57.300688	5.932169	52.454697	5.932169	2.883308E+14	0.000313	3191.469516	19.008962	0.891114	0	0
0	0	0	57.175809	5.949872	52.270828	5.949872	2.752398E+14	0.000313	3190.063242	19.10757	0.885358	0	0
0	0	0	57.04991	5.966903	52.085867	5.966903	2.62601E+14	0.000314	3189.121372	19.15008	0.880078	0	0
0	0	0	56.9274	5.982928	51.906098	5.982928	2.508219E+14	0.000314	3186.701862	18.951047	0.874706	0	0
0	0	0	56.805666	5.997972	51.72798	5.997972	2.396064E+14	0.000314	3186.319728	19.034157	0.869374	0	0
0	0	0	56.681768	6.012535	51.547108	6.012535	2.286737E+14	0.000314	3186.954409	18.895993	0.864081	0	0
0	0	0	56.557217	6.026645	51.365521	6.026645	2.181554E+14	0.000314	3186.551433	19.04389	0.859013	0	0
0	0	0	56.439158	6.039245	51.193879	6.039245	2.086061E+14	0.000314	3188.546155	18.903705	0.85376	0	0
0	0	0	56.314688	6.051545	51.013584	6.051545	1.989648E+14	0.000313	3195.790284	19.169298	0.848374	0	0
0	0	0	56.195364	6.063241	50.840655	6.063241	1.901179E+14	0.000313	3197.968038	19.159612	0.843452	0	0
0	0	0	56.075549	6.074638	50.667155	6.074638	1.816095E+14	0.000313	3198.302257	18.937574	0.838424	0	0
0	0	0	55.952427	6.085323	50.489617	6.085323	1.732428E+14	0.000312	3205.844334	19.008033	0.832986	0	0
0	0	0	55.836737	6.095405	50.322615	6.095405	1.657154E+14	0.000312	3206.542013	18.96393	0.828063	0	0
0	0	0	55.714023	6.105057	50.146271	6.105057	1.580715E+14	0.000311	3216.155513	19.048949	0.823339	0	0
0	0	0	55.595719	6.114153	49.976323	6.114153	1.510212E+14	0.00031	3222.820662	18.897993	0.818311	0	0
0	0	0	55.473332	6.123135	49.800768	6.123135	1.44044E+14	0.00031	3230.381698	19.106086	0.813296	0	0
0	0	0	55.352292	6.131774	49.627246	6.131774	1.374475E+14	0.000309	3235.70206	19.022891	0.80852	0	0
0	0	0	55.235663	6.139609	49.460387	6.139609	1.313659E+14	0.000308	3243.416304	19.103653	0.803915	0	0
0	0	0	55.116788	6.147242	49.290537	6.147242	1.254333E+14	0.000308	3251.864135	18.917912	0.798887	0	0
0	0	0	54.999056	6.154343	49.122652	6.154343	1.198121E+14	0.000306	3263.24827	19.096251	0.794242	0	0
0	0	0	54.88161	6.161216	48.955276	6.161216	1.144467E+14	0.000306	3273.173826	18.948692	0.789823	0	0
0	0	0	54.763102	6.16763	48.786796	6.16763	1.09268E+14	0.000304	3288.490877	18.884785	0.785072	0	0
0	0	0	54.648147	6.173962	48.62317	6.173962	1.044612E+14	0.000303	3295.396129	19.073128	0.780216	0	0
0	0	0	54.530987	6.180068	48.456659	6.180068	9.977292E+13	0.000303	3304.481674	18.999119	0.77581	0	0
0	0	0	54.414888	6.185816	48.291871	6.185816	9.532845E+13	0.000302	3314.907242	19.045576	0.771576	0	0
0	0	0	54.298627	6.191688	48.126655	6.191688	9.107038E+13	0.000302	3316.305302	18.908389	0.766773	0	0
0	0	0	54.180731	6.196598	47.960083	6.196598	8.694129E+13	0.000299	3339.251599	19.027442	0.762274	0	0
0	0	0	54.067165	6.201544	47.799342	6.201544	8.313622E+13	0.000298	3350.362541	18.86676	0.75796	0	0
0	0	0	53.949841	6.206224	47.633652	6.206224	7.937562E+13	0.000297	3368.665952	18.987619	0.753633	0	0
0	0	0	53.834315	6.210722	47.470547	6.210722	7.58348E+13	0.000295	3384.661443	18.924825	0.749068	0	0
0	0	0	53.721075	6.215209	47.31053	6.215209	7.251381E+13	0.000295	3392.258309	19.191522	0.745019	0	0
0	0	0	53.601628	6.219525	47.142108	6.219525	6.916473E+13	0.000293	3407.847733	18.979478	0.740851	0	0
0	0	0	53.489654	6.223648	46.984087	6.223648	6.616275E+13	0.000293	3414.029222	18.898793	0.736312	0	0
0	0	0	53.370778	6.227545	46.816772	6.227545	6.311527E+13	0.000291	3431.815574	19.030067	0.731959	0	0
0	0	0	53.258519	6.230818	46.659147	6.230818	6.036382E+13	0.000289	3459.045368	18.951717	0.728162	0	0
0	0	0	53.138663	6.234461	46.490652	6.234461	5.755596E+13	0.000288	3477.039367	18.950251	0.723914	0	0
0	0	0	53.019461	6.238069	46.323039	6.238069	5.489062E+13	0.000287	3489.298904	18.864239	0.71964	0	0
0	0	0	52.907651	6.241293	46.165945	6.241293	5.250089E+13	0.000286	3501.816885	19.108767	0.715379	0	0
0	0	0	52.788898	6.244353	45.999446	6.244353	5.007473E+13	0.000284	3525.91194	18.898232	0.711476	0	0
0	0	0	52.675821	6.246954	45.841208	6.246954	4.786717E+13	0.000281	3559.093155	18.9053	0.707348	0	0
0	0	0	52.560948	6.249777	45.68022	6.249777	4.572264E+13	0.000279	3578.946509	18.792728	0.703127	0	0
0	0	0	52.442685	6.252633	45.514496	6.252633	4.36137E+13	0.000278	3596.001431	19.052252	0.69925	0	0
0	0	0	52.3292	6.254816	45.356053	6.254816	4.16802E+13	0.000275	3638.060819	18.790531	0.695399	0	0
0	0	0	52.21008	6.25716	45.18965	6.25716	3.974161E+13	0.000272	3675.034587	18.900633	0.69135	0	0
0	0	0	52.098555	6.259399	45.033777	6.259399	3.800739E+13	0.00027	3702.39149	19.066558	0.687447	0	0
0	0	0	51.979108	6.262004	44.866562	6.262004	3.62328E+13	0.000269	3712.446996	18.847779	0.683821	0	0
0	0	0	51.861376	6.264269	44.702059	6.264269	3.456384E+13	0.000268	3735.594385	18.905517	0.679838	0	0
0	0	0	51.746258	6.266111	44.541605	6.266111	3.300547E+13	0.000265	3779.028399	18.842376	0.675869	0	0
0	0	0	51.626689	6.267993	44.374955	6.267993	3.14604E+13	0.000262	3822.065552	18.916127	0.672309	0	0
0	0	0	51.510427	6.269986	44.2127	6.269986	3.002675E+13	0.00026	3846.439877	18.717137	0.668644	0	0
0	0	0	51.393593	6.272047	44.049552	6.272047	2.865122E+13	0.000259	3859.782568	18.941887	0.664873	0	0
0	0	0	51.273207	6.273574	43.882115	6.273574	2.729914E+13	0.000255	3917.694552	18.857103	0.661036	0	0
0	0	0	51.156006	6.275763	43.718255	6.275763	2.604361E+13	0.000256	3906.382491	19.016279	0.657476	0	0
0	0	0	51.029576	6.277382	43.542342	6.277382	2.475334E+13	0.000253	3954.160123	18.760146	0.653758	0	0
0	0	0	50.902207	6.278796	43.365358	6.278796	2.351759E+13	0.000249	4018.69264	18.793364	0.650013	0	0
0	0	0	50.779125	6.280144	43.194335	6.280144	2.238164E+13	0.000245	4079.239266	18.73522	0.646467	0	0
0	0	0	50.653757	6.281697	43.019893	6.281697	2.128056E+13	0.000243	4116.361807	18.709375	0.642881	0	0
0	0	0	50.528225	6.283083	42.845409	6.283083	2.023195E+13	0.00024	4166.601046	18.92813	0.639004	0	0
0	0	0	50.400978	6.284219	42.668849	6.284219	1.922139E+13	0.000236	4244.801226	18.932711	0.634995	0	0
0	0	0	50.275161	6.285879	42.493591	6.285879	1.82715E+13	0.000235	4249.058717	18.974883	0.631766	0	0
0	0	0	50.142074	6.287176	42.308753	6.287176	1.731747E+13	0.000232	4304.776348	18.611006	0.628167	0	0
0	0	0	50.011683	6.288487	42.127588	6.288487	1.643082E+13	0.00023	4347.034942	18.757997	0.624356	0	0
0	0	0	49.880516	6.289714	41.945439	6.289714	1.558444E+13	0.000228	4395.529921	18.657126	0.621035	0	0
0	0	0	49.745429	6.290949	41.757864	6.290949	1.475809E+13	0.000225	4442.352279	18.914848	0.617727	0	0
0	0	0	49.608953	6.291642	41.569047	6.291642	1.396751E+13	0.000219	4575.511955	18.690245	0.614102	0	0
0	0	0	49.468638	6.2927	41.374464	6.2927	1.319863E+13	0.000215	4651.048499	18.956468	0.610436	0	0
0	0	0	49.327875	6.293658	41.179375	6.293658	1.246963E+13	0.000211	4739.961588	18.836826	0.607393	0	0
0	0	0	49.182619	6.294769	40.977883	6.294769	1.175939E+13	0.000208	4801.24296	18.551575	0.60386	0	0
0	0	0	49.038384	6.295474	40.778311	6.295474	1.109401E+13	0.000203	4937.894533	18.677062	0.600327	0	0
0	0	0	48.8859	6.296332	40.567162	6.296332	1.043133E+13	0.000198	5055.52613	18.668105	0.597059	0	0
0	0	0	48.733049	6.297152	40.355543	6.297152	9.806648E+12	0.000193	5178.40328	18.83106	0.593962	0	0
0	0	0	48.568927	6.298126	40.128177	6.298126	9.177353E+12	0.000189	5280.770638	18.697318	0.590496	0	0
0	0	0	48.405662	6.298775	39.902412	6.298775	8.591298E+12	0.000183	5460.964748	18.916212	0.586883	0	0
0	0	0	48.238273	6.299467	39.670894	6.299467	8.029164E+12	0.000177	5637.978907	18.58844	0.583509	0	0
0	0	0	48.063288	6.30025	39.428774	6.30025	7.480702E+12	0.000172	5802.023325	18.628061	0.580373	0	0
0	0	0	47.886139	6.301154	39.183488	6.301154	6.963516E+12	0.000169	5923.607797	18.42955	0.576867	0	0
0	0	0	47.697147	6.301832	38.922183	6.301832	6.451028E+12	0.000163	6143.833325	18.751331	0.57385	0	0
0	0	0	47.505623	6.302708	38.657096	6.302708	5.970059E+12	0.000159	6289.260859	18.761214	0.570793	0	0
0	0	0	47.304177	6.303244	38.378799	6.303244	5.502741E+12	0.000152	6591.35368	18.73952	0.567472	0	0
0	0	0	47.09248	6.303725	38.086446	6.303725	5.050942E+12	0.000144	6954.286958	18.759484	0.564058	0	0
0	0	0	46.873024	6.304448	37.78304	6.304448	4.62164E+12	0.000138	7227.507711	18.505808	0.561346	0	0
0	0	0	46.64144	6.304873	37.463336	6.304873	4.208059E+12	0.00013	7696.933261	18.503804	0.558104	0	0
0	0	0	46.397686	6.305183	37.127024	6.305183	3.812608E+12	0.00012	8301.602585	18.304636	0.554968	0	0
0	0	0	46.140579	6.305858	36.77176	6.305858	3.435646E+12	0.000114	8744.490521	18.693051	0.551818	0	0
0	0	0	45.86828	6.306369	36.395788	6.306369	3.076926E+12	0.000107	9368.377656	18.638381	0.54896	0	0
0	0	0	45.581853	6.306827	36.000412	6.306827	2.739899E+12	9.878409E-5	10123.087116	18.813274	0.545798	0	0
0	0	0	45.283133	6.307514	35.587728	6.307514	2.427638E+12	9.301948E-5	10750.436593	18.46454	0.542556	0	0
0	0	0	44.96963	6.307713	35.155408	6.307713	2.138095E+12	8.343785E-5	11984.968984	18.594009	0.539777	0	0
0	0	0	44.644408	6.30812	34.706602	6.30812	1.874142E+12	7.601226E-5	13155.772499	18.327542	0.536985	0	0
0	0	0	44.308364	6.308546	34.242837	6.308546	1.635568E+12	6.918452E-5	14454.100112	18.368976	0.533704	0	0
0	0	0	43.958884	6.309075	33.760372	6.309075	1.419599E+12	6.343367E-5	15764.497539	18.595973	0.53074	0	0
0	0	0	43.589109	6.309438	33.250187	6.309438	1.222043E+12	5.679913E-5	17605.90375	18.557223	0.528067	0	0
0	0	0	43.211207	6.309824	32.728748	6.309824	1.04851E+12	5.091155E-5	19641.908045	18.586918	0.525302	0	0
0	0	0	42.815664	6.310195	32.183005	6.310195	8.932022E+11	4.531298E-5	22068.733051	18.356959	0.522086	0	0
0	0	0	42.403051	6.310341	31.614103	6.310341	7.556464E+11	3.902281E-5	25626.039536	18.347988	0.519519	0	0
0	0	0	41.981862	6.311029	31.032436	6.311029	6.370516E+11	3.593846E-5	27825.344434	18.149593	0.516754	0	0
0	0	0	41.527106	6.311355	30.405105	6.311355	5.298078E+11	3.125765E-5	31992.172998	18.500063	0.513856	0	0
0	0	0	41.051196	6.311421	29.749066	6.311421	4.36853E+11	2.601759E-5	38435.534021	18.465069	0.510865	0	0
0	0	0	40.552337	6.311821	29.060786	6.311821	3.568693E+11	2.25332E-5	44378.95893	18.785736	0.508404	0	0
0	0	0	40.033916	6.312115	28.345717	6.312115	2.892259E+11	1.910722E-5	52336.225634	18.368102	0.505745	0	0
0	0	0	39.494832	6.312366	27.602232	6.312366	2.324475E+11	1.59868E-5	62551.616002	18.296453	0.50282	0	0
0	0	0	38.933983	6.312705	26.82856	6.312705	1.851735E+11	1.348512E-5	74155.822906	18.277239	0.499909	0	0
0	0	0	38.365415	6.312994	26.044326	6.312994	1.470525E+11	1.127298E-5	88707.722289	18.118183	0.497792	0	0
0	0	0	37.783861	6.313162	25.242412	6.313162	1.161658E+11	9.187561E-6	108842.819763	18.290176	0.494894	0	0
0	0	0	37.192629	6.313677	24.426444	6.313677	9.140694E+10	8.006513E-6	124898.318938	18.337524	0.492169	0	0
0	0	0	36.585062	6.313585	23.589174	6.313585	7.145014E+10	6.140442E-6	162854.726394	18.478685	0.48976	0	0
0	0	0	35.966633	6.313813	22.736269	6.313813	5.560499E+10	5.012029E-6	199519.998839	18.168546	0.48722	0	0
0	0	0	35.333298	6.314074	21.862729	6.314074	4.301297E+10	4.107634E-6	243449.15281	18.319	0.484454	0	0
0	0	0	34.685548	6.314223	20.969542	6.314223	3.307855E+10	3.269952E-6	305814.891191	18.007517	0.481861	0	0
0	0	0	34.021586	6.314476	20.053766	6.314476	2.527194E+10	2.656622E-6	376417.8164	18.287978	0.479519	0	0
0	0	0	33.350192	6.314806	19.127554	6.314806	1.92496E+10	2.205414E-6	453429.697112	18.171613	0.476912	0	0
0	0	0	32.673325	6.315128	18.193789	6.315128	1.46299E+10	1.837593E-6	544190.028675	18.362209	0.474133	0	0
0	0	0	31.974734	6.315247	17.230523	6.315247	1.102136E+10	1.435722E-6	696513.458696	18.186524	0.471871	0	0
0	0	0	31.264259	6.315151	16.251379	6.315151	8.26298E+9	1.045057E-6	956885.851283	18.062168	0.469264	0	0
0	0	0	30.547617	6.315493	15.262682	6.315493	6.179486E+9	8.713552E-7	1147637.618711	18.116568	0.466551	0	0
0	0	0	29.813947	6.315619	14.251014	6.315619	4.589543E+9	6.757509E-7	1479835.20806	17.986061	0.463958	0	0
0	0	0	29.071579	6.315765	13.227292	6.315765	3.396683E+9	5.27252E-7	1896626.410334	18.040851	0.461682	0	0
0	0	0	28.321656	6.315891	12.193196	6.315891	2.506168E+9	4.079886E-7	2451048.817134	17.925374	0.459168	0	0
0	0	0	27.566097	6.316114	11.151067	6.316114	1.844901E+9	3.287965E-7	3041394.721194	18.139861	0.456508	0	0
0	0	0	26.800575	6.315954	10.096195	6.315954	1.352638E+9	2.257262E-7	4430146.827573	17.873882	0.454206	0	0
0	0	0	26.038605	6.316289	9.044905	6.316289	9.931516E+8	1.911592E-7	5231242.176424	18.068908	0.451917	0	0
0	0	0	25.272674	6.316456	7.988581	6.316456	7.280346E+8	1.517732E-7	6588777.318548	17.853565	0.44931	0	0
0	0	0	24.500535	6.316596	6.923763	6.316596	5.323479E+8	1.192336E-7	8386894.492048	18.084831	0.44677	0	0
0	0	0	23.728928	6.316616	5.859998	6.316616	3.893432E+8	8.818985E-8	1.133917E+7	17.817599	0.444705	0	0
0	0	0	22.957566	6.316902	4.795809	6.316902	2.847821E+8	7.626205E-8	1.311268E+7	17.79194	0.442271	0	0
0	0	0	22.181507	6.316742	3.726421	6.316742	2.079055E+8	5.051249E-8	1.979708E+7	18.03075	0.43969	0	0
0	0	0	21.413004	6.316916	2.666471	6.316916	1.522472E+8	4.113738E-8	2.430879E+7	18.05902	0.437229	0	0
0	0	0	20.646787	6.316972	1.610014	6.316972	1.115926E+8	3.127479E-8	3.197463E+7	18.129493	0.435112	0	0
0	0	0	19.886368	6.317104	0.561312	6.317104	8.198657E+7	2.520521E-8	3.967434E+7	17.784055	0.433035	0	0
0	0	0	19.140447	6.317278	-0.467547	6.317278	6.059021E+7	2.135099E-8	4.683623E+7	17.686978	0.430322	0	0
0	0	0	18.405593	6.317355	-1.480857	6.317355	4.497911E+7	1.693978E-8	5.903265E+7	17.353273	0.42843	0	0
0	0	0	17.685521	6.317216	-2.473105	6.317216	3.359094E+7	1.124508E-8	8.892779E+7	17.445677	0.426154	0	0
0	0	0	16.983826	6.317355	-3.440909	6.317355	2.527372E+7	9.518504E-9	1.050585E+8	18.025193	0.423759	0	0
0	0	0	16.30357	6.317508	-4.379214	6.317508	1.918188E+7	8.376077E-9	1.193876E+8	18.3031	0.421457	0	0
0	0	0	15.642916	6.317543	-5.290115	6.317543	1.467454E+7	6.648818E-9	1.504027E+8	17.875945	0.419525	0	0
0	0	0	15.00464	6.31746	-6.169771	6.31746	1.132865E+7	4.708006E-9	2.124041E+8	17.662402	0.417222	0	0
0	0	0	14.389804	6.317613	-7.017909	6.317613	8829156	4.325654E-9	2.311789E+8	17.519921	0.414801	0	0
0	0	0	13.799307	6.317585	-7.831884	6.317585	6949374.25	3.297447E-9	3.032649E+8	17.467429	0.412856	0	0
0	0	0	13.224042	6.317961	-8.626255	6.317961	5503693.25	4.543782E-9	2.20081E+8	17.797473	0.410778	0	0
0	0	0	12.673688	6.317906	-9.384801	6.317906	4403002.25	3.27596E-9	3.05254E+8	17.757475	0.408344	0	0
0	0	0	12.151959	6.317919	-10.104123	6.317919	3563560.25	2.718533E-9	3.678454E+8	17.847214	0.40624	0	0
0	0	0	11.652977	6.317989	-10.792286	6.317989	2910880.25	2.542546E-9	3.933065E+8	17.47407	0.404387	0	0
0	0	0	11.174209	6.317996	-11.452361	6.317996	2397308	2.124763E-9	4.706407E+8	17.423244	0.402217	0	0
0	0	0	10.709938	6.318087	-12.092751	6.318087	1985984.75	2.176401E-9	4.59474E+8	17.415419	0.399875	0	0
0	0	0	10.271435	6.317919	-12.696684	6.317919	1662513.5	1.268283E-9	7.884677E+8	17.945428	0.397957	0	0
0	0	0	9.849715	6.318059	-13.278592	6.318059	1401231	1.431439E-9	6.985975E+8	17.642176	0.395959	0	0
0	0	0	9.448496	6.317989	-13.831475	6.317989	1190868.5	1.040181E-9	9.613716E+8	17.668965	0.393683	0	0
0	0	0	9.063774	6.318219	-14.36272	6.318219	1018879.5	1.706199E-9	5.860981E+8	17.36308	0.391711	0	0
0	0	0	8.697347	6.318122	-14.867532	6.318122	878219.75	1.058705E-9	9.4455E+8	17.525134	0.389978	0	0
0	0	0	8.340436	6.318365	-15.360503	6.318365	759904.5	3.056434E-9	3.271787E+8	17.166197	0.387636	0	0
0	0	0	8.002186	6.31817	-15.8261	6.31817	662522.5	9.287576E-10	1.076707E+9	17.643035	0.385452	0	0
0	0	0	7.678515	6.318177	-16.272355	6.318177	581044.5	8.339406E-10	1.199126E+9	17.608926	0.383494	0	0
0	0	0	7.369913	6.318191	-16.697863	6.318191	512709.5	7.726748E-10	1.294206E+9	17.571032	0.381694	0	0
0	0	0	7.07197	6.31831	-17.109078	6.31831	454370.5	1.191319E-9	8.394054E+8	17.295126	0.379405	0	0
0	0	0	6.788237	6.318191	-17.499793	6.318191	404996.25	6.103464E-10	1.638414E+9	17.166865	0.377275	0	0
0	0	0	6.514223	6.318191	-17.877563	6.318191	362412.75	5.461713E-10	1.830927E+9	17.510514	0.375568	0	0
0	0	0	6.253482	6.318226	-18.23717	6.318226	326056.25	5.616179E-10	1.78057E+9	17.143626	0.373583	0	0
0	0	0	5.997191	6.318205	-18.590425	6.318205	293876.75	4.662067E-10	2.144971E+9	17.206181	0.371175	0	0
0	0	0	5.754459	6.318149	-18.924852	6.318149	266333.25	3.489994E-10	2.865335E+9	17.333946	0.369547	0	0
0	0	0	5.521568	6.318275	-19.246419	6.318275	242336.25	5.218418E-10	1.916289E+9	17.490251	0.367642	0	0
0	0	0	5.296844	6.318547	-19.557305	6.318547	221233	-1.209586E-9	-8.267292E+8	17.054475	0.365512	0	0
0	0	0	5.080287	6.318024	-19.853803	6.318024	202637	1.908283E-10	5.240313E+9	16.867816	0.363672	0	0
0	0	0	4.870306	6.318414	-20.144838	6.318414	186099.75	1.405112E-9	7.116869E+8	17.548292	0.361807	0	0
0	0	0	4.667307	6.318219	-20.423931	6.318219	171396.5	2.870179E-10	3.484103E+9	17.182451	0.35965	0	0
0	0	0	4.47562	6.318428	-20.689033	6.318428	158580.75	1.597782E-9	6.258678E+8	17.092042	0.357599	0	0
0	0	0	4.288588	6.318581	-20.9475	6.318581	147000.25	-5.528711E-10	-1.80874E+9	17.017999	0.355905	0	0
0	0	0	4.102374	6.318651	-21.204509	6.318651	136310.75	-3.156393E-10	-3.168173E+9	17.105897	0.354132	0	0
0	0	0	3.917751	6.318463	-21.458288	6.318463	126480	7.776128E-9	1.285987E+8	17.026313	0.352068	0	0
0	0	0	3.736559	6.318303	-21.707447	6.318303	117521.75	2.952822E-10	3.38659E+9	16.992785	0.350268	0	0
0	0	0	3.563902	6.318581	-21.946608	6.318581	109576.5	-4.121196E-10	-2.42648E+9	17.222965	0.348535	0	0
0	0	0	3.396309	6.318512	-22.177383	6.318512	102378.25	-1.024659E-9	-9.75934E+8	16.491404	0.34655	0	0
0	0	0	3.23137	6.318456	-22.404553	6.318456	95756	2.913861E-9	3.431872E+8	16.91075	0.344579	0	0
0	0	0	3.066145	6.318519	-22.632599	6.318519	89551.5	-7.686066E-10	-1.301056E+9	17.1495	0.343163	0	0
0	0	0	2.907658	6.318519	-22.8511	6.318519	83978.25	-7.207722E-10	-1.387401E+9	16.909637	0.341138	0	0
0	0	0	2.749988	6.318421	-23.068077	6.318421	78778	6.800138E-10	1.470558E+9	16.591263	0.339167	0	0
0	0	0	2.592155	6.318498	-23.285991	6.318498	73894.75	-1.107531E-9	-9.029093E+8	16.830861	0.33738	0	0
0	0	0	2.430565	6.318414	-23.508427	6.318414	69208.75	5.225482E-10	1.913699E+9	17.109389	0.335779	0	0
0	0	0	2.26975	6.318233	-23.729391	6.318233	64840.25	1.149713E-10	8.69782E+9	16.482016	0.333755	0	0
0	0	0	2.107833	6.318533	-23.953855	6.318533	60720.5	-4.055992E-10	-2.465488E+9	16.669795	0.331902	0	0
0	0	0	1.944323	6.318825	-24.180491	6.318825	56825.75	-6.71078E-11	-1.49014E+10	16.804871	0.330526	0	0
0	0	0	1.783999	6.318414	-24.399826	6.318414	53249.5	4.020508E-10	2.487248E+9	16.703165	0.328713	0	0
0	0	0	1.629637	6.318526	-24.613103	6.318526	50019	-3.757759E-10	-2.66116E+9	16.832272	0.326715	0	0
0	0	0	1.481604	6.318623	-24.817598	6.318623	47105.25	-1.288903E-10	-7.758535E+9	16.802194	0.325313	0	0
0	0	0	1.349375	6.318553	-24.999608	6.318553	44646.5	-2.237954E-10	-4.468366E+9	16.549475	0.323527	0	0
0	0	0	1.235808	6.318623	-25.156471	6.318623	42637.5	-1.166656E-10	-8.571509E+9	16.588873	0.321912	0	0
0	0	0	1.127265	6.318686	-25.30638	6.318686	40801.75	-7.92511E-11	-1.261812E+10	16.913891	0.319967	0	0
0	0	0	1.02501	6.318783	-25.447765	6.318783	39144.75	-5.238854E-11	-1.908814E+10	16.598803	0.31867	0	0
0	0	0	0.923694	6.318574	-25.586571	6.318574	37569.5	-1.507071E-10	-6.635387E+9	16.482649	0.317003	0	0
0	0	0	0.822706	6.31854	-25.725656	6.31854	36062.25	-2.16847E-10	-4.611547E+9	16.45792	0.315071	0	0
0	0	0	0.722778	6.318776	-25.864419	6.318776	34630.5	-4.739985E-11	-2.109711E+10	16.710099	0.313629	0	0
0	0	0	0.624771	6.318693	-25.999189	6.318693	33281.5	-6.26253E-11	-1.596799E+10	16.243432	0.312147	0	0
0	0	0	0.526069	6.318623	-26.134974	6.318623	31975.75	-8.749268E-11	-1.142953E+10	16.177283	0.310202	0	0
0	0	0	0.430307	6.318749	-26.267529	6.318749	30758.25	-4.630766E-11	-2.15947E+10	16.452559	0.308852	0	0
0	0	0	0.337975	6.318644	-26.394383	6.318644	29628	-7.134825E-11	-1.401576E+10	16.252973	0.307383	0	0
0	0	0	0.249401	6.318602	-26.516322	6.318602	28583	-9.054523E-11	-1.10442E+10	16.415158	0.30561	0	0
0	0	0	0.165073	6.31854	-26.632316	6.31854	27622.25	-1.660962E-10	-6.020609E+9	16.172692	0.303996	0	0
0	0	0	0.092506	6.318721	-26.733131	6.318721	26821.25	-4.486458E-11	-2.22893E+10	16.518261	0.302739	0	0
0	0	0	0.031129	6.318721	-26.817751	6.318721	26162.25	-4.376225E-11	-2.285074E+10	16.480753	0.300979	0	0
0	0	0	-0.020897	6.318693	-26.88936	6.318693	25616.25	-4.820172E-11	-2.074615E+10	16.205228	0.29914	0	0
0	0	0	-0.050585	6.318679	-26.930231	6.318679	25309.5	-5.079736E-11	-1.968606E+10	16.190095	0.298028	0	0
0	0	0	-0.089625	6.318658	-26.983966	6.318658	24912.25	-5.555151E-11	-1.800131E+10	16.219636	0.296348	0	0
0	0	0	-0.111921	6.318742	-27.015062	6.318742	24688	-3.812123E-11	-2.62321E+10	16.046925	0.294522	0	0
0	0	0	-0.12895	6.318651	-27.038154	6.318651	24518.25	-5.677413E-11	-1.761366E+10	16.111143	0.293238	0	0
0	0	0	-0.154677	6.318769	-27.074128	6.318769	24263.75	-3.398254E-11	-2.942688E+10	16.107574	0.291955	0	0
0	0	0	-0.173871	6.318637	-27.100025	6.318637	24075.5	-6.039077E-11	-1.655882E+10	15.960215	0.290261	0	0
0	0	0	-0.182814	6.318776	-27.112949	6.318776	23988.5	-3.283381E-11	-3.045641E+10	16.126601	0.28874	0	0
0	0	0	-0.190695	6.318776	-27.123815	6.318776	23912	-3.272911E-11	-3.055384E+10	16.084286	0.287549	0	0
0	0	0	-0.201844	6.318679	-27.138769	6.318679	23804.25	-4.777625E-11	-2.09309E+10	15.969781	0.285855	0	0
0	0	0	-0.21532	6.318728	-27.157556	6.318728	23674.5	-3.853121E-11	-2.595299E+10	16.117503	0.284108	0	0
0	0	0	-0.228387	6.318763	-27.175721	6.318763	23549.25	-3.376675E-11	-2.961493E+10	15.91027	0.283037	0	0
0	0	0	-0.239781	6.318756	-27.191399	6.318756	23440.75	-3.443056E-11	-2.904396E+10	15.79868	0.281568	0	0
0	0	0	-0.247417	6.318721	-27.201779	6.318721	23368.5	-3.908908E-11	-2.558259E+10	15.710554	0.279755	0	0
0	0	0	-0.252563	6.318756	-27.209021	6.318756	23319.75	-3.425283E-11	-2.919466E+10	15.872354	0.278644	0	0
0	0	0	-0.256483	6.318588	-27.213713	6.318588	23282.5	-8.242109E-11	-1.213282E+10	15.630469	0.277334	0	0
0	0	0	-0.258361	6.318804	-27.217224	6.318804	23265	-2.919101E-11	-3.425712E+10	15.973062	0.275693	0	0
0	0	0	-0.261955	6.318693	-27.221703	6.318693	23231	-4.371343E-11	-2.287627E+10	15.902239	0.274237	0	0
0	0	0	-0.26661	6.318769	-27.228448	6.318769	23187.25	-3.247485E-11	-3.079306E+10	15.589218	0.27306	0	0
0	0	0	-0.272042	6.318756	-27.235877	6.318756	23136.25	-3.39833E-11	-2.942622E+10	15.579855	0.271657	0	0
0	0	0	-0.276942	6.318526	-27.241652	6.318526	23090.25	-1.734693E-10	-5.76471E+9	15.844081	0.26991	0	0
0	0	0	-0.284089	6.318477	-27.251296	6.318477	23023.5	-1.360002E-9	-7.352932E+8	15.581821	0.268984	0	0
0	0	0	-0.289275	6.31863	-27.259101	6.31863	22975.25	-6.013443E-11	-1.662941E+10	15.408722	0.267529	0	0
0	0	0	-0.295972	6.318616	-27.268274	6.318616	22912.75	-6.567692E-11	-1.522605E+10	15.617849	0.266047	0	0
0	0	0	-0.30173	6.318672	-27.276451	6.318672	22859.5	-4.746108E-11	-2.10699E+10	15.60887	0.264882	0	0
0	0	0	-0.305487	6.318435	-27.280619	6.318435	22824.5	2.761469E-10	3.621261E+9	15.289618	0.263559	0	0
0	0	0	-0.311204	6.318797	-27.290048	6.318797	22771.75	-2.917978E-11	-3.42703E+10	15.549978	0.261918	0	0
0	0	0	-0.314512	6.318707	-27.294222	6.318707	22741.25	-4.027618E-11	-2.482857E+10	15.546895	0.260899	0	0
0	0	0	-0.318555	6.318651	-27.299557	6.318651	22704	-5.257307E-11	-1.902114E+10	15.30188	0.259748	0	0
0	0	0	-0.320596	6.31879	-27.302967	6.31879	22685.25	-2.97006E-11	-3.366935E+10	15.239404	0.258081	0	0
0	0	0	-0.3237	6.318853	-27.307514	6.318853	22656.75	-2.481106E-11	-4.030461E+10	15.386503	0.256705	0	0
0	0	0	-0.324925	6.318679	-27.308459	6.318679	22645.5	-4.545059E-11	-2.200192E+10	15.187619	0.255752	0	0
0	0	0	-0.327334	6.318456	-27.310829	6.318456	22623.5	6.884349E-10	1.45257E+9	15.414575	0.254416	0	0
0	0	0	-0.3286	6.318637	-27.313348	6.318637	22611.75	-5.671912E-11	-1.763074E+10	15.2996	0.252801	0	0
0	0	0	-0.329826	6.318756	-27.315543	6.318756	22600.5	-3.319638E-11	-3.012377E+10	15.273578	0.251902	0	0
0	0	0	-0.33101	6.318832	-27.317503	6.318832	22589.75	-2.616431E-11	-3.822E+10	15.168848	0.250658	0	0
0	0	0	-0.331541	6.318853	-27.318324	6.318853	22584.75	-2.473221E-11	-4.04331E+10	15.063235	0.249044	0	0
0	0	0	-0.332521	6.318797	-27.319437	6.318797	22575.75	-2.892863E-11	-3.456783E+10	14.902223	0.24817	0	0
0	0	0	-0.334358	6.318776	-27.321881	6.318776	22559	-3.087721E-11	-3.238634E+10	15.13778	0.247019	0	0
0	0	0	-0.333746	6.318978	-27.3219	6.318978	22564.5	-1.861882E-11	-5.37091E+10	15.056397	0.245471	0	0
0	0	0	-0.334808	6.318665	-27.322024	6.318665	22555	-4.850014E-11	-2.06185E+10	14.996132	0.244333	0	0
0	0	0	-0.336319	6.318421	-27.323066	6.318421	22541	1.945745E-10	5.139418E+9	15.013988	0.243367	0	0
0	0	0	-0.337176	6.318721	-27.325528	6.318721	22533.25	-3.769193E-11	-2.653088E+10	14.863693	0.241925	0	0
0	0	0	-0.338646	6.318644	-27.327227	6.318644	22519.75	-5.423062E-11	-1.843977E+10	14.988204	0.240774	0	0
0	0	0	-0.338932	6.31863	-27.327562	6.31863	22517.25	-5.893568E-11	-1.696765E+10	14.848593	0.239834	0	0
0	0	0	-0.339667	6.318902	-27.329736	6.318902	22510.5	-2.186863E-11	-4.572759E+10	14.634073	0.238458	0	0
0	0	0	-0.340157	6.318923	-27.330501	6.318923	22506	-2.085545E-11	-4.794909E+10	14.799626	0.237307	0	0
0	0	0	-0.340239	6.318679	-27.329572	6.318679	22505.25	-4.51691E-11	-2.213903E+10	14.921966	0.236288	0	0
0	0	0	-0.341178	6.318658	-27.330778	6.318658	22496.75	-5.016522E-11	-1.993413E+10	14.542486	0.234951	0	0
0	0	0	-0.341096	6.318456	-27.329802	6.318456	22497.5	6.846007E-10	1.460705E+9	14.795341	0.233721	0	0
0	0	0	-0.343587	6.318609	-27.333891	6.318609	22474.75	-6.76393E-11	-1.478431E+10	14.772226	0.232848	0	0
0	0	0	-0.342771	6.319041	-27.33461	6.319041	22482.25	-1.651537E-11	-6.054966E+10	14.492196	0.231763	0	0
0	0	0	-0.343751	6.318902	-27.335366	6.318902	22473.25	-2.183245E-11	-4.580339E+10	14.816221	0.230281	0	0
0	0	0	-0.343057	6.318574	-27.33301	6.318574	22479.5	-9.017476E-11	-1.108958E+10	14.627422	0.229645	0	0
0	0	0	-0.341831	6.318686	-27.331797	6.318686	22490.75	-4.368481E-11	-2.289125E+10	14.461522	0.228521	0	0
0	0	0	-0.342036	6.31863	-27.331841	6.31863	22489	-5.886174E-11	-1.698896E+10	14.441008	0.227184	0	0
0	0	0	-0.342689	6.318825	-27.333575	6.318825	22483	-2.655107E-11	-3.766326E+10	14.563215	0.226205	0	0
0	0	0	-0.343465	6.318456	-27.333067	6.318456	22475.75	6.839389E-10	1.462119E+9	14.446199	0.225292	0	0
0	0	0	-0.342444	6.318595	-27.332255	6.318595	22485.25	-7.518154E-11	-1.330114E+10	14.534791	0.223916	0	0
0	0	0	-0.343914	6.318658	-27.33455	6.318658	22471.75	-5.010947E-11	-1.995631E+10	14.424011	0.223003	0	0
0	0	0	-0.343424	6.318616	-27.333696	6.318616	22476.25	-6.442574E-11	-1.552175E+10	14.267298	0.222143	0	0
0	0	0	-0.341056	6.318804	-27.331234	6.318804	22498	-2.822865E-11	-3.542501E+10	14.150935	0.220701	0	0
0	0	0	-0.34126	6.318846	-27.331694	6.318846	22496	-2.509106E-11	-3.985483E+10	14.120896	0.219801	0	0
0	0	0	-0.343057	6.318505	-27.332713	6.318505	22479.5	-2.698058E-10	-3.70637E+9	14.159634	0.218954	0	0
0	0	0	-0.343669	6.318519	-27.333617	6.318519	22474	-1.928908E-10	-5.18428E+9	14.013746	0.217551	0	0
0	0	0	-0.343996	6.318595	-27.334395	6.318595	22471	-7.513389E-11	-1.330957E+10	14.275415	0.216691	0	0
0	0	0	-0.345466	6.318463	-27.335856	6.318463	22457.75	1.380729E-9	7.242551E+8	14.091434	0.215633	0	0
0	0	0	-0.345874	6.318665	-27.337282	6.318665	22454	-4.828296E-11	-2.071124E+10	14.084689	0.214495	0	0
0	0	0	-0.344363	6.318658	-27.335169	6.318658	22467.75	-5.010055E-11	-1.995986E+10	14.241052	0.213516	0	0
0	0	0	-0.345752	6.318567	-27.336696	6.318567	22455	-9.650134E-11	-1.036255E+10	13.808311	0.212827	0	0
0	0	0	-0.346977	6.31863	-27.338653	6.31863	22444	-5.874396E-11	-1.702303E+10	13.822693	0.211597	0	0
0	0	0	-0.347344	6.318721	-27.339547	6.318721	22440.5	-3.753679E-11	-2.664053E+10	13.760042	0.210565	0	0
0	0	0	-0.347263	6.318477	-27.338393	6.318477	22441.25	-1.325608E-9	-7.543708E+8	13.760887	0.20985	0	0
0	0	0	-0.349345	6.318749	-27.342425	6.318749	22422.25	-3.375751E-11	-2.962304E+10	13.781693	0.208752	0	0
0	0	0	-0.34906	6.318665	-27.341673	6.318665	22425	-4.82206E-11	-2.073803E+10	13.798093	0.207508	0	0
0	0	0	-0.349182	6.318567	-27.341426	6.318567	22423.75	-9.636704E-11	-1.037699E+10	13.867948	0.206966	0	0
0	0	0	-0.349795	6.31902	-27.344205	6.31902	22418.25	-1.709358E-11	-5.850151E+10	13.690425	0.205616	0	0
0	0	0	-0.350693	6.318735	-27.344223	6.318735	22410	-3.551387E-11	-2.815801E+10	13.882928	0.204769	0	0
0	0	0	-0.352531	6.31863	-27.34631	6.31863	22393.5	-5.861178E-11	-1.706142E+10	13.750021	0.203724	0	0
0	0	0	-0.353633	6.318951	-27.349199	6.318951	22383.5	-1.953985E-11	-5.117745E+10	13.535002	0.202837	0	0
0	0	0	-0.352939	6.318804	-27.347617	6.318804	22389.75	-2.809282E-11	-3.559628E+10	13.808188	0.20162	0	0
0	0	0	-0.355063	6.318867	-27.350813	6.318867	22370.5	-2.363833E-11	-4.230418E+10	13.613882	0.201091	0	0
0	0	0	-0.355185	6.318714	-27.350327	6.318714	22369.25	-3.848607E-11	-2.598343E+10	13.519396	0.200006	0	0
0	0	0	-0.354736	6.318832	-27.350214	6.318832	22373.25	-2.591356E-11	-3.858984E+10	13.511938	0.198907	0	0
0	0	0	-0.355838	6.319013	-27.352508	6.319013	22363.5	-1.727039E-11	-5.790258E+10	13.4695	0.19818	0	0
0	0	0	-0.357104	6.318735	-27.353062	6.318735	22352	-3.542196E-11	-2.823108E+10	13.356809	0.197214	0	0
0	0	0	-0.357145	6.318742	-27.353148	6.318742	22351.5	-3.45134E-11	-2.897426E+10	13.601594	0.196076	0	0
0	0	0	-0.357758	6.318686	-27.353755	6.318686	22346	-4.340365E-11	-2.303954E+10	13.442594	0.195401	0	0
0	0	0	-0.358738	6.31879	-27.355552	6.31879	22337.25	-2.924498E-11	-3.41939E+10	13.144077	0.194409	0	0
0	0	0	-0.358329	6.318665	-27.354454	6.318665	22340.75	-4.803944E-11	-2.081623E+10	13.143861	0.193443	0	0
0	0	0	-0.358656	6.318749	-27.355261	6.318749	22337.75	-3.363029E-11	-2.97351E+10	13.160682	0.192781	0	0
0	0	0	-0.357309	6.31879	-27.353582	6.31879	22350	-2.926168E-11	-3.417439E+10	13.127507	0.191736	0	0
0	0	0	-0.35788	6.318825	-27.354519	6.318825	22344.75	-2.638781E-11	-3.789629E+10	13.145139	0.190677	0	0
0	0	0	-0.356369	6.318616	-27.351543	6.318616	22358.5	-6.408822E-11	-1.560349E+10	13.192587	0.189923	0	0
0	0	0	-0.356696	6.318783	-27.352708	6.318783	22355.75	-2.991934E-11	-3.34232E+10	12.859713	0.189063	0	0
0	0	0	-0.357554	6.318839	-27.354128	6.318839	22348	-2.539611E-11	-3.937611E+10	12.949964	0.187951	0	0
0	0	0	-0.356614	6.318679	-27.352149	6.318679	22356.25	-4.487005E-11	-2.228658E+10	12.959083	0.187382	0	0
0	0	0	-0.356288	6.318916	-27.35271	6.318916	22359.25	-2.104311E-11	-4.75215E+10	12.959644	0.186324	0	0
0	0	0	-0.355593	6.318651	-27.350622	6.318651	22365.5	-5.178925E-11	-1.930903E+10	13.089985	0.185212	0	0
0	0	0	-0.355757	6.318602	-27.350639	6.318602	22364	-7.084468E-11	-1.411539E+10	12.929505	0.184895	0	0
0	0	0	-0.354695	6.318644	-27.349354	6.318644	22373.75	-5.387903E-11	-1.85601E+10	12.726567	0.183796	0	0
0	0	0	-0.353266	6.318895	-27.348455	6.318895	22386.75	-2.210483E-11	-4.523899E+10	12.902353	0.182751	0	0
0	0	0	-0.352898	6.31879	-27.347501	6.31879	22390	-2.931405E-11	-3.411334E+10	12.93958	0.182195	0	0
0	0	0	-0.352081	6.318665	-27.34584	6.318665	22397.5	-4.816147E-11	-2.076349E+10	12.654585	0.181216	0	0
0	0	0	-0.352857	6.318797	-27.347475	6.318797	22390.5	-2.869125E-11	-3.485383E+10	12.911804	0.180171	0	0
0	0	0	-0.350652	6.318567	-27.343452	6.318567	22410.5	-9.631009E-11	-1.038313E+10	12.725488	0.179774	0	0
0	0	0	-0.350938	6.31879	-27.344799	6.31879	22408	-2.933761E-11	-3.408594E+10	12.494208	0.178676	0	0
0	0	0	-0.350162	6.318797	-27.343759	6.318797	22415	-2.872264E-11	-3.481574E+10	12.555491	0.177736	0	0
0	0	0	-0.350121	6.318707	-27.343316	6.318707	22415.25	-3.969882E-11	-2.518967E+10	12.486939	0.17726	0	0
0	0	0	-0.349713	6.318651	-27.342515	6.318651	22419	-5.191313E-11	-1.926295E+10	12.301031	0.17632	0	0
0	0	0	-0.35053	6.318832	-27.344415	6.318832	22411.75	-2.595815E-11	-3.852355E+10	12.452459	0.175301	0	0
0	0	0	-0.350121	6.318651	-27.343078	6.318651	22415.25	-5.190445E-11	-1.926617E+10	12.318112	0.175024	0	0
0	0	0	-0.350652	6.318623	-27.343691	6.318623	22410.5	-6.132005E-11	-1.630788E+10	12.390828	0.173846	0	0
0	0	0	-0.349917	6.318595	-27.342558	6.318595	22417.25	-7.495417E-11	-1.334149E+10	12.518223	0.173145	0	0
0	0	0	-0.350366	6.318609	-27.343237	6.318609	22413	-6.745345E-11	-1.482504E+10	12.367218	0.17247	0	0
0	0	0	-0.350979	6.318707	-27.344498	6.318707	22407.5	-3.968509E-11	-2.519838E+10	12.194598	0.171398	0	0
0	0	0	-0.351428	6.318679	-27.344998	6.318679	22403.5	-4.496488E-11	-2.223958E+10	12.245443	0.17067	0	0
0	0	0	-0.352776	6.318512	-27.346142	6.318512	22391.25	-2.241043E-10	-4.462209E+9	12.015296	0.170101	0	0
0	0	0	-0.351265	6.318533	-27.344148	6.318533	22405	-1.496603E-10	-6.681798E+9	12.034977	0.169162	0	0
0	0	0	-0.354164	6.318742	-27.349038	6.318742	22378.5	-3.455509E-11	-2.89393E+10	12.123453	0.168434	0	0
0	0	0	-0.354287	6.318609	-27.348642	6.318609	22377.5	-6.734661E-11	-1.484856E+10	12.009362	0.167839	0	0
0	0	0	-0.355267	6.318665	-27.350231	6.318665	22368.5	-4.809911E-11	-2.079041E+10	12.029967	0.16674	0	0
0	0	0	-0.355389	6.318881	-27.351323	6.318881	22367.5	-2.283424E-11	-4.379389E+10	12.203118	0.166105	0	0
0	0	0	-0.355757	6.318763	-27.351323	6.318763	22364	-3.206725E-11	-3.118446E+10	12.032589	0.16551	0	0
0	0	0	-0.356369	6.318547	-27.351245	6.318547	22358.5	-1.222445E-10	-8.180327E+9	12.044786	0.164292	0	0
0	0	0	-0.357513	6.318853	-27.354131	6.318853	22348.25	-2.447323E-11	-4.086098E+10	12.025313	0.163922	0	0
0	0	0	-0.358166	6.318811	-27.354854	6.318811	22342.25	-2.746135E-11	-3.641482E+10	11.834699	0.163287	0	0
0	0	0	-0.357513	6.318588	-27.353	6.318588	22348.25	-7.91138E-11	-1.264002E+10	11.854168	0.162228	0	0
0	0	0	-0.35837	6.318783	-27.355016	6.318783	22340.5	-2.989893E-11	-3.344601E+10	11.866227	0.161884	0	0
0	0	0	-0.360453	6.318909	-27.358423	6.318909	22321.75	-2.134116E-11	-4.68578E+10	11.642609	0.161051	0	0
0	0	0	-0.360739	6.318769	-27.358222	6.318769	22319	-3.125882E-11	-3.199097E+10	11.693732	0.160111	0	0
0	0	0	-0.359555	6.318728	-27.356411	6.318728	22329.75	-3.634258E-11	-2.751594E+10	11.641571	0.159688	0	0
0	0	0	-0.360739	6.318763	-27.358192	6.318763	22319	-3.200273E-11	-3.124734E+10	11.515899	0.158642	0	0
0	0	0	-0.360902	6.318693	-27.35812	6.318693	22317.5	-4.199451E-11	-2.381264E+10	11.655409	0.15802	0	0
0	0	0	-0.360902	6.318756	-27.358388	6.318756	22317.5	-3.27807E-11	-3.050576E+10	11.489691	0.15761	0	0
0	0	0	-0.360657	6.318888	-27.358615	6.318888	22319.75	-2.240586E-11	-4.463118E+10	11.436344	0.156499	0	0
0	0	0	-0.360167	6.318623	-27.356809	6.318623	22324.25	-6.108405E-11	-1.637089E+10	11.511993	0.155877	0	0
0	0	0	-0.360861	6.318839	-27.358688	6.318839	22318	-2.536202E-11	-3.942904E+10	11.3708	0.15548	0	0
0	0	0	-0.361964	6.318832	-27.360179	6.318832	22308	-2.583798E-11	-3.870272E+10	11.405475	0.15413	0	0
0	0	0	-0.359963	6.318742	-27.357033	6.318742	22326	-3.447402E-11	-2.900735E+10	11.499327	0.153786	0	0
0	0	0	-0.359922	6.318867	-27.357513	6.318867	22326.25	-2.359157E-11	-4.238802E+10	11.295192	0.153323	0	0
0	0	0	-0.360208	6.318839	-27.357788	6.318839	22323.75	-2.536855E-11	-3.941888E+10	11.320466	0.152145	0	0
0	0	0	-0.360575	6.31847	-27.356717	6.31847	22320.5	-6.724224E-8	-1.48716E+7	11.370778	0.151749	0	0
0	0	0	-0.358534	6.318721	-27.354973	6.318721	22339	-3.736701E-11	-2.676158E+10	11.238955	0.151047	0	0
0	0	0	-0.358534	6.31854	-27.354199	6.31854	22339	-1.343273E-10	-7.444503E+9	11.291298	0.150081	0	0
0	0	0	-0.358901	6.318602	-27.354974	6.318602	22335.5	-7.07544E-11	-1.41334E+10	11.291424	0.149711	0	0
0	0	0	-0.357023	6.318463	-27.351789	6.318463	22352.5	1.374258E-9	7.276653E+8	11.085101	0.148943	0	0
0	0	0	-0.355961	6.318491	-27.350444	6.318491	22362.25	-4.461458E-10	-2.24142E+9	11.233164	0.148017	0	0
0	0	0	-0.353756	6.318749	-27.348505	6.318749	22382.25	-3.369729E-11	-2.967598E+10	11.105181	0.147713	0	0
0	0	0	-0.353429	6.318574	-27.347311	6.318574	22385.25	-8.979668E-11	-1.113627E+10	11.034549	0.1468	0	0
0	0	0	-0.353184	6.318895	-27.348342	6.318895	22387.5	-2.210557E-11	-4.523747E+10	11.177638	0.146191	0	0
0	0	0	-0.354572	6.318553	-27.348798	6.318553	22374.75	-1.121559E-10	-8.916163E+9	11.011589	0.145675	0	0
0	0	0	-0.352653	6.318588	-27.3463	6.318588	22392.25	-7.926956E-11	-1.261518E+10	11.004954	0.144762	0	0
0	0	0	-0.352041	6.318902	-27.346795	6.318902	22397.75	-2.17591E-11	-4.595779E+10	11.004662	0.144484	0	0
0	0	0	-0.351836	6.318574	-27.345115	6.318574	22399.75	-8.985485E-11	-1.112906E+10	10.826655	0.14369	0	0
0	0	0	-0.352449	6.318679	-27.346406	6.318679	22394	-4.494582E-11	-2.224901E+10	10.935016	0.142883	0	0
0	0	0	-0.351918	6.318721	-27.345853	6.318721	22399	-3.746737E-11	-2.668989E+10	10.874816	0.142539	0	0
0	0	0	-0.351265	6.318679	-27.344773	6.318679	22405	-4.496789E-11	-2.223809E+10	10.774561	0.141613	0	0
0	0	0	-0.352449	6.31854	-27.345811	6.31854	22394	-1.34658E-10	-7.426219E+9	10.897058	0.14107	0	0
0	0	0	-0.351632	6.318442	-27.344268	6.318442	22401.5	3.39127E-10	2.948748E+9	10.711778	0.14062	0	0
0	0	0	-0.352163	6.318665	-27.345952	6.318665	22396.75	-4.815985E-11	-2.076418E+10	10.705149	0.139654	0	0
0	0	0	-0.352408	6.31863	-27.346141	6.31863	22394.5	-5.86144E-11	-1.706065E+10	10.771552	0.139218	0	0
0	0	0	-0.353184	6.318491	-27.346616	6.318491	22387.5	-4.466496E-10	-2.238892E+9	10.531645	0.138702	0	0
0	0	0	-0.352776	6.31863	-27.346648	6.31863	22391.25	-5.860589E-11	-1.706313E+10	10.727051	0.137736	0	0
0	0	0	-0.353511	6.3187	-27.347959	6.3187	22384.5	-4.084497E-11	-2.448282E+10	10.625434	0.137551	0	0
0	0	0	-0.356206	6.318776	-27.352002	6.318776	22360	-3.060483E-11	-3.267458E+10	10.552382	0.13636	0	0
0	0	0	-0.355063	6.318567	-27.349533	6.318567	22370.5	-9.613819E-11	-1.040169E+10	10.638861	0.136055	0	0
0	0	0	-0.355389	6.318609	-27.350162	6.318609	22367.5	-6.731652E-11	-1.485519E+10	10.446055	0.135473	0	0
0	0	0	-0.356288	6.318686	-27.351728	6.318686	22359.25	-4.342939E-11	-2.302588E+10	10.550563	0.134494	0	0
0	0	0	-0.356533	6.318616	-27.351768	6.318616	22357.25	-6.408464E-11	-1.560436E+10	10.46245	0.134282	0	0
0	0	0	-0.35788	6.318742	-27.354162	6.318742	22344.75	-3.450297E-11	-2.898301E+10	10.443152	0.133303	0	0
0	0	0	-0.358534	6.318742	-27.355063	6.318742	22339	-3.449409E-11	-2.899047E+10	10.562191	0.13288	0	0
0	0	0	-0.359187	6.318951	-27.356856	6.318951	22333	-1.949577E-11	-5.129318E+10	10.229508	0.132377	0	0
0	0	0	-0.359024	6.318574	-27.355024	6.318574	22334.5	-8.95931E-11	-1.116157E+10	10.431578	0.131345	0	0
0	0	0	-0.360045	6.318644	-27.356729	6.318644	22325.25	-5.376223E-11	-1.860042E+10	10.318026	0.131279	0	0
0	0	0	-0.361351	6.318853	-27.359424	6.318853	22313.5	-2.443517E-11	-4.092462E+10	10.293154	0.130154	0	0
0	0	0	-0.361433	6.318783	-27.359239	6.318783	22312.75	-2.986179E-11	-3.348761E+10	10.41957	0.129955	0	0
0	0	0	-0.362576	6.318693	-27.360428	6.318693	22302.25	-4.196581E-11	-2.382892E+10	10.207614	0.129135	0	0
0	0	0	-0.362699	6.318714	-27.360686	6.318714	22301.25	-3.836908E-11	-2.606266E+10	10.333164	0.128592	0	0
0	0	0	-0.363107	6.318714	-27.361249	6.318714	22297.75	-3.836305E-11	-2.606675E+10	10.129002	0.128156	0	0
0	0	0	-0.363475	6.318742	-27.361875	6.318742	22294.25	-3.442499E-11	-2.904866E+10	10.129861	0.127269	0	0
0	0	0	-0.363066	6.318763	-27.361401	6.318763	22298	-3.197261E-11	-3.127677E+10	10.150845	0.127005	0	0
0	0	0	-0.363679	6.318742	-27.362156	6.318742	22292.5	-3.442229E-11	-2.905094E+10	10.040473	0.125999	0	0
0	0	0	-0.362005	6.318721	-27.359759	6.318721	22307.5	-3.731431E-11	-2.679937E+10	10.237551	0.125642	0	0
0	0	0	-0.364292	6.318769	-27.36312	6.318769	22287	-3.1214E-11	-3.20369E+10	9.976529	0.125073	0	0
0	0	0	-0.360943	6.318728	-27.358325	6.318728	22317.25	-3.632223E-11	-2.753135E+10	10.171463	0.124292	0	0
0	0	0	-0.361841	6.318686	-27.359385	6.318686	22309	-4.333179E-11	-2.307775E+10	9.957025	0.12412	0	0
0	0	0	-0.360208	6.318818	-27.357698	6.318818	22323.75	-2.689006E-11	-3.718847E+10	10.085218	0.122982	0	0
0	0	0	-0.360984	6.318804	-27.358709	6.318804	22316.75	-2.800123E-11	-3.571272E+10	9.987212	0.12277	0	0
0	0	0	-0.360453	6.318595	-27.357084	6.318595	22321.75	-7.463486E-11	-1.339856E+10	9.916717	0.121924	0	0
0	0	0	-0.36029	6.318832	-27.357871	6.318832	22323	-2.585535E-11	-3.867671E+10	9.988119	0.121765	0	0
0	0	0	-0.359922	6.318707	-27.356828	6.318707	22326.25	-3.954119E-11	-2.529008E+10	9.868251	0.120891	0	0
0	0	0	-0.357145	6.318721	-27.353059	6.318721	22351.5	-3.738791E-11	-2.674661E+10	10.003869	0.120521	0	0
0	0	0	-0.356819	6.318512	-27.351716	6.318512	22354.5	-2.237365E-10	-4.469544E+9	9.714725	0.119978	0	0
0	0	0	-0.356941	6.318804	-27.353135	6.318804	22353.5	-2.804734E-11	-3.565401E+10	9.915334	0.119357	0	0
0	0	0	-0.355634	6.318686	-27.350827	6.318686	22365.25	-4.344104E-11	-2.301971E+10	9.705377	0.119039	0	0
0	0	0	-0.355961	6.318944	-27.352379	6.318944	22362.25	-1.98083E-11	-5.048389E+10	9.845901	0.118113	0	0
0	0	0	-0.355348	6.318672	-27.350373	6.318672	22367.75	-4.64401E-11	-2.153311E+10	9.705845	0.11798	0	0
0	0	0	-0.355512	6.31863	-27.35042	6.31863	22366.5	-5.854111E-11	-1.708201E+10	9.730282	0.117147	0	0
0	0	0	-0.353592	6.318679	-27.347982	6.318679	22383.75	-4.492524E-11	-2.22592E+10	9.672511	0.116869	0	0
0	0	0	-0.35298	6.318644	-27.346989	6.318644	22389.25	-5.391635E-11	-1.854725E+10	9.638581	0.116128	0	0
0	0	0	-0.35249	6.318644	-27.346313	6.318644	22393.75	-5.392719E-11	-1.854352E+10	9.674822	0.11581	0	0
0	0	0	-0.351714	6.318665	-27.345333	6.318665	22400.75	-4.816845E-11	-2.076048E+10	9.55661	0.115136	0	0
0	0	0	-0.352694	6.318714	-27.346893	6.318714	22392	-3.852521E-11	-2.595703E+10	9.658282	0.114818	0	0
0	0	0	-0.354777	6.318783	-27.350062	6.318783	22373	-2.994243E-11	-3.339743E+10	9.532389	0.114037	0	0
0	0	0	-0.353307	6.318658	-27.347499	6.318658	22386.25	-4.991882E-11	-2.003253E+10	9.600374	0.113812	0	0
0	0	0	-0.351428	6.318623	-27.34476	6.318623	22403.5	-6.13009E-11	-1.631297E+10	9.464505	0.112926	0	0
0	0	0	-0.352612	6.318644	-27.346482	6.318644	22392.75	-5.392478E-11	-1.854435E+10	9.61123	0.112701	0	0
0	0	0	-0.352694	6.318623	-27.346506	6.318623	22392	-6.126943E-11	-1.632135E+10	9.407607	0.112	0	0
0	0	0	-0.353837	6.318651	-27.348201	6.318651	22381.5	-5.18263E-11	-1.929522E+10	9.562801	0.111642	0	0
0	0	0	-0.355798	6.318776	-27.351439	6.318776	22363.75	-3.060997E-11	-3.26691E+10	9.395473	0.111007	0	0
0	0	0	-0.35592	6.3187	-27.351281	6.3187	22362.75	-4.080529E-11	-2.450663E+10	9.485418	0.110888	0	0
0	0	0	-0.355675	6.318728	-27.351062	6.318728	22365	-3.639995E-11	-2.747257E+10	9.320842	0.110015	0	0
0	0	0	-0.355308	6.318553	-27.349811	6.318553	22368.25	-1.121233E-10	-8.918754E+9	9.425638	0.109869	0	0
0	0	0	-0.356002	6.318769	-27.351691	6.318769	22362	-3.131905E-11	-3.192945E+10	9.392468	0.108916	0	0
0	0	0	-0.358207	6.318721	-27.354523	6.318721	22342	-3.737202E-11	-2.675798E+10	9.40863	0.108784	0	0
0	0	0	-0.358534	6.318588	-27.354408	6.318588	22339	-7.908105E-11	-1.264525E+10	9.262155	0.108056	0	0
0	0	0	-0.359718	6.318728	-27.356636	6.318728	22328.25	-3.634014E-11	-2.751778E+10	9.289626	0.107871	0	0
0	0	0	-0.359677	6.318769	-27.356758	6.318769	22328.5	-3.127213E-11	-3.197736E+10	9.309853	0.107038	0	0
0	0	0	-0.361392	6.318735	-27.358974	6.318735	22313	-3.536015E-11	-2.828042E+10	9.253893	0.106879	0	0
0	0	0	-0.361474	6.318707	-27.358967	6.318707	22312.5	-3.951684E-11	-2.530567E+10	9.341257	0.106072	0	0
0	0	0	-0.361311	6.318756	-27.358951	6.318756	22313.75	-3.277519E-11	-3.051089E+10	9.17273	0.106005	0	0
0	0	0	-0.361596	6.318895	-27.35994	6.318895	22311.25	-2.203028E-11	-4.539207E+10	9.333192	0.105145	0	0
0	0	0	-0.362209	6.318923	-27.360904	6.318923	22305.75	-2.066989E-11	-4.837955E+10	9.093778	0.105053	0	0
0	0	0	-0.361801	6.318811	-27.359864	6.318811	22309.5	-2.74211E-11	-3.646827E+10	9.296434	0.104338	0	0
0	0	0	-0.363393	6.318679	-27.361494	6.318679	22295	-4.474712E-11	-2.234781E+10	0	0	0	0
0	0	0	-0.361964	6.318742	-27.359792	6.318742	22308	-3.444623E-11	-2.903076E+10	0	0	0	0
0	0	0	-0.362372	6.318707	-27.360206	6.318707	22304.25	-3.950223E-11	-2.531503E+10	0	0	0	0
0	0	0	-0.36225	6.318804	-27.360454	6.318804	22305.25	-2.79868E-11	-3.573113E+10	0	0	0	0
0	0	0	-0.364047	6.318728	-27.362604	6.318728	22289	-3.627626E-11	-2.756624E+10	0	0	0	0
0	0	0	-0.362944	6.318769	-27.361262	6.318769	22299	-3.123081E-11	-3.201966E+10	0	0	0	0
0	0	0	-0.362536	6.31856	-27.359806	6.31856	22302.75	-1.032086E-10	-9.689119E+9	0	0	0	0
0	0	0	-0.361392	6.318658	-27.358646	6.318658	22313	-4.975548E-11	-2.009829E+10	0	0	0	0
0	0	0	-0.362413	6.318686	-27.360173	6.318686	22303.75	-4.332159E-11	-2.308318E+10	0	0	0	0
0	0	0	-0.361719	6.318804	-27.359722	6.318804	22310.25	-2.799307E-11	-3.572312E+10	0	0	0	0
0	0	0	-0.360167	6.318686	-27.357076	6.318686	22324.25	-4.336141E-11	-2.306198E+10	0	0	0	0
0	0	0	-0.361311	6.318728	-27.358832	6.318728	22313.75	-3.631654E-11	-2.753567E+10	0	0	0	0
0	0	0	-0.359595	6.31879	-27.356735	6.31879	22329.5	-2.923484E-11	-3.420577E+10	0	0	0	0
0	0	0	-0.358983	6.318756	-27.355741	6.318756	22335	-3.28064E-11	-3.048186E+10	0	0	0	0
0	0	0	-0.357717	6.318686	-27.353698	6.318686	22346.5	-4.340462E-11	-2.303902E+10	0	0	0	0
0	0	0	-0.3569	6.318735	-27.352781	6.318735	22353.75	-3.542473E-11	-2.822887E+10	0	0	0	0
0	0	0	-0.356247	6.318811	-27.352207	6.318811	22359.75	-2.748286E-11	-3.638632E+10	0	0	0	0
0	0	0	-0.355716	6.318763	-27.351267	6.318763	22364.5	-3.206797E-11	-3.118377E+10	0	0	0	0
0	0	0	-0.355553	6.318651	-27.350566	6.318651	22366	-5.17904E-11	-1.93086E+10	0	0	0	0
0	0	0	-0.355798	6.318811	-27.351588	6.318811	22363.75	-2.748778E-11	-3.637981E+10	0	0	0	0
0	0	0	-0.355389	6.318763	-27.350817	6.318763	22367.5	-3.207227E-11	-3.117958E+10	0	0	0	0
0	0	0	-0.35396	6.318581	-27.348072	6.318581	22380.5	-8.417353E-11	-1.188022E+10	0	0	0	0
0	0	0	-0.353511	0	-0.353511	0	22384.5	0	0	0	0	0	0
0	0	0	-0.353062	0	-0.353062	0	22388.5	0	0	0	0	0	0
