Vload_(V)	ILoad_(A)	RsLoad (ohm)	SunsVoc_Voltage_(V)	SunsVoc_Current_(A)	Model_Voltage_(V)	Model_Current_(A)	Carrier_Density_(cm-3)	Lifetime_(s)	Inverse_Lifetime_(s-1)	Efficiency_(%)	Intensity_(suns)	Dark_IV_Voltage_(V)	Dark_IV_Current_(A)
3.378108	5.935977	0	51.678924	-0.513658	51.951577	-0.513658	6.895949E+15	0.000476	2023.54596	18.849905	1.139883	0	0
3.348865	5.937475	-0.60791	52.175415	-0.733501	52.542163	-0.733501	8.250806E+15	0.00055	1704.130146	18.75508	1.137845	0	0
3.475686	5.936028	1.907945	52.265296	-0.535096	52.529858	-0.535096	8.518337E+15	0.000586	1587.254383	18.667663	1.135635	0	0
6.096156	5.932912	4.074826	52.219192	-0.184246	52.310813	-0.184246	8.380216E+15	0.000609	1525.160084	18.458532	1.133796	0	0
10.909525	5.905753	4.922299	52.118121	0.199883	52.01747	0.199883	8.083965E+15	0.000627	1486.603114	18.447112	1.133002	0	0
14.660817	5.902046	4.349037	51.996265	0.574596	51.702581	0.574596	7.738463E+15	0.000642	1458.042254	18.492702	1.131997	0	0
18.085592	5.89828	3.824476	51.870897	0.919022	51.394021	0.919022	7.395939E+15	0.000656	1434.089228	18.442066	1.130779	0	0
22.353483	5.88356	3.270509	51.744875	1.238928	51.092313	1.238928	7.064444E+15	0.000669	1411.803937	18.397334	1.128199	0	0
26.868116	5.879413	2.541133	51.62065	1.532789	50.801491	1.532789	6.749859E+15	0.000682	1390.810066	18.358072	1.124507	0	0
31.339151	5.873394	1.829849	51.495037	1.809666	50.513801	1.809666	6.443677E+15	0.000695	1370.603223	18.454741	1.11985	0	0
35.753746	5.854859	1.199415	51.365911	2.070246	50.226795	2.070246	6.141036E+15	0.000707	1352.480724	18.427912	1.115377	0	0
36.873279	5.835762	1.103536	51.241686	2.317359	49.948736	2.317359	5.861097E+15	0.000721	1330.867101	18.465736	1.111738	0	0
37.965597	5.801992	1.046025	51.10762	2.551767	49.662653	2.551767	5.57093E+15	0.000732	1314.075457	18.325989	1.10843	0	0
39.071453	5.754703	0.989768	50.976208	2.761769	49.389803	2.761769	5.29816E+15	0.000743	1300.200449	18.359254	1.1045	0	0
40.173176	5.691363	0.930534	50.848062	2.958516	49.125115	2.958516	5.042921E+15	0.000753	1285.044202	18.420444	1.099631	0	0
41.250133	5.604629	0.877042	50.724532	3.140116	48.871754	3.140116	4.806602E+15	0.000765	1269.23142	18.402819	1.094272	0	0
42.315075	5.481923	0.831123	50.597816	3.310538	48.61845	3.310538	4.573804E+15	0.000775	1255.649324	18.362369	1.088926	0	0
43.373233	5.31779	0.785331	50.470732	3.468613	48.369499	3.468613	4.349804E+15	0.000784	1243.724485	18.321748	1.083223	0	0
44.422122	5.090895	0.745593	50.350795	3.612657	48.135413	3.612657	4.146831E+15	0.000794	1230.91516	18.385273	1.077758	0	0
45.413837	4.807153	0.711414	50.228245	3.749164	47.90064	3.749164	3.947632E+15	0.000803	1219.410788	18.375489	1.072333	0	0
46.387928	4.439061	0.68497	50.105898	3.874141	47.671289	3.874141	3.756777E+15	0.000811	1210.331822	18.434125	1.067623	0	0
47.34539	3.96274	0.669446	49.986737	3.989299	47.450259	3.989299	3.578348E+15	0.000818	1201.679344	18.26346	1.062131	0	0
48.287626	3.387693	0.657083	49.867617	4.098231	47.231582	4.098231	3.407113E+15	0.000825	1193.255378	18.243884	1.05619	0	0
49.190341	2.731711	0.654512	49.747802	4.202588	47.013396	4.202588	3.241854E+15	0.000832	1184.526462	18.313579	1.049614	0	0
50.079721	1.990762	0.67923	49.627947	4.301048	46.797487	4.301048	3.08332E+15	0.000839	1176.207709	18.364262	1.04358	0	0
50.868386	1.289774	0.677782	49.507765	4.390682	46.585571	4.390682	2.930951E+15	0.000844	1170.948578	18.377643	1.037877	0	0
51.514217	0.691227	0.604097	49.388073	4.475333	46.376298	4.475333	2.785564E+15	0.000848	1165.87327	18.28448	1.031962	0	0
42.180405	5.501297	0.835143	49.273444	4.554444	46.176032	4.554444	2.652092E+15	0.000854	1159.345619	18.257991	1.026087	0	0
52.069595	0	0	49.154651	4.629632	45.971974	4.629632	2.519532E+15	0.000858	1155.009641	18.236811	1.020133	0	0
0	0	0	49.035	4.700632	45.76861	4.700632	2.391756E+15	0.000861	1151.587632	18.335207	1.014165	0	0
0	0	0	48.918166	4.76733	45.570864	4.76733	2.272367E+15	0.000865	1147.532057	18.265031	1.008251	0	0
0	0	0	48.801292	4.829989	45.374963	4.829989	2.15808E+15	0.000868	1144.328176	18.219394	1.001767	0	0
0	0	0	48.680987	4.890052	45.175543	4.890052	2.045633E+15	0.00087	1142.436974	18.246958	0.995826	0	0
0	0	0	48.562929	4.945968	44.981164	4.945968	1.940236E+15	0.000872	1140.78522	18.266338	0.989766	0	0
0	0	0	48.446912	4.998538	44.791089	4.998538	1.841275E+15	0.000874	1138.873359	18.340205	0.984208	0	0
0	0	0	48.332406	5.048581	44.604109	5.048581	1.747934E+15	0.000876	1136.188336	18.258209	0.978293	0	0
0	0	0	48.217043	5.096642	44.416765	5.096642	1.658095E+15	0.000879	1133.372796	18.250873	0.972471	0	0
0	0	0	48.103558	5.140194	44.234606	5.140194	1.573692E+15	0.00088	1132.644895	18.193513	0.966385	0	0
0	0	0	47.992482	5.18117	44.056974	5.18117	1.494762E+15	0.000881	1131.448322	18.375661	0.960602	0	0
0	0	0	47.878303	5.220716	43.875764	5.220716	1.417288E+15	0.000881	1131.14971	18.33111	0.954965	0	0
0	0	0	47.765676	5.25633	43.699094	5.25633	1.344375E+15	0.00088	1133.462875	18.262646	0.949342	0	0
0	0	0	47.657296	5.29005	43.529046	5.29005	1.27738E+15	0.00088	1134.016207	18.261246	0.94348	0	0
0	0	0	47.543157	5.322063	43.352229	5.322063	1.210064E+15	0.000877	1138.058695	18.302992	0.937803	0	0
0	0	0	47.437881	5.351416	43.188875	5.351416	1.150812E+15	0.000876	1139.6731	18.39468	0.932312	0	0
0	0	0	47.324069	5.380812	43.013719	5.380812	1.089704E+15	0.000873	1143.29204	18.334151	0.926662	0	0
0	0	0	47.218139	5.407651	42.850742	5.407651	1.035476E+15	0.000872	1145.196039	18.337508	0.921197	0	0
0	0	0	47.108615	5.433404	42.683489	5.433404	9.81991E+14	0.000869	1148.891727	18.258166	0.915415	0	0
0	0	0	47.001583	5.456514	42.521392	5.456514	9.321624E+14	0.000865	1154.817456	18.444878	0.909659	0	0
0	0	0	46.89357	5.479611	42.357684	5.479611	8.842272E+14	0.000862	1158.923976	18.45596	0.904538	0	0
0	0	0	46.787966	5.50069	42.198583	5.50069	8.395542E+14	0.000858	1164.346723	18.358638	0.898994	0	0
0	0	0	46.680239	5.521637	42.036467	5.521637	7.961282E+14	0.000855	1168.894893	18.353218	0.893701	0	0
0	0	0	46.571573	5.540239	41.874794	5.540239	7.544301E+14	0.000848	1178.235646	18.305148	0.887866	0	0
0	0	0	46.466909	5.558491	41.718554	5.558491	7.161863E+14	0.000844	1184.008915	18.380864	0.882626	0	0
0	0	0	46.358692	5.575995	41.557937	5.575995	6.78542E+14	0.000839	1191.838515	18.28297	0.877386	0	0
0	0	0	46.25366	5.592956	41.401848	5.592956	6.437743E+14	0.000835	1197.096174	18.275468	0.872384	0	0
0	0	0	46.13891	5.609185	41.233075	5.609185	6.076945E+14	0.000827	1208.252206	18.11245	0.867025	0	0
0	0	0	46.034899	5.624261	41.079575	5.624261	5.76636E+14	0.000823	1214.651474	18.217174	0.861786	0	0
0	0	0	45.926886	5.638658	40.921082	5.638658	5.459645E+14	0.000817	1223.698372	18.264372	0.856771	0	0
0	0	0	45.820262	5.651984	40.765229	5.651984	5.171991E+14	0.00081	1233.915627	18.214035	0.852153	0	0
0	0	0	45.714699	5.664987	40.610926	5.664987	4.901343E+14	0.000805	1242.485495	18.271166	0.846794	0	0
0	0	0	45.608687	5.677144	40.456612	5.677144	4.643074E+14	0.000798	1252.800863	18.223012	0.841527	0	0
0	0	0	45.500675	5.688998	40.299708	5.688998	4.393245E+14	0.000791	1263.443107	18.265327	0.836499	0	0
0	0	0	45.394704	5.700024	40.146173	5.700024	4.160603E+14	0.000784	1274.571563	18.182282	0.831828	0	0
0	0	0	45.290979	5.710637	39.995916	5.710637	3.944299E+14	0.000779	1284.022672	18.24204	0.826946	0	0
0	0	0	45.181251	5.720552	39.838041	5.720552	3.727191E+14	0.00077	1299.062777	18.10783	0.822156	0	0
0	0	0	45.078506	5.729856	39.690072	5.729856	3.53431E+14	0.000763	1310.812393	18.249078	0.817048	0	0
0	0	0	44.969472	5.739141	39.533474	5.739141	3.340111E+14	0.000755	1324.5732	18.338435	0.812483	0	0
0	0	0	44.865829	5.747774	39.384684	5.747774	3.165053E+14	0.000748	1336.541535	18.254134	0.807825	0	0
0	0	0	44.761206	5.756083	39.234765	5.756083	2.997319E+14	0.000741	1349.051151	18.293056	0.803327	0	0
0	0	0	44.65401	5.763368	39.082235	5.763368	2.834372E+14	0.00073	1368.854508	18.270977	0.798232	0	0
0	0	0	44.551714	5.770652	38.936264	5.770652	2.68688E+14	0.000723	1383.071688	18.347854	0.793667	0	0
0	0	0	44.44611	5.777724	38.785914	5.777724	2.542424E+14	0.000715	1399.147069	18.252001	0.789089	0	0
0	0	0	44.342835	5.784449	38.638977	5.784449	2.408452E+14	0.000707	1414.217525	18.302238	0.784458	0	0
0	0	0	44.235435	5.790832	38.486688	5.790832	2.276409E+14	0.000698	1433.238485	18.156685	0.779998	0	0
0	0	0	44.134731	5.796761	38.343873	5.796761	2.159013E+14	0.00069	1449.452904	18.247235	0.775129	0	0
0	0	0	44.026637	5.802871	38.190748	5.802871	2.039564E+14	0.000682	1467.011549	18.257967	0.77071	0	0
0	0	0	43.92283	5.808437	38.043925	5.808437	1.930932E+14	0.000673	1484.745683	18.152056	0.76629	0	0
0	0	0	43.814695	5.813765	37.891383	5.813765	1.823784E+14	0.000664	1506.314329	18.11627	0.761593	0	0
0	0	0	43.707091	5.818776	37.739818	5.818776	1.722939E+14	0.000654	1529.111119	17.999262	0.757054	0	0
0	0	0	43.606061	5.82335	37.597587	5.82335	1.633236E+14	0.000645	1550.150547	18.107381	0.752582	0	0
0	0	0	43.498171	5.828328	37.445538	5.828328	1.542495E+14	0.000637	1568.798345	17.967059	0.748215	0	0
0	0	0	43.393915	5.832749	37.298954	5.832749	1.459517E+14	0.000629	1589.910541	17.928146	0.743981	0	0
0	0	0	43.2897	5.836807	37.152749	5.836807	1.380957E+14	0.000619	1614.290375	17.748375	0.739681	0	0
0	0	0	43.180666	5.841023	36.999761	5.841023	1.303213E+14	0.000611	1637.886799	17.933301	0.735049	0	0
0	0	0	43.07494	5.845179	36.851286	5.845179	1.231946E+14	0.000604	1656.803244	18.030182	0.731066	0	0
0	0	0	42.968684	5.848451	36.70298	5.848451	1.164191E+14	0.000592	1690.048648	17.965067	0.72707	0	0
0	0	0	42.861896	5.852408	36.553169	5.852408	1.099799E+14	0.000585	1708.11163	17.958603	0.722942	0	0
0	0	0	42.753434	5.855885	36.401544	5.855885	1.037996E+14	0.000577	1734.522365	17.981293	0.718734	0	0
0	0	0	42.647912	5.859186	36.254073	5.859186	9.811611E+13	0.000568	1759.365413	18.09633	0.714579	0	0
0	0	0	42.535979	5.86218	36.098153	5.86218	9.242312E+13	0.000557	1794.93026	17.982534	0.710649	0	0
0	0	0	42.429886	5.86503	35.950314	5.86503	8.732902E+13	0.000548	1826.255485	18.088156	0.706614	0	0
0	0	0	42.322567	5.867806	35.80085	5.867806	8.245872E+13	0.000538	1858.457423	17.919022	0.702631	0	0
0	0	0	42.222477	5.870689	35.661091	5.870689	7.815911E+13	0.000533	1877.784627	18.074872	0.69845	0	0
0	0	0	42.113974	5.872834	35.510646	5.872834	7.374864E+13	0.00052	1924.696302	18.060147	0.694705	0	0
0	0	0	42.002286	5.875337	35.355421	5.875337	6.946621E+13	0.00051	1962.339798	17.890938	0.691079	0	0
0	0	0	41.889536	5.877694	35.198878	5.877694	6.539315E+13	0.000499	2003.55312	17.807286	0.687242	0	0
0	0	0	41.779359	5.880116	35.04574	5.880116	6.164203E+13	0.000491	2037.157119	17.751121	0.683431	0	0
0	0	0	41.659177	5.88243	34.879036	5.88243	5.779341E+13	0.00048	2082.799948	17.853567	0.679409	0	0
0	0	0	41.548264	5.884631	34.725083	5.884631	5.445371E+13	0.000472	2119.684923	17.654796	0.675757	0	0
0	0	0	41.428736	5.886637	34.559563	5.886637	5.106888E+13	0.00046	2171.87298	17.6506	0.672184	0	0
0	0	0	41.317905	5.888468	34.406096	5.888468	4.811748E+13	0.000451	2219.551405	17.432836	0.66832	0	0
0	0	0	41.200214	5.890425	34.243087	5.890425	4.516882E+13	0.000441	2267.069607	17.527244	0.664483	0	0
0	0	0	41.082646	5.892257	34.080364	5.892257	4.240266E+13	0.000431	2317.796363	17.619115	0.660672	0	0
0	0	0	40.968385	5.893966	33.922279	5.893966	3.987591E+13	0.000422	2368.315703	17.619242	0.657258	0	0
0	0	0	40.845957	5.895606	33.753099	5.895606	3.73346E+13	0.000411	2430.816266	17.658866	0.653461	0	0
0	0	0	40.729573	5.897312	33.592068	5.897312	3.506839E+13	0.000403	2478.524273	17.588874	0.649835	0	0
0	0	0	40.610901	5.898804	33.42815	5.898804	3.289863E+13	0.000394	2540.032972	17.662042	0.646011	0	0
0	0	0	40.487289	5.900176	33.257607	5.900176	3.078059E+13	0.000382	2614.66306	17.624813	0.642663	0	0
0	0	0	40.36678	5.901678	33.091121	5.901678	2.884658E+13	0.000374	2672.855991	17.743928	0.638958	0	0
0	0	0	40.241739	5.903016	32.918625	5.903016	2.696773E+13	0.000364	2747.591803	17.574005	0.635174	0	0
0	0	0	40.118085	5.904509	32.74781	5.904509	2.522972E+13	0.000357	2803.814397	17.728299	0.631456	0	0
0	0	0	39.994636	5.905733	32.577589	5.905733	2.360598E+13	0.000347	2880.071901	17.70028	0.628002	0	0
0	0	0	39.867226	5.906915	32.40199	5.906915	2.203934E+13	0.000337	2964.228283	17.536527	0.624615	0	0
0	0	0	39.739694	5.90807	32.226239	5.90807	2.057503E+13	0.000328	3049.071898	17.476037	0.621082	0	0
0	0	0	39.608404	5.909413	32.045095	5.909413	1.916889E+13	0.000321	3115.252236	17.352729	0.617483	0	0
0	0	0	39.480831	5.910379	31.869492	5.910379	1.789446E+13	0.000311	3215.688237	17.415281	0.613804	0	0
0	0	0	39.347091	5.911322	31.685477	5.911322	1.664911E+13	0.0003	3328.891559	17.287074	0.610629	0	0
0	0	0	39.21135	5.912094	31.498933	5.912094	1.547354E+13	0.000288	3469.624106	17.29444	0.607307	0	0
0	0	0	39.074792	5.913159	31.310877	5.913159	1.437448E+13	0.00028	3568.486505	17.034166	0.603867	0	0
0	0	0	38.938684	5.914078	31.123608	5.914078	1.335659E+13	0.000271	3685.707806	17.099028	0.600427	0	0
0	0	0	38.801922	5.914977	30.935457	5.914977	1.240628E+13	0.000263	3805.180534	17.217803	0.597119	0	0
0	0	0	38.662098	5.9157	30.74334	5.9157	1.150445E+13	0.000252	3962.197581	17.105743	0.593903	0	0
0	0	0	38.521457	5.916717	30.549697	5.916717	1.066339E+13	0.000246	4060.303977	17.102734	0.590635	0	0
0	0	0	38.376773	5.917339	30.351044	5.917339	9.862184E+12	0.000235	4248.262212	17.002359	0.587142	0	0
0	0	0	38.233477	5.917991	30.154238	5.917991	9.127947E+12	0.000226	4429.411073	17.18328	0.58386	0	0
0	0	0	38.08818	5.918827	29.954432	5.918827	8.43919E+12	0.000219	4568.41044	17.051179	0.580936	0	0
0	0	0	37.939086	5.919622	29.749474	5.919622	7.786365E+12	0.000212	4721.859628	17.171165	0.577694	0	0
0	0	0	37.788644	5.92036	29.542738	5.92036	7.178767E+12	0.000204	4890.374915	17.065998	0.574532	0	0
0	0	0	37.635139	5.920905	29.33207	5.920905	6.607601E+12	0.000195	5127.56922	17.248072	0.571078	0	0
0	0	0	37.481144	5.921348	29.120867	5.921348	6.080234E+12	0.000185	5408.710802	17.240646	0.567903	0	0
0	0	0	37.323719	5.922155	28.904447	5.922155	5.584568E+12	0.00018	5563.802242	17.080438	0.564846	0	0
0	0	0	37.163272	5.922778	28.684141	5.922778	5.120916E+12	0.000173	5794.12013	17.003019	0.561869	0	0
0	0	0	36.999844	5.923145	28.460115	5.923145	4.688178E+12	0.000163	6152.70787	16.853844	0.558587	0	0
0	0	0	36.833272	5.923688	28.231526	5.923688	4.284702E+12	0.000155	6447.226488	16.965297	0.555398	0	0
0	0	0	36.662738	5.923948	27.997922	5.923948	3.907561E+12	0.000145	6919.959431	16.79334	0.552355	0	0
0	0	0	36.490122	5.924677	27.760774	5.924677	3.559593E+12	0.00014	7136.358148	16.774574	0.549404	0	0
0	0	0	36.316403	5.924812	27.522983	5.924812	3.240666E+12	0.000129	7744.567004	16.516652	0.546387	0	0
0	0	0	36.13905	5.925293	27.279701	5.925293	2.944515E+12	0.000123	8156.340664	16.606163	0.543264	0	0
0	0	0	35.958838	5.92572	27.032581	5.92572	2.671289E+12	0.000116	8631.515511	16.517259	0.540234	0	0
0	0	0	35.776503	5.926172	26.782509	5.926172	2.420628E+12	0.00011	9105.909631	16.388635	0.537482	0	0
0	0	0	35.588981	5.926512	26.525503	5.926512	2.187342E+12	0.000103	9727.363572	16.384307	0.534373	0	0
0	0	0	35.398397	5.926961	26.264132	5.926961	1.973264E+12	9.736395E-5	10270.741627	16.315161	0.531435	0	0
0	0	0	35.204545	5.927205	25.998602	5.927205	1.776993E+12	9.011223E-5	11097.272471	16.465324	0.528286	0	0
0	0	0	35.008693	5.92765	25.730013	5.92765	1.598511E+12	8.539286E-5	11710.580922	16.331973	0.525573	0	0
0	0	0	34.810799	5.927924	25.458891	5.927924	1.436366E+12	7.934073E-5	12603.867226	16.464601	0.52294	0	0
0	0	0	34.607474	5.928453	25.179926	5.928453	1.286882E+12	7.608112E-5	13143.86608	16.398719	0.519936	0	0
0	0	0	34.396063	5.928798	24.890182	5.928798	1.147925E+12	7.113111E-5	14058.545686	16.529331	0.51684	0	0
0	0	0	34.185754	5.928742	24.602586	5.928742	1.024581E+12	6.299542E-5	15874.170831	16.543143	0.514339	0	0
0	0	0	33.972179	5.929267	24.309576	5.929267	9.128752E+11	6.051709E-5	16524.258183	16.417548	0.51164	0	0
0	0	0	33.755377	5.929471	24.012666	5.929471	8.119299E+11	5.551282E-5	18013.856592	16.348292	0.508954	0	0
0	0	0	33.536657	5.929987	23.712607	5.929987	7.213973E+11	5.357574E-5	18665.164085	16.1953	0.505911	0	0
0	0	0	33.315404	5.93007	23.409795	5.93007	6.400818E+11	4.820298E-5	20745.603806	16.222286	0.503476	0	0
0	0	0	33.088026	5.93057	23.097898	5.93057	5.660542E+11	4.657114E-5	21472.52685	16.073058	0.500816	0	0
0	0	0	32.869101	5.930584	22.798376	5.930584	5.028801E+11	4.148406E-5	24105.647258	15.994731	0.498223	0	0
0	0	0	32.639191	5.930855	22.483388	5.930855	4.441112E+11	3.856749E-5	25928.572006	15.935356	0.49547	0	0
0	0	0	32.403074	5.931288	22.159618	5.931288	3.908961E+11	3.70846E-5	26965.369646	16.132068	0.492784	0	0
0	0	0	32.157564	5.931564	21.82326	5.931564	3.423148E+11	3.45069E-5	28979.714344	16.026722	0.490297	0	0
0	0	0	31.917159	5.931649	21.494214	5.931649	3.005994E+11	3.089582E-5	32366.843019	15.893967	0.487809	0	0
0	0	0	31.670465	5.931805	21.156434	5.931805	2.630715E+11	2.805198E-5	35648.1026	15.858245	0.485004	0	0
0	0	0	31.424221	5.932131	20.818961	5.932131	2.302844E+11	2.66354E-5	37544.024949	15.979448	0.482225	0	0
0	0	0	31.175485	5.932155	20.478614	5.932155	2.013124E+11	2.343164E-5	42677.33857	16.22764	0.479764	0	0
0	0	0	30.922543	5.9325	20.131928	5.9325	1.755855E+11	2.246134E-5	44520.9383	15.913194	0.477515	0	0
0	0	0	30.666988	5.932713	19.781898	5.932713	1.529301E+11	2.084009E-5	47984.440035	15.640367	0.474789	0	0
0	0	0	30.407676	5.932755	19.427036	5.932755	1.329276E+11	1.835381E-5	54484.593442	15.482272	0.47201	0	0
0	0	0	30.147751	5.932883	19.071176	5.932883	1.155031E+11	1.660395E-5	60226.627422	15.547904	0.469496	0	0
0	0	0	29.88166	5.933193	18.706531	5.933193	1.000286E+11	1.598202E-5	62570.30497	15.556673	0.46726	0	0
0	0	0	29.613608	5.933339	18.339505	5.933339	8.653548E+10	1.459303E-5	68525.849841	15.65605	0.46468	0	0
0	0	0	29.347517	5.933511	17.975107	5.933511	7.494186E+10	1.352031E-5	73962.810143	15.550583	0.462192	0	0
0	0	0	29.077138	5.933631	17.604937	5.933631	6.475123E+10	1.227721E-5	81451.700913	15.848635	0.459466	0	0
0	0	0	28.804594	5.933842	17.231625	5.933842	5.58809E+10	1.164243E-5	85892.747259	15.755615	0.457283	0	0
0	0	0	28.529846	5.933922	16.855546	5.933922	4.816826E+10	1.042572E-5	95916.625709	15.507233	0.454782	0	0
0	0	0	28.25375	5.934054	16.477516	5.934054	4.148987E+10	9.597072E-6	104198.443798	15.185797	0.452268	0	0
0	0	0	27.973692	5.934199	16.094037	5.934199	3.566097E+10	8.921796E-6	112085.060712	15.032747	0.449714	0	0
0	0	0	27.692778	5.934134	15.709802	5.934134	3.063676E+10	7.396399E-6	135200.923842	15.30815	0.447597	0	0
0	0	0	27.409412	5.934312	15.321723	5.934312	2.628557E+10	7.022552E-6	142398.371828	15.117044	0.445017	0	0
0	0	0	27.124414	5.934444	14.931498	5.934444	2.253244E+10	6.536463E-6	152987.934945	15.10652	0.442529	0	0
0	0	0	26.840804	5.934523	14.543277	5.934523	1.93297E+10	5.912482E-6	169133.708544	15.2264	0.440042	0	0
0	0	0	26.553968	5.934687	14.150461	5.934687	1.65533E+10	5.707468E-6	175209.049588	15.390473	0.437858	0	0
0	0	0	26.26656	5.934759	13.75705	5.934759	1.417131E+10	5.176868E-6	193167.004591	14.881695	0.435596	0	0
0	0	0	25.974823	5.934838	13.3577	5.934838	1.210372E+10	4.728039E-6	211504.186175	14.607139	0.433452	0	0
0	0	0	25.683086	5.934793	12.958614	5.934793	1.033779E+10	3.883126E-6	257524.457256	14.769299	0.430792	0	0
0	0	0	25.390533	5.934734	12.55844	5.934734	8.825614E+9	3.15877E-6	316578.960563	14.995675	0.428609	0	0
0	0	0	25.095407	5.934859	12.154349	5.934859	7.524162E+9	2.993064E-6	334105.7328	14.856336	0.426571	0	0
0	0	0	24.795912	5.935036	11.744159	5.935036	6.399491E+9	3.024205E-6	330665.429756	14.803998	0.424309	0	0
0	0	0	24.497845	5.935134	11.336093	5.935134	5.447137E+9	2.87453E-6	347882.9083	15.000102	0.421887	0	0
0	0	0	24.200147	5.935016	10.929009	5.935016	4.637431E+9	2.147491E-6	465659.721037	14.614999	0.419757	0	0
0	0	0	23.900324	5.935075	10.518625	5.935075	3.943557E+9	1.945762E-6	513937.534163	14.55925	0.417812	0	0
0	0	0	23.598828	5.935481	10.10516	5.935481	3.350469E+9	3.007016E-6	332555.564417	14.491615	0.415496	0	0
0	0	0	23.295126	5.935311	9.689982	5.935311	2.843187E+9	1.899827E-6	526363.78887	14.518309	0.413048	0	0
0	0	0	22.989587	5.93539	9.271721	5.93539	2.410315E+9	1.826294E-6	547556.936869	14.721185	0.410997	0	0
0	0	0	22.676901	5.935449	8.843724	5.935449	2.035469E+9	1.714533E-6	583249.249287	14.662098	0.408933	0	0
0	0	0	22.36834	5.935488	8.421415	5.935488	1.722754E+9	1.567905E-6	637793.705907	14.420075	0.406856	0	0
0	0	0	22.059452	5.935357	7.999061	5.935357	1.457825E+9	1.046595E-6	955479.732875	14.293	0.404368	0	0
0	0	0	21.748849	5.935462	7.573802	5.935462	1.232495E+9	1.064883E-6	939070.171932	14.236559	0.402291	0	0
0	0	0	21.436	5.93558	7.145434	5.93558	1.040728E+9	1.16613E-6	857537.001507	14.099549	0.400504	0	0
0	0	0	21.11874	5.935495	6.711519	5.935495	8.767064E+8	8.090163E-7	1236069.068919	14.155962	0.398427	0	0
0	0	0	20.798581	5.935416	6.273624	5.935416	7.373782E+8	5.851409E-7	1708989.964311	14.283507	0.396177	0	0
0	0	0	20.47536	5.935593	5.830912	5.935593	6.191664E+8	7.175913E-7	1393550.891359	14.225537	0.394021	0	0
0	0	0	20.144828	5.935685	5.378402	5.935685	5.178552E+8	7.884561E-7	1268301.472467	14.031456	0.392208	0	0
0	0	0	19.814011	5.93577	4.925513	5.93577	4.330542E+8	9.303481E-7	1074866.550026	13.801699	0.390091	0	0
0	0	0	19.4825	5.935528	4.472499	5.935528	3.620038E+8	3.584701E-7	2789632.660074	13.929392	0.387907	0	0
0	0	0	19.14519	5.93575	4.010375	5.93575	3.016634E+8	5.920134E-7	1689150.939485	14.024978	0.385896	0	0
0	0	0	18.803061	5.935783	3.542135	5.935783	2.507268E+8	5.751138E-7	1738786.240429	14.053432	0.384057	0	0
0	0	0	18.456276	5.935822	3.067508	5.935822	2.078673E+8	5.97912E-7	1672487.055186	13.65405	0.382138	0	0
0	0	0	18.104755	5.935888	2.586328	5.935888	1.718934E+8	8.573339E-7	1166406.720057	13.541899	0.379783	0	0
0	0	0	17.74478	5.935849	2.093854	5.935849	1.414972E+8	4.900072E-7	2040786.136205	13.579677	0.377798	0	0
0	0	0	17.385214	5.935901	1.601697	5.935901	1.165017E+8	6.811331E-7	1468141.884715	13.589408	0.375959	0	0
0	0	0	17.020503	5.935914	1.102603	5.935914	9.565523E+7	6.755205E-7	1480339.917262	13.766064	0.37412	0	0
0	0	0	16.649951	5.936038	0.595216	5.936038	7.829142E+7	-5.674451E-7	-1762285.16745	13.442995	0.371989	0	0
0	0	0	16.275929	5.935842	0.083948	5.935842	6.395946E+7	2.107823E-7	4744232.024674	13.455765	0.369991	0	0
0	0	0	15.897782	5.935888	-0.433621	5.935888	5.213472E+7	2.601086E-7	3844547.293795	13.318976	0.368258	0	0
0	0	0	15.510733	5.935921	-0.963337	5.935921	4.22921E+7	3.333785E-7	2999593.216256	13.259456	0.366379	0	0
0	0	0	15.122295	5.936051	-1.495229	5.936051	3.428195E+7	-2.04761E-7	-4883741.456356	13.323781	0.364156	0	0
0	0	0	14.731163	5.936038	-2.030409	5.936038	2.774847E+7	-2.010759E-7	-4973247.595656	13.35148	0.36229	0	0
0	0	0	14.335415	5.936051	-2.571978	5.936051	2.240419E+7	-1.338115E-7	-7473199.327222	13.032811	0.360742	0	0
0	0	0	13.938565	5.935849	-3.114436	5.935849	1.807842E+7	6.262042E-8	1.596923E+7	12.98679	0.358771	0	0
0	0	0	13.536243	5.935999	-3.665395	5.935999	1.454478E+7	-2.925094E-7	-3418693.738787	13.11104	0.356653	0	0
0	0	0	13.12604	5.935894	-4.226401	5.935894	1.165208E+7	6.274778E-8	1.593682E+7	13.060072	0.35488	0	0
0	0	0	12.716408	5.936045	-4.787371	5.936045	9337572.5	-6.113983E-8	-1.635595E+7	12.987686	0.353213	0	0
0	0	0	12.308042	5.935973	-5.345956	5.935973	7487928.5	8.203863E-7	1218938.000693	12.71079	0.35144	0	0
0	0	0	11.89498	5.936051	-5.911414	5.936051	5989449	-3.577054E-8	-2.795597E+7	12.769668	0.349495	0	0
0	0	0	11.480366	5.935921	-6.478366	5.935921	4786827	3.773994E-8	2.649712E+7	12.971503	0.347788	0	0
0	0	0	11.063424	5.936143	-7.049575	5.936143	3820869	-1.023162E-8	-9.773623E+7	12.887843	0.346055	0	0
0	0	0	10.642889	5.936051	-7.624746	5.936051	3043917.5	-1.817886E-8	-5.500894E+7	12.610374	0.344202	0	0
0	0	0	10.222517	5.93615	-8.200278	5.93615	2425168.5	-6.247985E-9	-1.600516E+8	12.655644	0.342217	0	0
0	0	0	9.804596	5.936084	-8.77195	5.936084	1934756	-8.027598E-9	-1.245703E+8	12.722707	0.340656	0	0
0	0	0	9.383489	5.935894	-9.347585	5.935894	1540858.5	8.297976E-9	1.205113E+8	12.598672	0.338975	0	0
0	0	0	8.960994	5.936117	-9.926422	5.936117	1226233.5	-3.897963E-9	-2.565443E+8	12.444696	0.337096	0	0
0	0	0	8.534251	5.935999	-10.50999	5.935999	973614	-1.957703E-8	-5.108028E+7	12.42883	0.335257	0	0
0	0	0	8.106733	5.936032	-11.095101	5.936032	772712.5	-6.266814E-9	-1.595707E+8	12.392612	0.333736	0	0
0	0	0	7.679092	5.936065	-11.680381	5.936065	613226	-3.114845E-9	-3.210433E+8	12.328775	0.331949	0	0
0	0	0	7.247368	5.936051	-12.2711	5.936051	485584	-2.899974E-9	-3.448307E+8	12.267713	0.33015	0	0
0	0	0	6.809069	5.936038	-12.870815	5.936038	383146.5	-2.776092E-9	-3.602185E+8	12.109144	0.328257	0	0
0	0	0	6.368033	5.936097	-13.474514	5.936097	301871.5	-1.116215E-9	-8.958844E+8	12.048451	0.326881	0	0
0	0	0	5.917973	5.935973	-14.089948	5.935973	236680	2.594381E-8	3.854484E+7	12.060334	0.32528	0	0
0	0	0	5.475632	5.936019	-14.695392	5.936019	186343	-1.985016E-9	-5.037742E+8	11.997899	0.323375	0	0
0	0	0	5.041988	5.936032	-15.288824	5.936032	147403	-1.195456E-9	-8.365007E+8	11.74965	0.321787	0	0
0	0	0	4.626149	5.936038	-15.857871	5.936038	117728	-8.529985E-10	-1.172335E+9	11.860416	0.320226	0	0
0	0	0	4.224521	5.936156	-16.407858	5.936156	94752.5	-2.351952E-10	-4.251788E+9	11.808753	0.318704	0	0
0	0	0	3.830448	5.935986	-16.946506	5.935986	76572.5	-3.77108E-9	-2.651761E+8	11.746382	0.316706	0	0
0	0	0	3.456181	5.93613	-17.45915	5.93613	62547	-1.818164E-10	-5.500053E+9	11.566291	0.315264	0	0
0	0	0	3.100984	5.936051	-17.944917	5.936051	51619.5	-3.082781E-10	-3.243824E+9	11.563388	0.313821	0	0
0	0	0	2.762775	5.936071	-18.407784	5.936071	42994.5	-2.032007E-10	-4.921243E+9	11.44593	0.312247	0	0
0	0	0	2.440166	5.936123	-18.849423	5.936123	36114	-1.096697E-10	-9.118289E+9	11.461555	0.310249	0	0
0	0	0	2.133075	5.936202	-19.269924	5.936202	30590	-6.047066E-11	-1.653694E+10	11.388963	0.308899	0	0
0	0	0	1.84436	5.936169	-19.664878	5.936169	26169.5	-6.053614E-11	-1.651906E+10	11.341069	0.307404	0	0
0	0	0	1.566794	5.936281	-20.045101	5.936281	22523	-3.3004E-11	-3.029936E+10	11.197568	0.305816	0	0
0	0	0	1.313566	5.936182	-20.391256	5.936182	19642	-4.254063E-11	-2.350694E+10	11.332114	0.304003	0	0
0	0	0	1.083207	5.936195	-20.706524	5.936195	17342	-3.530888E-11	-2.832149E+10	11.270909	0.302733	0	0
0	0	0	0.878738	5.935986	-20.985545	5.935986	15527.5	-7.647045E-10	-1.307695E+9	11.203596	0.301277	0	0
0	0	0	0.70163	5.936339	-21.229201	5.936339	14110	-1.73159E-11	-5.775038E+10	11.150124	0.299557	0	0
0	0	0	0.549677	5.936202	-21.436624	5.936202	12997	-2.569262E-11	-3.892169E+10	11.148823	0.297956	0	0
0	0	0	0.422553	5.936339	-21.611089	5.936339	12134	-1.489094E-11	-6.715492E+10	11.064719	0.296567	0	0
0	0	0	0.316459	5.936117	-21.755439	5.936117	11457.5	-3.642112E-11	-2.74566E+10	11.011705	0.295204	0	0
0	0	0	0.226374	5.936195	-21.879003	5.936195	10913	-2.221923E-11	-4.500607E+10	10.851859	0.293365	0	0
0	0	0	0.157442	5.936228	-21.973451	5.936228	10514	-1.861805E-11	-5.371133E+10	10.752734	0.292134	0	0
0	0	0	0.100638	5.936261	-22.051303	5.936261	10196	-1.597392E-11	-6.260206E+10	10.652132	0.29089	0	0
0	0	0	0.060006	5.936333	-22.107172	5.936333	9974.5	-1.246588E-11	-8.021895E+10	10.631783	0.28925	0	0
0	0	0	0.011941	5.936411	-22.173237	5.936411	9718.5	-9.950229E-12	-1.005002E+11	10.586664	0.28749	0	0
0	0	0	-0.01448	5.936267	-22.208854	5.936267	9580.5	-1.467141E-11	-6.815975E+10	10.599117	0.286352	0	0
0	0	0	-0.052377	5.936267	-22.260711	5.936267	9386.5	-1.437433E-11	-6.956848E+10	10.543481	0.284989	0	0
0	0	0	-0.073816	5.936215	-22.289852	5.936215	9278.5	-1.73335E-11	-5.769176E+10	10.398409	0.283269	0	0
0	0	0	-0.088231	5.936326	-22.309994	5.936326	9206.5	-1.172161E-11	-8.531255E+10	10.447012	0.281853	0	0
0	0	0	-0.114652	5.936097	-22.345291	5.936097	9075.5	-3.355801E-11	-2.979915E+10	10.342252	0.280715	0	0
0	0	0	-0.135193	5.936215	-22.37384	5.936215	8975.5	-1.676745E-11	-5.963936E+10	10.166618	0.279286	0	0
0	0	0	-0.145035	5.936202	-22.387258	5.936202	8928	-1.764897E-11	-5.666052E+10	10.088729	0.277327	0	0
0	0	0	-0.150548	5.936071	-22.394312	5.936071	8901.5	-4.207028E-11	-2.376975E+10	10.234923	0.276375	0	0
0	0	0	-0.15553	5.936333	-22.40211	5.936333	8877	-1.109425E-11	-9.013675E+10	10.090186	0.275091	0	0
0	0	0	-0.16337	5.936137	-22.412103	5.936137	8840	-2.464278E-11	-4.057984E+10	9.915384	0.273543	0	0
0	0	0	-0.170109	5.93613	-22.421299	5.93613	8808	-2.560377E-11	-3.905675E+10	9.914874	0.272167	0	0
0	0	0	-0.175703	5.936254	-22.429421	5.936254	8781	-1.408167E-11	-7.101431E+10	9.86035	0.271003	0	0
0	0	0	-0.183217	5.936202	-22.439506	5.936202	8745.5	-1.72882E-11	-5.784291E+10	9.712091	0.269574	0	0
0	0	0	-0.188117	5.936163	-22.446065	5.936163	8722	-2.088694E-11	-4.787681E+10	9.701422	0.267893	0	0
0	0	0	-0.194284	5.936163	-22.454503	5.936163	8693.5	-2.081869E-11	-4.803376E+10	9.710101	0.266689	0	0
0	0	0	-0.196897	5.936228	-22.458324	5.936228	8681	-1.53722E-11	-6.505252E+10	9.58489	0.265644	0	0
0	0	0	-0.200328	5.936353	-22.463485	5.936353	8665	-1.026311E-11	-9.743632E+10	9.46006	0.263871	0	0
0	0	0	-0.203064	5.936045	-22.466075	5.936045	8652	-5.664874E-11	-1.765264E+10	9.518043	0.262561	0	0
0	0	0	-0.206494	5.936176	-22.47126	5.936176	8636	-1.93195E-11	-5.176116E+10	9.466156	0.261476	0	0
0	0	0	-0.208781	5.936038	-22.473874	5.936038	8625.5	-6.249605E-11	-1.600101E+10	9.309899	0.260245	0	0
0	0	0	-0.211149	5.936209	-22.477753	5.936209	8614.5	-1.654792E-11	-6.043056E+10	9.3418	0.258617	0	0
0	0	0	-0.213763	5.936104	-22.480936	5.936104	8602	-3.016593E-11	-3.314998E+10	9.393203	0.257532	0	0
0	0	0	-0.21413	5.9363	-22.482176	5.9363	8600.5	-1.183706E-11	-8.448046E+10	9.297448	0.256328	0	0
0	0	0	-0.214375	5.936333	-22.482634	5.936333	8599.5	-1.074744E-11	-9.30454E+10	9.123283	0.255084	0	0
0	0	0	-0.214865	5.936254	-22.48301	5.936254	8597	-1.37866E-11	-7.253422E+10	9.231	0.253378	0	0
0	0	0	-0.216621	5.936405	-22.485978	5.936405	8589	-8.9283E-12	-1.120034E+11	9.228062	0.252597	0	0
0	0	0	-0.216785	5.936137	-22.485194	5.936137	8588	-2.394029E-11	-4.177059E+10	9.055602	0.251194	0	0
0	0	0	-0.217969	5.93615	-22.486864	5.93615	8583	-2.211238E-11	-4.522354E+10	8.94599	0.249884	0	0
0	0	0	-0.219194	5.936084	-22.488295	5.936084	8577	-3.55871E-11	-2.810007E+10	9.039915	0.248548	0	0
0	0	0	-0.220542	5.936169	-22.490458	5.936169	8570.5	-1.982556E-11	-5.043994E+10	8.944484	0.247516	0	0
0	0	0	-0.221195	5.936274	-22.491745	5.936274	8568	-1.283176E-11	-7.793166E+10	8.818122	0.246298	0	0
0	0	0	-0.222093	5.936222	-22.492778	5.936222	8563.5	-1.55698E-11	-6.422689E+10	8.831299	0.244856	0	0
0	0	0	-0.222543	5.936267	-22.493565	5.936267	8561.5	-1.311094E-11	-7.627221E+10	8.853815	0.243877	0	0
0	0	0	-0.223523	5.936267	-22.494906	5.936267	8557	-1.310404E-11	-7.631232E+10	8.728873	0.242871	0	0
0	0	0	-0.225197	5.936169	-22.496828	5.936169	8549.5	-1.977698E-11	-5.056383E+10	8.679536	0.241336	0	0
0	0	0	-0.225197	5.936176	-22.496853	5.936176	8549.5	-1.9126E-11	-5.228486E+10	8.677433	0.240106	0	0
0	0	0	-0.226953	5.93613	-22.499084	5.93613	8541	-2.482763E-11	-4.02777E+10	8.641763	0.239259	0	0
0	0	0	-0.22777	5.936294	-22.500815	5.936294	8537	-1.199252E-11	-8.33853E+10	8.523537	0.238055	0	0
0	0	0	-0.22924	5.936372	-22.503122	5.936372	8530.5	-9.601796E-12	-1.041472E+11	8.528828	0.236599	0	0
0	0	0	-0.230261	5.936313	-22.504298	5.936313	8526	-1.127775E-11	-8.86702E+10	8.520303	0.235792	0	0
0	0	0	-0.230833	5.936051	-22.504098	5.936051	8523	-5.090042E-11	-1.96462E+10	8.398402	0.234575	0	0
0	0	0	-0.231527	5.936431	-22.506472	5.936431	8520	-8.345962E-12	-1.198184E+11	8.290052	0.233357	0	0
0	0	0	-0.233038	5.936333	-22.508171	5.936333	8513	-1.063934E-11	-9.399083E+10	8.386855	0.23222	0	0
0	0	0	-0.234018	5.936202	-22.509021	5.936202	8508.5	-1.68197E-11	-5.945409E+10	8.255498	0.231307	0	0
0	0	0	-0.234059	5.936339	-22.509593	5.936339	8508.5	-1.04417E-11	-9.576986E+10	8.190367	0.230049	0	0
0	0	0	-0.233732	5.936123	-22.508335	5.936123	8510	-2.584286E-11	-3.869541E+10	8.195642	0.228792	0	0
0	0	0	-0.235651	5.936156	-22.511085	5.936156	8501	-2.110123E-11	-4.739061E+10	8.16017	0.22784	0	0
0	0	0	-0.236182	5.936215	-22.512032	5.936215	8498.5	-1.587635E-11	-6.298677E+10	8.023764	0.2269	0	0
0	0	0	-0.23802	5.936143	-22.514277	5.936143	8490	-2.273459E-11	-4.398583E+10	8.025918	0.225484	0	0
0	0	0	-0.235978	5.936248	-22.511876	5.936248	8499.5	-1.395963E-11	-7.163512E+10	8.033171	0.224571	0	0
0	0	0	-0.238183	5.936307	-22.515114	5.936307	8489.5	-1.145236E-11	-8.731823E+10	7.870438	0.223711	0	0
0	0	0	-0.238101	5.936254	-22.514806	5.936254	8490	-1.361501E-11	-7.344837E+10	7.86896	0.222203	0	0
0	0	0	-0.238142	5.936209	-22.51469	5.936209	8489.5	-1.63078E-11	-6.132035E+10	7.918107	0.221502	0	0
0	0	0	-0.236345	5.936123	-22.511912	5.936123	8498	-2.580642E-11	-3.875005E+10	7.755953	0.220589	0	0
0	0	0	-0.236876	5.936405	-22.513694	5.936405	8495.5	-8.831107E-12	-1.132361E+11	7.69229	0.219199	0	0
0	0	0	-0.23659	5.936104	-22.512173	5.936104	8496.5	-2.979596E-11	-3.35616E+10	7.74565	0.218366	0	0
0	0	0	-0.23463	5.936209	-22.509884	5.936209	8506	-1.63395E-11	-6.12014E+10	7.623398	0.21736	0	0
0	0	0	-0.235406	5.936281	-22.511216	5.936281	8502	-1.245838E-11	-8.026728E+10	7.590504	0.216143	0	0
0	0	0	-0.234099	5.936385	-22.509821	5.936385	8508	-9.269434E-12	-1.078815E+11	7.654981	0.215137	0	0
0	0	0	-0.232711	5.936123	-22.506938	5.936123	8514.5	-2.585653E-11	-3.867496E+10	7.486378	0.214356	0	0
0	0	0	-0.233487	5.936398	-22.509032	5.936398	8511	-8.984641E-12	-1.113011E+11	7.493117	0.212927	0	0
0	0	0	-0.231527	5.936392	-22.506325	5.936392	8520	-9.13605E-12	-1.094565E+11	7.532684	0.212186	0	0
0	0	0	-0.23071	5.936163	-22.504348	5.936163	8523.5	-2.041158E-11	-4.899179E+10	7.348534	0.2113	0	0
0	0	0	-0.231649	5.936228	-22.505879	5.936228	8519.5	-1.508621E-11	-6.628569E+10	7.373439	0.209937	0	0
0	0	0	-0.231037	5.936339	-22.505458	5.936339	8522	-1.045827E-11	-9.561815E+10	7.411261	0.209183	0	0
0	0	0	-0.230914	5.935973	-22.503915	5.935973	8523	9.342689E-10	1.070356E+9	7.256672	0.208256	0	0
0	0	0	-0.229322	5.936123	-22.5023	5.936123	8530	-2.59036E-11	-3.860468E+10	7.290306	0.206854	0	0
0	0	0	-0.228791	5.936058	-22.501328	5.936058	8532.5	-4.684106E-11	-2.134879E+10	7.295308	0.206192	0	0
0	0	0	-0.228832	5.93615	-22.501728	5.93615	8532.5	-2.198227E-11	-4.54912E+10	7.144385	0.205213	0	0
0	0	0	-0.228464	5.936254	-22.501618	5.936254	8534	-1.368557E-11	-7.306968E+10	7.193032	0.204035	0	0
0	0	0	-0.230097	5.936202	-22.503657	5.936202	8526.5	-1.685528E-11	-5.932858E+10	7.101523	0.20348	0	0
0	0	0	-0.228913	5.936307	-22.502429	5.936307	8532	-1.150969E-11	-8.688328E+10	6.969449	0.202236	0	0
0	0	0	-0.229077	5.936209	-22.502284	5.936209	8531.5	-1.638848E-11	-6.101847E+10	7.080346	0.201323	0	0
0	0	0	-0.229526	5.936228	-22.502973	5.936228	8529.5	-1.510392E-11	-6.620797E+10	6.975436	0.200502	0	0
0	0	0	-0.228954	5.93613	-22.501822	5.93613	8532	-2.480147E-11	-4.032019E+10	6.927575	0.199087	0	0
0	0	0	-0.229077	5.936215	-22.502309	5.936215	8531.5	-1.5938E-11	-6.274313E+10	7.014772	0.198518	0	0
0	0	0	-0.231282	5.936163	-22.50513	5.936163	8521	-2.04056E-11	-4.900617E+10	6.829051	0.197671	0	0
0	0	0	-0.230914	5.936241	-22.504922	5.936241	8523	-1.434489E-11	-6.971123E+10	6.857122	0.19644	0	0
0	0	0	-0.231731	5.936326	-22.506359	5.936326	8519	-1.084629E-11	-9.219744E+10	6.841421	0.195831	0	0
0	0	0	-0.233201	5.936294	-22.508248	5.936294	8512	-1.19574E-11	-8.36302E+10	6.690933	0.194627	0	0
0	0	0	-0.234344	5.936078	-22.509002	5.936078	8507	-3.759163E-11	-2.660166E+10	6.781947	0.193873	0	0
0	0	0	-0.234549	5.93649	-22.510828	5.93649	8506	-7.375496E-12	-1.355841E+11	6.655137	0.19304	0	0
0	0	0	-0.23463	5.936169	-22.509737	5.936169	8506	-1.967636E-11	-5.082242E+10	6.659853	0.191756	0	0
0	0	0	-0.23561	5.936215	-22.51125	5.936215	8501.5	-1.588196E-11	-6.296454E+10	6.675479	0.191266	0	0
0	0	0	-0.237407	5.936202	-22.513659	5.936202	8493	-1.678906E-11	-5.95626E+10	6.512417	0.190261	0	0
0	0	0	-0.237203	5.936333	-22.513871	5.936333	8494	-1.061559E-11	-9.420107E+10	6.656355	0.189136	0	0
0	0	0	-0.239857	5.936346	-22.517553	5.936346	8481.5	-1.022395E-11	-9.780956E+10	6.473278	0.188686	0	0
0	0	0	-0.240225	5.936307	-22.517908	5.936307	8480	-1.143955E-11	-8.741606E+10	6.505438	0.187337	0	0
0	0	0	-0.240756	5.936294	-22.518585	5.936294	8477.5	-1.190894E-11	-8.397054E+10	6.497146	0.186834	0	0
0	0	0	-0.241695	5.936248	-22.519699	5.936248	8473.5	-1.391693E-11	-7.185493E+10	6.395863	0.185762	0	0
0	0	0	-0.241818	5.936366	-22.520309	5.936366	8473	-9.697686E-12	-1.031174E+11	6.480845	0.184994	0	0
0	0	0	-0.240837	5.936169	-22.518231	5.936169	8477	-1.960927E-11	-5.099628E+10	6.317091	0.184121	0	0
0	0	0	-0.243655	5.936267	-22.522455	5.936267	8464.5	-1.296239E-11	-7.714626E+10	6.42162	0.183076	0	0
0	0	0	-0.244023	5.936267	-22.522958	5.936267	8462.5	-1.295933E-11	-7.716449E+10	6.268179	0.182507	0	0
0	0	0	-0.243778	5.936359	-22.522966	5.936359	8463.5	-9.85274E-12	-1.014946E+11	6.290395	0.181276	0	0
0	0	0	-0.244921	5.93649	-22.525022	5.93649	8458.5	-7.334309E-12	-1.363455E+11	6.280061	0.1808	0	0
0	0	0	-0.244921	5.93632	-22.524384	5.93632	8458.5	-1.097486E-11	-9.111734E+10	6.176453	0.179622	0	0
0	0	0	-0.245207	5.936104	-22.523964	5.936104	8457	-2.965744E-11	-3.371835E+10	6.246278	0.179053	0	0
0	0	0	-0.243819	5.936182	-22.522359	5.936182	8463.5	-1.833024E-11	-5.455466E+10	6.08754	0.178233	0	0
0	0	0	-0.243492	5.936254	-22.522182	5.936254	8465	-1.357491E-11	-7.366529E+10	6.236112	0.177174	0	0
0	0	0	-0.241573	5.936097	-22.518966	5.936097	8474	-3.133387E-11	-3.191435E+10	6.049244	0.176526	0	0
0	0	0	-0.243614	5.936294	-22.522497	5.936294	8464.5	-1.189068E-11	-8.409951E+10	6.166434	0.175388	0	0
0	0	0	-0.241899	5.936078	-22.519339	5.936078	8472	-3.743697E-11	-2.671156E+10	6.007711	0.17507	0	0
0	0	0	-0.242593	5.9363	-22.521125	5.9363	8469.5	-1.165676E-11	-8.578714E+10	6.059414	0.17384	0	0
0	0	0	-0.23949	5.936169	-22.516386	5.936169	8483.5	-1.962431E-11	-5.095721E+10	5.959244	0.173469	0	0
0	0	0	-0.239286	5.93594	-22.515247	5.93594	8484.5	1.026032E-10	9.746282E+9	5.984511	0.172226	0	0
0	0	0	-0.238836	5.936438	-22.516499	5.936438	8486.5	-8.195028E-12	-1.220252E+11	5.952716	0.171961	0	0
0	0	0	-0.237244	5.936372	-22.514074	5.936372	8493.5	-9.56015E-12	-1.046009E+11	5.909173	0.17073	0	0
0	0	0	-0.235692	5.936366	-22.511926	5.936366	8501	-9.729733E-12	-1.027777E+11	5.924021	0.170294	0	0
0	0	0	-0.23557	5.936209	-22.511169	5.936209	8501.5	-1.633085E-11	-6.123379E+10	5.869155	0.16909	0	0
0	0	0	-0.234222	5.93632	-22.509743	5.93632	8507.5	-1.103844E-11	-9.059254E+10	5.904535	0.168838	0	0
0	0	0	-0.233854	5.936313	-22.509215	5.936313	8509.5	-1.125592E-11	-8.884213E+10	5.804195	0.167502	0	0
0	0	0	-0.234304	5.936536	-22.510665	5.936536	8507	-6.771601E-12	-1.476756E+11	5.856007	0.167197	0	0
0	0	0	-0.232425	5.936091	-22.506424	5.936091	8516	-3.330098E-11	-3.002915E+10	5.770045	0.16598	0	0
0	0	0	-0.231853	5.936137	-22.505814	5.936137	8518.5	-2.374655E-11	-4.211138E+10	5.790937	0.165649	0	0
0	0	0	-0.232588	5.936182	-22.506992	5.936182	8515	-1.844178E-11	-5.42247E+10	5.698876	0.164538	0	0
0	0	0	-0.232098	5.935934	-22.505388	5.935934	8517.5	8.744304E-11	1.143602E+10	5.748578	0.164207	0	0
0	0	0	-0.233283	5.93613	-22.507745	5.93613	8512	-2.474333E-11	-4.041493E+10	5.712295	0.162937	0	0
0	0	0	-0.233446	5.936163	-22.508092	5.936163	8511	-2.038165E-11	-4.906375E+10	5.727277	0.162606	0	0
0	0	0	-0.232098	5.936267	-22.506641	5.936267	8517.5	-1.304355E-11	-7.666622E+10	5.700718	0.161336	0	0
0	0	0	-0.233528	5.936209	-22.508375	5.936209	8511	-1.63491E-11	-6.116544E+10	5.621687	0.161203	0	0
0	0	0	-0.233079	5.936385	-22.508424	5.936385	8513	-9.274881E-12	-1.078181E+11	5.662198	0.15992	0	0
0	0	0	-0.233038	5.936281	-22.507975	5.936281	8513	-1.24745E-11	-8.016356E+10	5.552526	0.159615	0	0
0	0	0	-0.234181	5.936123	-22.50895	5.936123	8508	-2.583679E-11	-3.87045E+10	5.672899	0.15865	0	0
0	0	0	-0.234794	5.936143	-22.509862	5.936143	8505	-2.277476E-11	-4.390826E+10	5.496189	0.158107	0	0
0	0	0	-0.236958	5.936051	-22.51248	5.936051	8495	-5.07332E-11	-1.971096E+10	5.671927	0.15726	0	0
0	0	0	-0.237366	5.936254	-22.5138	5.936254	8493	-1.361982E-11	-7.342243E+10	5.469661	0.156559	0	0
0	0	0	-0.238551	5.936372	-22.515863	5.936372	8488	-9.553959E-12	-1.046687E+11	5.611143	0.155977	0	0
0	0	0	-0.237856	5.936267	-22.51452	5.936267	8491	-1.300297E-11	-7.690549E+10	5.492181	0.154892	0	0
0	0	0	-0.240143	5.936294	-22.517747	5.936294	8480.5	-1.191315E-11	-8.394084E+10	5.506812	0.154601	0	0
0	0	0	-0.241409	5.936313	-22.519553	5.936313	8474.5	-1.120963E-11	-8.920905E+10	5.558558	0.153635	0	0
0	0	0	-0.241899	5.936274	-22.520076	5.936274	8472	-1.268798E-11	-7.881474E+10	5.401909	0.153132	0	0
0	0	0	-0.242063	5.936418	-22.52084	5.936418	8471.5	-8.544771E-12	-1.170306E+11	5.542675	0.152364	0	0
0	0	0	-0.24341	5.936222	-22.521947	5.936222	8465.5	-1.539162E-11	-6.497041E+10	5.421878	0.151478	0	0
0	0	0	-0.245983	5.936366	-22.526008	5.936366	8453.5	-9.675367E-12	-1.033552E+11	5.476094	0.151226	0	0
0	0	0	-0.24635	5.936241	-22.526045	5.936241	8452	-1.422539E-11	-7.029683E+10	5.464002	0.150102	0	0
0	0	0	-0.246432	5.936261	-22.52623	5.936261	8451.5	-1.324083E-11	-7.552394E+10	5.33525	0.149691	0	0
0	0	0	-0.245697	5.936261	-22.525224	5.936261	8455	-1.324632E-11	-7.549268E+10	5.495722	0.148858	0	0
0	0	0	-0.247167	5.936333	-22.527506	5.936333	8448.5	-1.055873E-11	-9.47084E+10	5.315166	0.148104	0	0
0	0	0	-0.249372	5.936248	-22.530204	5.936248	8438	-1.385862E-11	-7.215723E+10	5.415407	0.147773	0	0
0	0	0	-0.249536	5.936254	-22.530452	5.936254	8437.5	-1.353081E-11	-7.390538E+10	5.420221	0.146688	0	0
0	0	0	-0.24778	5.936235	-22.527976	5.936235	8445.5	-1.457541E-11	-6.860871E+10	5.310835	0.146198	0	0
0	0	0	-0.247371	5.936274	-22.527564	5.936274	8447	-1.265054E-11	-7.9048E+10	5.413915	0.145682	0	0
0	0	0	-0.249168	5.93611	-22.529409	5.93611	8439.5	-2.814386E-11	-3.553173E+10	5.352371	0.144756	0	0
0	0	0	-0.248025	5.93613	-22.527918	5.93613	8444.5	-2.454712E-11	-4.073798E+10	5.271471	0.144399	0	0
0	0	0	-0.246718	5.936189	-22.526351	5.936189	8450.5	-1.773686E-11	-5.637977E+10	5.395773	0.143711	0	0
0	0	0	-0.24733	5.936477	-22.52827	5.936477	8447.5	-7.516569E-12	-1.330394E+11	5.311138	0.142784	0	0
0	0	0	-0.2468	5.936189	-22.526463	5.936189	8450	-1.773581E-11	-5.638311E+10	5.288681	0.142573	0	0
0	0	0	-0.246391	5.93647	-22.52696	5.93647	8452	-7.620342E-12	-1.312277E+11	5.370135	0.141765	0	0
0	0	0	-0.244799	5.936137	-22.523528	5.936137	8459	-2.358069E-11	-4.240759E+10	5.2774	0.140932	0	0
0	0	0	-0.244513	5.936346	-22.523923	5.936346	8460.5	-1.019864E-11	-9.805233E+10	5.240901	0.140614	0	0
0	0	0	-0.242553	5.936209	-22.520725	5.936209	8469.5	-1.626938E-11	-6.146515E+10	5.364474	0.139873	0	0
0	0	0	-0.243043	5.936169	-22.521248	5.936169	8467	-1.958614E-11	-5.105651E+10	5.274329	0.139119	0	0
0	0	0	-0.241042	5.936333	-22.519124	5.936333	8476.5	-1.059372E-11	-9.439555E+10	5.220472	0.138643	0	0
0	0	0	-0.23949	5.936202	-22.516509	5.936202	8483.5	-1.677028E-11	-5.96293E+10	5.31384	0.138087	0	0
0	0	0	-0.238061	5.936182	-22.51448	5.936182	8490	-1.838763E-11	-5.438438E+10	5.301524	0.137174	0	0
0	0	0	-0.239531	5.936281	-22.51686	5.936281	8483	-1.243054E-11	-8.044706E+10	5.201449	0.136711	0	0
0	0	0	-0.237734	5.936176	-22.514008	5.936176	8491.5	-1.899624E-11	-5.264198E+10	5.234217	0.136354	0	0
0	0	0	-0.237571	5.936163	-22.513736	5.936163	8492	-2.033615E-11	-4.917352E+10	5.314667	0.135441	0	0
0	0	0	-0.2361	5.936169	-22.511748	5.936169	8499	-1.966016E-11	-5.086427E+10	5.283231	0.13462	0	0
0	0	0	-0.233854	5.936333	-22.509289	5.936333	8509.5	-1.063496E-11	-9.402948E+10	5.193338	0.134197	0	0
0	0	0	-0.233242	5.936261	-22.508181	5.936261	8512	-1.333562E-11	-7.498715E+10	5.261059	0.13376	0	0
0	0	0	-0.235651	5.936339	-22.511772	5.936339	8501	-1.043249E-11	-9.585435E+10	5.286885	0.133112	0	0
0	0	0	-0.23561	5.9363	-22.511569	5.9363	8501.5	-1.17008E-11	-8.546424E+10	5.106092	0.132212	0	0
0	0	0	-0.234671	5.936195	-22.509891	5.936195	8505.5	-1.731748E-11	-5.774513E+10	3.685362	0.131841	0	0
0	0	0	-0.235488	5.93615	-22.510837	5.93615	8502	-2.19037E-11	-4.565439E+10	1.608117	0.131127	0	0
0	0	0	-0.235529	5.936182	-22.511015	5.936182	8501.5	-1.841254E-11	-5.431081E+10	0.638008	0.130651	0	0
0	0	0	-0.234589	5.93611	-22.50946	5.93611	8506	-2.836562E-11	-3.525394E+10	0.380429	0.130042	0	0
0	0	0	-0.23557	5.936235	-22.511268	5.936235	8501.5	-1.467206E-11	-6.815678E+10	0.27634	0.129261	0	0
0	0	0	-0.23606	5.936215	-22.511864	5.936215	8499.5	-1.587822E-11	-6.297936E+10	0.231764	0.128719	0	0
0	0	0	-0.238387	5.936274	-22.515271	5.936274	8488.5	-1.271269E-11	-7.866154E+10	0.209962	0.12807	0	0
0	0	0	-0.238428	5.936346	-22.515597	5.936346	8488.5	-1.023239E-11	-9.77289E+10	0.211135	0.127382	0	0
0	0	0	-0.238224	5.936353	-22.515342	5.936353	8489.5	-1.005525E-11	-9.945058E+10	0.218038	0.12676	0	0
0	0	0	-0.240797	5.936516	-22.519477	5.936516	8477.5	-6.993863E-12	-1.429825E+11	0.201321	0.126297	0	0
0	0	0	-0.241123	5.93615	-22.518548	5.93615	8476	-2.183671E-11	-4.579444E+10	0.204331	0.125649	0	0
0	0	0	-0.241777	5.936313	-22.520056	5.936313	8473	-1.120764E-11	-8.922484E+10	0.195572	0.124987	0	0
0	0	0	-0.243124	5.936248	-22.521655	5.936248	8466.5	-1.390543E-11	-7.191434E+10	0.203914	0.124709	0	0
0	0	0	-0.24439	5.936307	-22.523608	5.936307	8461	-1.141392E-11	-8.761236E+10	0.211029	0.124021	0	0
0	0	0	-0.245615	5.936241	-22.525039	5.936241	8455.5	-1.423128E-11	-7.026773E+10	0.202034	0.123452	0	0
0	0	0	-0.247208	5.936228	-22.527169	5.936228	8448	-1.49596E-11	-6.68467E+10	0.200848	0.122976	0	0
0	0	0	-0.246881	5.9363	-22.526992	5.9363	8449.5	-1.162923E-11	-8.59902E+10	0.207973	0.122314	0	0
0	0	0	-0.249985	5.936241	-22.531018	5.936241	8435.5	-1.419762E-11	-7.043433E+10	0.204542	0.121984	0	0
0	0	0	-0.248801	5.936542	-22.530527	5.936542	8441	-6.64128E-12	-1.505734E+11	0.203632	0.121322	0	0
0	0	0	-0.249985	5.936425	-22.531706	5.936425	8435.5	-8.38403E-12	-1.192744E+11	0.196372	0.120806	0	0
0	0	0	-0.249127	5.936019	-22.529009	5.936019	8439.5	-8.990154E-11	-1.112328E+10	0.205243	0.120369	0	0
0	0	0	-0.251128	5.936202	-22.532435	5.936202	8430	-1.666452E-11	-6.000773E+10	0.193994	0.119734	0	0
0	0	0	-0.251455	5.936372	-22.533521	5.936372	8428.5	-9.486987E-12	-1.054075E+11	0.190587	0.119284	0	0
0	0	0	-0.251047	5.936235	-22.532446	5.936235	8430.5	-1.454952E-11	-6.873078E+10	0.177037	0.118689	0	0
0	0	0	-0.251047	5.93632	-22.532766	5.93632	8430.5	-1.093853E-11	-9.141997E+10	0.20688	0.118239	0	0
0	0	0	-0.251455	5.936294	-22.533226	5.936294	8428.5	-1.18401E-11	-8.445871E+10	0.188884	0.117763	0	0
0	0	0	-0.250965	5.936398	-22.532949	5.936398	8431	-8.900189E-12	-1.123572E+11	0.206498	0.11726	0	0
0	0	0	-0.251047	5.936267	-22.532569	5.936267	8430.5	-1.291032E-11	-7.745739E+10	0.188389	0.116757	0	0
0	0	0	-0.249209	5.936163	-22.529661	5.936163	8439	-2.020923E-11	-4.948235E+10	0.19996	0.116162	0	0
0	0	0	-0.249168	5.936254	-22.529949	5.936254	8439.5	-1.353402E-11	-7.388787E+10	0.18791	0.115738	0	0
0	0	0	-0.249985	5.936392	-22.531583	5.936392	8435.5	-9.04544E-12	-1.105529E+11	0.171635	0.115222	0	0
0	0	0	-0.2468	5.936143	-22.526291	5.936143	8450	-2.262748E-11	-4.419405E+10	0.189734	0.114613	0	0
0	0	0	-0.246024	5.936333	-22.525941	5.936333	8453.5	-1.056497E-11	-9.465238E+10	0.196868	0.11419	0	0
0	0	0	-0.24631	5.936182	-22.525768	5.936182	8452	-1.830533E-11	-5.462889E+10	0.152167	0.113767	0	0
0	0	0	-0.244186	5.936097	-22.522542	5.936097	8462	-3.12895E-11	-3.19596E+10	0.163875	0.113145	0	0
0	0	0	-0.242593	5.936241	-22.520904	5.936241	8469.5	-1.425485E-11	-7.015158E+10	0.173095	0.112787	0	0
0	0	0	-0.243492	5.936339	-22.522501	5.936339	8465	-1.038832E-11	-9.6262E+10	0.180689	0.112139	0	0
0	0	0	-0.242022	5.936274	-22.520244	5.936274	8472	-1.268798E-11	-7.881474E+10	0.174865	0.111636	0	0
0	0	0	-0.239939	5.936385	-22.517812	5.936385	8481.5	-9.240562E-12	-1.082185E+11	0.169271	0.110961	0	0
0	0	0	-0.239408	5.936228	-22.516496	5.936228	8483.5	-1.502246E-11	-6.656697E+10	0.129515	0.110816	0	0
0	0	0	-0.238755	5.936045	-22.514914	5.936045	8487	-5.556841E-11	-1.799584E+10	0.174989	0.110141	0	0
0	0	0	-0.238183	5.936274	-22.514991	5.936274	8489.5	-1.271419E-11	-7.865227E+10	0.146481	0.109731	0	0
0	0	0	-0.236631	5.9363	-22.512966	5.9363	8496.5	-1.169392E-11	-8.551453E+10	0.176602	0.109122	0	0
0	0	0	-0.236999	5.936143	-22.51288	5.936143	8495	-2.274798E-11	-4.395994E+10	0.143151	0.108831	0	0
0	0	0	-0.236999	5.935966	-22.512216	5.935966	8495	3.56385E-10	2.805954E+9	0.177811	0.108368	0	0
0	0	0	-0.237693	5.936228	-22.514149	5.936228	8491.5	-1.503663E-11	-6.650426E+10	0.135284	0.107865	0	0
0	0	0	-0.236876	5.936307	-22.513326	5.936307	8495.5	-1.146046E-11	-8.725657E+10	0.172769	0.10723	0	0
0	0	0	-0.236468	5.93615	-22.512178	5.93615	8497	-2.189082E-11	-4.568126E+10	0.134225	0.106859	0	0
0	0	0	-0.237448	5.936163	-22.513568	5.936163	8493	-2.033854E-11	-4.916773E+10	0.16241	0.106462	0	0
0	0	0	-0.236386	5.936261	-22.512483	5.936261	8497.5	-1.33129E-11	-7.51151E+10	0.123748	0.105933	0	0
0	0	0	-0.236795	5.93632	-22.513263	5.93632	8496	-1.102352E-11	-9.071516E+10	0.168527	0.105483	0	0
0	0	0	-0.237693	5.936065	-22.513535	5.936065	8491.5	-4.313198E-11	-2.318465E+10	0	0	0	0
0	0	0	-0.23851	5.936307	-22.515561	5.936307	8488	-1.145034E-11	-8.733367E+10	0	0	0	0
0	0	0	-0.240143	5.936287	-22.517723	5.936287	8480.5	-1.216459E-11	-8.220581E+10	0	0	0	0
0	0	0	-0.240102	5.936143	-22.517126	5.936143	8480.5	-2.270915E-11	-4.403511E+10	0	0	0	0
0	0	0	-0.241613	5.936339	-22.519931	5.936339	8473.5	-1.039875E-11	-9.616544E+10	0	0	0	0
0	0	0	-0.243492	5.936123	-22.521691	5.936123	8465	-2.570621E-11	-3.890111E+10	0	0	0	0
0	0	0	-0.243614	5.936215	-22.522202	5.936215	8464.5	-1.581283E-11	-6.323977E+10	0	0	0	0
0	0	0	-0.243982	5.936117	-22.522337	5.936117	8463	-2.69022E-11	-3.717169E+10	0	0	0	0
0	0	0	-0.245942	5.936065	-22.524822	5.936065	8454	-4.29415E-11	-2.328749E+10	0	0	0	0
0	0	0	-0.247371	5.936405	-22.528056	5.936405	8447	-8.780691E-12	-1.138863E+11	0	0	0	0
0	0	0	-0.248596	5.936254	-22.529167	5.936254	8441.5	-1.353723E-11	-7.387036E+10	0	0	0	0
0	0	0	-0.249617	5.936228	-22.530466	5.936228	8437	-1.494012E-11	-6.693385E+10	0	0	0	0
0	0	0	-0.25072	5.936091	-22.531459	5.936091	8432	-3.29725E-11	-3.03283E+10	0	0	0	0
0	0	0	-0.251578	5.936189	-22.533001	5.936189	8428	-1.768963E-11	-5.653029E+10	0	0	0	0
0	0	0	-0.251251	5.936222	-22.532676	5.936222	8429.5	-1.532617E-11	-6.524788E+10	0	0	0	0
0	0	0	-0.252598	5.936339	-22.534963	5.936339	8423.5	-1.033739E-11	-9.673625E+10	0	0	0	0
0	0	0	-0.25317	5.936228	-22.535327	5.936228	8421	-1.491179E-11	-6.706103E+10	0	0	0	0
0	0	0	-0.25317	5.936202	-22.535229	5.936202	8421	-1.664673E-11	-6.007186E+10	0	0	0	0
0	0	0	-0.253864	5.936333	-22.53667	5.936333	8418	-1.052061E-11	-9.505154E+10	0	0	0	0
0	0	0	-0.25415	5.936431	-22.53743	5.936431	8416.5	-8.244576E-12	-1.212919E+11	0	0	0	0
0	0	0	-0.253048	5.936353	-22.535627	5.936353	8421.5	-9.974704E-12	-1.002536E+11	0	0	0	0
0	0	0	-0.252721	5.936169	-22.534492	5.936169	8423	-1.948436E-11	-5.132322E+10	0	0	0	0
0	0	0	-0.253497	0	-0.253497	0	8419.5	0	0	0	0	0	0
0	0	0	-0.253415	0	-0.253415	0	8420	0	0	0	0	0	0
