Vload_(V)	ILoad_(A)	RsLoad (ohm)	SunsVoc_Voltage_(V)	SunsVoc_Current_(A)	Model_Voltage_(V)	Model_Current_(A)	Carrier_Density_(cm-3)	Lifetime_(s)	Inverse_Lifetime_(s-1)	Efficiency_(%)	Intensity_(suns)	Dark_IV_Voltage_(V)	Dark_IV_Current_(A)
3.842872	6.318805	0	64.966383	-1.295091	65.379871	-1.295091	3.298856E+15	0.000182	5480.111137	19.297258	1.149248	0	0
3.320478	6.32114	-0.591792	64.936124	-0.956691	65.243392	-0.956691	3.272586E+15	0.000189	5278.204328	18.913621	1.148216	0	0
5.101871	6.315575	4.953809	64.757749	-0.45959	64.910522	-0.45959	3.121264E+15	0.000193	5157.172442	19.488777	1.148375	0	0
11.564889	6.258875	6.546106	64.581376	0.015417	64.57608	0.015417	2.977436E+15	0.000198	5028.489819	18.853627	1.148017	0	0
16.706466	6.254925	5.756489	64.397652	0.457665	64.235142	0.457665	2.833538E+15	0.000203	4914.189388	19.541086	1.146707	0	0
21.536231	6.252329	5.004118	64.222831	0.857013	63.909083	0.857013	2.702038E+15	0.000208	4803.129293	18.899668	1.146588	0	0
27.586665	6.244584	4.090538	64.05242	1.213756	63.595046	1.213756	2.578782E+15	0.000212	4704.814518	19.363935	1.14369	0	0
33.547662	6.231403	3.2139	63.880743	1.551342	63.279387	1.551342	2.459371E+15	0.000217	4607.794106	19.044818	1.144008	0	0
39.389605	6.213186	2.364085	63.711148	1.865582	62.968058	1.865582	2.345951E+15	0.000221	4512.864171	19.092082	1.141467	0	0
45.267262	6.194541	1.492105	63.53796	2.161019	62.653626	2.161019	2.234639E+15	0.000226	4424.01747	19.208588	1.14119	0	0
46.577978	6.188179	1.30322	63.369264	2.437622	62.345843	2.437622	2.130459E+15	0.00023	4332.228446	18.889736	1.140157	0	0
48.045013	6.166187	1.136158	63.20016	2.690905	62.041745	2.690905	2.030098E+15	0.000235	4250.252778	19.18312	1.138451	0	0
49.490539	6.131015	0.995715	63.034445	2.921236	61.746391	2.921236	1.935581E+15	0.000239	4175.279644	18.935863	1.138927	0	0
50.918211	6.065029	0.901655	62.871752	3.132007	61.458676	3.132007	1.846363E+15	0.000243	4105.956627	19.100553	1.137022	0	0
52.35906	5.969737	0.81314	62.710366	3.328972	61.174594	3.328972	1.761256E+15	0.000247	4038.741725	19.230633	1.137498	0	0
53.789922	5.819311	0.746601	62.548204	3.512722	60.891791	3.512722	1.679043E+15	0.000251	3976.518113	19.03043	1.136505	0	0
55.161772	5.610744	0.688978	62.382489	3.68875	60.604578	3.68875	1.598344E+15	0.000255	3915.608898	19.391399	1.136466	0	0
56.546581	5.308901	0.636641	62.221144	3.853868	60.324493	3.853868	1.522896E+15	0.000259	3851.915212	18.941255	1.136069	0	0
57.904488	4.881951	0.599113	62.059145	4.008833	60.045335	4.008833	1.450146E+15	0.000264	3791.144122	19.333994	1.134957	0	0
59.228436	4.313191	0.566686	61.898494	4.150466	59.771548	4.150466	1.380883E+15	0.000267	3737.468163	18.933988	1.134918	0	0
60.483687	3.600202	0.54305	61.741028	4.280159	59.505179	4.280159	1.315695E+15	0.000271	3688.276575	19.133102	1.133449	0	0
61.703582	2.720321	0.529582	61.587401	4.400989	59.245858	4.400989	1.254595E+15	0.000275	3638.87171	19.082729	1.133092	0	0
62.880576	1.702387	0.547446	61.434754	4.513716	58.989847	4.513716	1.196257E+15	0.000278	3592.213084	18.898696	1.131782	0	0
63.869637	0.755688	0.578547	61.280065	4.618658	58.733326	4.618658	1.139478E+15	0.000281	3552.156022	19.231129	1.130829	0	0
53.257383	5.881747	0.771038	61.129541	4.715759	58.484562	4.715759	1.086423E+15	0.000284	3513.013004	18.732936	1.129797	0	0
64.650639	0	0	60.980569	4.805838	58.239983	4.805838	1.035982E+15	0.000287	3477.199097	19.398152	1.128011	0	0
0	0	0	60.832087	4.890804	57.99732	4.890804	9.876925E+14	0.00029	3442.526991	18.899985	1.127375	0	0
0	0	0	60.682748	4.971725	57.754323	4.971725	9.410635E+14	0.000293	3408.490464	19.338485	1.124597	0	0
0	0	0	60.535409	5.047268	57.515661	5.047268	8.969078E+14	0.000296	3375.860512	19.118219	1.124597	0	0
0	0	0	60.38607	5.119017	57.275255	5.119017	8.53969E+14	0.000299	3345.647036	19.114449	1.121699	0	0
0	0	0	60.235301	5.186109	57.034478	5.186109	8.124166E+14	0.000301	3320.214441	19.271667	1.120746	0	0
0	0	0	60.090127	5.248743	56.802664	5.248743	7.740594E+14	0.000304	3292.139377	18.906747	1.119039	0	0
0	0	0	59.94773	5.306451	56.576541	5.306451	7.379626E+14	0.000306	3267.028844	19.218356	1.116777	0	0
0	0	0	59.805333	5.359854	56.352155	5.359854	7.033307E+14	0.000308	3247.146273	18.882371	1.116816	0	0
0	0	0	59.67049	5.409292	56.13953	5.409292	6.718451E+14	0.00031	3224.137034	18.99828	1.114077	0	0
0	0	0	59.53426	5.457539	55.924988	5.457539	6.412886E+14	0.000313	3198.643172	19.117465	1.113641	0	0
0	0	0	59.399172	5.503898	55.712423	5.503898	6.121945E+14	0.000315	3170.357337	18.863163	1.11241	0	0
0	0	0	59.265146	5.5455	55.503728	5.5455	5.844791E+14	0.000317	3151.218304	19.328232	1.110782	0	0
0	0	0	59.130018	5.585848	55.293702	5.585848	5.576591E+14	0.000319	3130.493025	18.900272	1.110187	0	0
0	0	0	58.997994	5.623299	55.089206	5.623299	5.325101E+14	0.000321	3110.870971	19.376778	1.10852	0	0
0	0	0	58.86262	5.658607	54.881053	5.658607	5.077715E+14	0.000323	3096.851969	19.032922	1.108083	0	0
0	0	0	58.732719	5.691463	54.681477	5.691463	4.849987E+14	0.000325	3080.940164	19.234148	1.106178	0	0
0	0	0	58.599102	5.723371	54.476992	5.723371	4.62529E+14	0.000326	3066.33362	19.176784	1.105344	0	0
0	0	0	58.46867	5.752914	54.278031	5.752914	4.414981E+14	0.000328	3053.040611	18.922152	1.103439	0	0
0	0	0	58.335542	5.781909	54.075312	5.781909	4.209219E+14	0.000329	3038.236583	19.230216	1.10193	0	0
0	0	0	58.203763	5.808588	53.875674	5.808588	4.01409E+14	0.00033	3027.640287	18.687974	1.100739	0	0
0	0	0	58.07623	5.833946	53.682395	5.833946	3.833074E+14	0.000332	3013.062224	19.328581	1.098119	0	0
0	0	0	57.941796	5.857672	53.480504	5.857672	3.650305E+14	0.000332	3009.123083	18.816098	1.097365	0	0
0	0	0	57.812875	5.880314	53.286601	5.880314	3.482515E+14	0.000333	2999.253576	19.218488	1.09411	0	0
0	0	0	57.683913	5.901149	53.093679	5.901149	3.321744E+14	0.000334	2995.02343	19.045862	1.093475	0	0
0	0	0	57.559688	5.921343	52.907427	5.921343	3.173331E+14	0.000335	2983.529444	19.011859	1.090696	0	0
0	0	0	57.430522	5.940211	52.715121	5.940211	3.025494E+14	0.000335	2980.782277	19.19392	1.089267	0	0
0	0	0	57.306746	5.958018	52.530771	5.958018	2.889804E+14	0.000336	2973.96768	18.83323	1.087719	0	0
0	0	0	57.184972	5.974727	52.349787	5.974727	2.761813E+14	0.000337	2967.694432	19.110382	1.08498	0	0
0	0	0	57.060992	5.990718	52.166096	5.990718	2.636914E+14	0.000337	2963.807438	18.90364	1.084226	0	0
0	0	0	56.939789	6.005831	51.986707	6.005831	2.519903E+14	0.000338	2958.58358	19.015381	1.08105	0	0
0	0	0	56.818381	6.020112	51.807497	6.020112	2.407556E+14	0.000338	2955.348907	19.232862	1.080375	0	0
0	0	0	56.697914	6.033694	51.629953	6.033694	2.300714E+14	0.000339	2951.97249	18.980111	1.07843	0	0
0	0	0	56.57573	6.0465	51.450492	6.0465	2.196896E+14	0.000339	2952.627244	19.406888	1.076406	0	0
0	0	0	56.459428	6.058614	51.27955	6.058614	2.102172E+14	0.000339	2948.406962	18.939744	1.075254	0	0
0	0	0	56.337408	6.070304	51.100894	6.070304	2.006928E+14	0.000339	2949.584078	19.329409	1.072952	0	0
0	0	0	56.218492	6.081613	50.926682	6.081613	1.918031E+14	0.000339	2945.848627	18.975172	1.071682	0	0
0	0	0	56.101658	6.091904	50.756075	6.091904	1.834324E+14	0.000339	2946.634774	19.044204	1.069141	0	0
0	0	0	55.981844	6.101622	50.581698	6.101622	1.752079E+14	0.000339	2952.832384	19.018181	1.068268	0	0
0	0	0	55.866481	6.111284	50.413388	6.111284	1.676205E+14	0.000339	2949.192884	18.766036	1.066085	0	0
0	0	0	55.74928	6.120547	50.242751	6.120547	1.602326E+14	0.000339	2947.46476	19.128979	1.064338	0	0
0	0	0	55.632283	6.128861	50.07312	6.128861	1.531676E+14	0.000339	2954.112716	18.661086	1.06283	0	0
0	0	0	55.516511	6.137338	49.904917	6.137338	1.464697E+14	0.000339	2951.340679	19.354147	1.059932	0	0
0	0	0	55.394287	6.145431	49.727995	6.145431	1.397027E+14	0.000338	2956.30187	18.942968	1.059098	0	0
0	0	0	55.280761	6.152493	49.563975	6.152493	1.336863E+14	0.000337	2963.511322	19.312172	1.055962	0	0
0	0	0	55.164295	6.159774	49.395568	6.159774	1.277726E+14	0.000337	2964.916172	19.18233	1.05493	0	0
0	0	0	55.048891	6.166512	49.229041	6.166512	1.221613E+14	0.000337	2969.734943	19.082389	1.052072	0	0
0	0	0	54.935161	6.173049	49.064932	6.173049	1.168638E+14	0.000337	2971.095522	19.294561	1.050246	0	0
0	0	0	54.820574	6.179355	48.89976	6.179355	1.117506E+14	0.000336	2972.610581	18.871616	1.04846	0	0
0	0	0	54.705292	6.185615	48.733577	6.185615	1.068246E+14	0.000337	2970.097686	19.168631	1.045244	0	0
0	0	0	54.592951	6.190667	48.572564	6.190667	1.022265E+14	0.000335	2985.969408	18.888408	1.044649	0	0
0	0	0	54.477628	6.196362	48.406705	6.196362	9.770586E+13	0.000335	2985.266882	18.951161	1.041314	0	0
0	0	0	54.363939	6.201542	48.243544	6.201542	9.343918E+13	0.000334	2989.529817	19.04583	1.040203	0	0
0	0	0	54.249964	6.206345	48.080286	6.206345	8.934348E+13	0.000333	2998.523405	18.737444	1.038218	0	0
0	0	0	54.132355	6.211442	47.911608	6.211442	8.530016E+13	0.000334	2998.300725	19.307302	1.035876	0	0
0	0	0	54.023199	6.215626	47.755538	6.215626	8.170707E+13	0.000332	3008.177582	18.865016	1.034248	0	0
0	0	0	53.905793	6.220055	47.587681	6.220055	7.800697E+13	0.000332	3015.610159	19.394537	1.031787	0	0
0	0	0	53.793738	6.224459	47.42723	6.224459	7.462808E+13	0.000332	3011.555955	19.060566	1.030279	0	0
0	0	0	53.680335	6.227961	47.265772	6.227961	7.13541E+13	0.00033	3032.850632	19.319563	1.027857	0	0
0	0	0	53.565747	6.231689	47.102378	6.231689	6.818857E+13	0.000329	3043.385509	19.207653	1.026508	0	0
0	0	0	53.454958	6.235703	46.943922	6.235703	6.52587E+13	0.00033	3033.500901	19.131443	1.024007	0	0
0	0	0	53.340084	6.238972	46.780505	6.238972	6.235099E+13	0.000328	3050.063158	19.19335	1.022101	0	0
0	0	0	53.228437	6.242152	46.621629	6.242152	5.964672E+13	0.000327	3061.343112	19.051754	1.020474	0	0
0	0	0	53.112053	6.245375	46.456063	6.245375	5.695015E+13	0.000326	3071.50393	19.074629	1.017656	0	0
0	0	0	52.996853	6.248148	46.292582	6.248148	5.439894E+13	0.000323	3094.115781	18.979123	1.016663	0	0
0	0	0	52.883245	6.251009	46.131185	6.251009	5.199303E+13	0.000322	3106.19141	18.819839	1.013368	0	0
0	0	0	52.773027	6.25368	45.974679	6.25368	4.975896E+13	0.000321	3117.813554	19.02307	1.012138	0	0
0	0	0	52.657378	6.256311	45.810607	6.256311	4.75163E+13	0.000319	3133.031969	18.80494	1.009438	0	0
0	0	0	52.547487	6.258438	45.65508	6.258438	4.547761E+13	0.000316	3162.062266	19.274707	1.007573	0	0
0	0	0	52.430776	6.261143	45.489376	6.261143	4.340671E+13	0.000316	3164.503125	18.875018	1.005985	0	0
0	0	0	52.316107	6.263566	45.326792	6.263566	4.146263E+13	0.000315	3173.671651	19.352215	1.002889	0	0
0	0	0	52.202704	6.26589	45.16605	6.26589	3.962453E+13	0.000314	3181.158791	19.058994	1.002055	0	0
0	0	0	52.084563	6.267812	44.999123	6.267812	3.779515E+13	0.000311	3214.005186	19.240073	0.998482	0	0
0	0	0	51.972018	6.270052	44.839609	6.270052	3.613006E+13	0.000311	3214.392529	19.272603	0.99745	0	0
0	0	0	51.85155	6.271818	44.669554	6.271818	3.442803E+13	0.000308	3251.118351	18.991405	0.995148	0	0
0	0	0	51.736513	6.273729	44.506883	6.273729	3.287679E+13	0.000306	3266.069853	19.290992	0.992766	0	0
0	0	0	51.621068	6.27569	44.343556	6.27569	3.138956E+13	0.000306	3271.98848	18.818815	0.991615	0	0
0	0	0	51.501417	6.277263	44.174785	6.277263	2.991839E+13	0.000302	3307.677703	19.278405	0.988677	0	0
0	0	0	51.392424	6.279045	44.020616	6.279045	2.863778E+13	0.000302	3307.28748	18.913095	0.987367	0	0
0	0	0	51.272732	6.280643	43.851711	6.280643	2.729393E+13	0.0003	3330.716511	19.214362	0.985025	0	0
0	0	0	51.157409	6.282097	43.689051	6.282097	2.60583E+13	0.000298	3355.716484	19.095783	0.983438	0	0
0	0	0	51.039392	6.283541	43.522619	6.283541	2.48512E+13	0.000296	3380.263927	19.060231	0.981731	0	0
0	0	0	50.913982	6.284833	43.346032	6.284833	2.362922E+13	0.000292	3424.79645	19.113959	0.979825	0	0
0	0	0	50.795516	6.28637	43.178819	6.28637	2.252971E+13	0.000292	3429.506457	19.03786	0.977959	0	0
0	0	0	50.671413	6.287864	43.003768	6.287864	2.143232E+13	0.000291	3439.05813	19.093391	0.975459	0	0
0	0	0	50.551272	6.289157	42.83447	6.289157	2.042055E+13	0.000289	3458.562868	19.060637	0.974427	0	0
0	0	0	50.431498	6.290302	42.665848	6.290302	1.94591E+13	0.000287	3489.221514	18.919793	0.971568	0	0
0	0	0	50.306252	6.29159	42.489392	6.29159	1.85018E+13	0.000285	3503.979698	19.156184	0.970219	0	0
0	0	0	50.182885	6.292552	42.315946	6.292552	1.760464E+13	0.000281	3552.404004	18.902232	0.967678	0	0
0	0	0	50.054985	6.293682	42.135943	6.293682	1.672015E+13	0.000279	3579.253542	19.389076	0.965852	0	0
0	0	0	49.930474	6.294601	41.960923	6.294601	1.590157E+13	0.000276	3625.819504	18.954569	0.964344	0	0
0	0	0	49.800818	6.295429	41.77882	6.295429	1.509151E+13	0.000271	3689.856346	19.414696	0.961406	0	0
0	0	0	49.671774	6.296503	41.597242	6.296503	1.432605E+13	0.00027	3708.351606	19.028429	0.96089	0	0
0	0	0	49.540321	6.297258	41.412694	6.297258	1.358602E+13	0.000265	3777.923243	19.189781	0.957675	0	0
0	0	0	49.406622	6.298279	41.224652	6.298279	1.287237E+13	0.000263	3798.491773	19.166005	0.956841	0	0
0	0	0	49.272515	6.299053	41.036344	6.299053	1.219404E+13	0.000259	3858.491362	18.95492	0.954698	0	0
0	0	0	49.13657	6.299773	40.845529	6.299773	1.154275E+13	0.000255	3927.64007	19.234174	0.951919	0	0
0	0	0	48.999359	6.300549	40.652858	6.300549	1.092052E+13	0.000251	3982.208614	18.815571	0.951165	0	0
0	0	0	48.855696	6.301424	40.45103	6.301424	1.030483E+13	0.000249	4017.817638	19.139535	0.948029	0	0
0	0	0	48.712604	6.302128	40.250214	6.302128	9.725971E+12	0.000245	4084.560376	18.836941	0.947274	0	0
0	0	0	48.561509	6.303044	40.037917	6.303044	9.149883E+12	0.000244	4103.168662	19.219865	0.944813	0	0
0	0	0	48.409842	6.303791	39.825036	6.303791	8.605827E+12	0.000241	4155.863525	19.159858	0.943464	0	0
0	0	0	48.252539	6.304439	39.604402	6.304439	8.07561E+12	0.000236	4237.49865	19.235507	0.94136	0	0
0	0	0	48.090704	6.304808	39.377809	6.304808	7.564098E+12	0.000227	4407.942218	19.306205	0.939335	0	0
0	0	0	47.924336	6.305185	39.144865	6.305185	7.071928E+12	0.000218	4587.731147	19.223308	0.937866	0	0
0	0	0	47.754251	6.305821	38.906357	6.305821	6.601778E+12	0.000213	4684.87726	19.176523	0.935048	0	0
0	0	0	47.575224	6.306431	38.655379	6.306431	6.140559E+12	0.000208	4800.133607	19.192514	0.934532	0	0
0	0	0	47.391173	6.306942	38.397509	6.306942	5.699903E+12	0.000202	4957.699094	18.874172	0.931436	0	0
0	0	0	47.203529	6.307526	38.134502	6.307526	5.283121E+12	0.000197	5085.441878	19.172509	0.930523	0	0
0	0	0	47.010699	6.30783	37.864642	6.30783	4.886495E+12	0.000187	5350.322607	18.778455	0.927784	0	0
0	0	0	46.809007	6.30801	37.582573	6.30801	4.503416E+12	0.000175	5710.090947	19.278247	0.925997	0	0
0	0	0	46.601312	6.308703	37.291354	6.308703	4.14025E+12	0.000172	5811.901839	18.854587	0.924529	0	0
0	0	0	46.382918	6.30895	36.985833	6.30895	3.789879E+12	0.000161	6194.170858	19.377899	0.92171	0	0
0	0	0	46.153743	6.309364	36.664988	6.309364	3.45401E+12	0.000154	6510.666963	19.068857	0.921154	0	0
0	0	0	45.902598	6.309901	36.313246	6.309901	3.119989E+12	0.000147	6797.82454	19.227548	0.91778	0	0
0	0	0	45.639774	6.310194	35.945541	6.310194	2.804938E+12	0.000137	7312.426517	19.228703	0.916907	0	0
0	0	0	45.35453	6.310436	35.546579	6.310436	2.498875E+12	0.000125	7977.9839	18.959665	0.914882	0	0
0	0	0	45.049195	6.310847	35.119266	6.310847	2.208136E+12	0.000116	8584.960489	19.253222	0.91254	0	0
0	0	0	44.720215	6.311067	34.6592	6.311067	1.932599E+12	0.000105	9537.82781	18.787356	0.911548	0	0
0	0	0	44.367836	6.311514	34.166059	6.311514	1.675462E+12	9.646868E-5	10366.059132	19.16662	0.908809	0	0
0	0	0	43.989526	6.311888	33.636779	6.311888	1.437337E+12	8.72353E-5	11463.249411	18.857041	0.907618	0	0
0	0	0	43.58455	6.312014	33.07063	6.312014	1.219787E+12	7.540282E-5	13262.102744	19.213671	0.905236	0	0
0	0	0	43.157317	6.312688	32.472444	6.312688	1.025858E+12	7.040407E-5	14203.724095	19.125734	0.903926	0	0
0	0	0	42.712525	6.312977	31.850344	6.312977	8.566333E+11	6.1704E-5	16206.403965	19.113252	0.902021	0	0
0	0	0	42.25246	6.313277	31.206863	6.313277	7.109021E+11	5.398554E-5	18523.48028	19.128079	0.900235	0	0
0	0	0	41.781778	6.313225	30.549153	6.313225	5.87424E+11	4.419462E-5	22627.18801	19.085197	0.898925	0	0
0	0	0	41.283041	6.313756	29.851182	6.313756	4.799007E+11	3.990299E-5	25060.780137	19.071584	0.89567	0	0
0	0	0	40.778872	6.314102	29.145928	6.314102	3.911938E+11	3.492013E-5	28636.777969	19.163009	0.895352	0	0
0	0	0	40.260002	6.314216	28.420541	6.314216	3.169872E+11	2.899734E-5	34485.92068	18.922481	0.892176	0	0
0	0	0	39.722838	6.314341	27.669555	6.314341	2.549578E+11	2.397932E-5	41702.602511	19.235733	0.891382	0	0
0	0	0	39.159048	6.314744	26.88081	6.314744	2.028641E+11	2.09709E-5	47685.118238	18.897502	0.888961	0	0
0	0	0	38.576106	6.315068	26.065423	6.315068	1.601653E+11	1.799198E-5	55580.314148	19.397035	0.887016	0	0
0	0	0	37.975849	6.314986	25.22663	6.314986	1.255688E+11	1.380329E-5	72446.501143	18.957333	0.885547	0	0
0	0	0	37.347333	6.315286	24.347562	6.315286	9.732361E+10	1.161139E-5	86122.332433	19.452172	0.882808	0	0
0	0	0	36.686147	6.315592	23.422795	6.315592	7.443918E+10	9.727784E-6	102798.337851	19.086356	0.882252	0	0
0	0	0	35.99409	6.315661	22.455362	6.315661	5.622743E+10	7.507637E-6	133197.708715	19.185701	0.879156	0	0
0	0	0	35.271772	6.315888	21.445279	6.315888	4.195331E+10	6.03901E-6	165590.068774	19.170988	0.878441	0	0
0	0	0	34.521563	6.316052	20.396334	6.316052	3.095086E+10	4.720737E-6	211831.325418	18.936278	0.876219	0	0
0	0	0	33.74575	6.316369	19.311236	6.316369	2.259802E+10	3.894585E-6	256766.77235	19.208314	0.874035	0	0
0	0	0	32.953765	6.316315	18.204368	6.316315	1.639156E+10	2.764261E-6	361760.386234	18.76297	0.872963	0	0
0	0	0	32.141321	6.316429	17.06851	6.316429	1.179146E+10	2.083259E-6	480017.035647	19.085116	0.870383	0	0
0	0	0	31.300006	6.316785	15.891692	6.316785	8.383607E+9	1.742804E-6	573787.895566	18.810562	0.86943	0	0
0	0	0	30.443336	6.316863	14.694069	6.316863	5.923667E+9	1.280661E-6	780847.013925	19.146225	0.867247	0	0
0	0	0	29.569106	6.317031	13.471663	6.317031	4.155836E+9	9.835382E-7	1016737.309805	19.071147	0.865778	0	0
0	0	0	28.683442	6.316969	12.233856	6.316969	2.902102E+9	6.635619E-7	1507018.507971	19.209075	0.864151	0	0
0	0	0	27.78957	6.317171	10.983878	6.317171	2.019862E+9	5.190734E-7	1926509.96048	19.240484	0.862285	0	0
0	0	0	26.886142	6.317394	9.720463	6.317394	1.400387E+9	4.168425E-7	2398987.359642	19.260767	0.861055	0	0
0	0	0	25.98104	6.317387	8.455321	6.317387	9.702411E+8	2.874222E-7	3479202.685896	19.141934	0.858554	0	0
0	0	0	25.079817	6.317395	7.195563	6.317395	6.732778E+8	2.004542E-7	4988671.439289	19.277743	0.858077	0	0
0	0	0	24.186599	6.317388	5.947032	6.317388	4.687251E+8	1.388753E-7	7200702.269393	18.821978	0.8551	0	0
0	0	0	23.308449	6.317687	4.718664	6.317687	3.283186E+8	1.233679E-7	8105834.39813	19.328714	0.854346	0	0
0	0	0	22.437282	6.317625	3.50111	6.317625	2.306228E+8	8.205524E-8	1.218691E+7	18.577442	0.852282	0	0
0	0	0	21.587186	6.317764	2.3124	6.317764	1.633876E+8	6.592055E-8	1.516978E+7	19.321148	0.850297	0	0
0	0	0	20.759347	6.317653	1.155565	6.317653	1.168033E+8	4.25656E-8	2.349315E+7	18.582582	0.849543	0	0
0	0	0	19.944698	6.317764	0.016475	6.317764	8.394856E+7	3.387102E-8	2.952377E+7	19.199148	0.846526	0	0
0	0	0	19.162187	6.317841	-1.07759	6.317841	6.112662E+7	2.662449E-8	3.75594E+7	18.825081	0.846327	0	0
0	0	0	18.407568	6.317799	-2.13229	6.317799	4.501514E+7	1.879191E-8	5.321438E+7	19.098471	0.84331	0	0
0	0	0	17.674143	6.317952	-3.158003	6.317952	3.343633E+7	1.646877E-8	6.0721E+7	19.176727	0.842636	0	0
0	0	0	16.97159	6.317931	-4.139994	6.317931	2.514865E+7	1.209026E-8	8.271118E+7	19.162016	0.840849	0	0
0	0	0	16.295622	6.318036	-5.085245	6.318036	1.912016E+7	1.04419E-8	9.576802E+7	19.423829	0.838587	0	0
0	0	0	15.648403	6.318335	-5.990987	6.318335	1.470722E+7	1.316219E-8	7.597522E+7	19.151574	0.838071	0	0
0	0	0	15.025196	6.318356	-6.862222	6.318356	1.142346E+7	1.070025E-8	9.345577E+7	19.28737	0.835173	0	0
0	0	0	14.433678	6.318126	-7.688282	6.318126	8987612	5.563986E-9	1.797273E+8	19.277208	0.834657	0	0
0	0	0	13.868336	6.318182	-8.478746	6.318182	7146610.75	4.820538E-9	2.074457E+8	19.062339	0.832593	0	0
0	0	0	13.327129	6.318078	-9.234905	6.318078	5738593.5	3.314228E-9	3.017294E+8	19.276575	0.831283	0	0
0	0	0	12.802991	6.318273	-9.968275	6.318273	4639983.25	3.662878E-9	2.730093E+8	18.838332	0.829814	0	0
0	0	0	12.305152	6.31837	-10.664542	6.31837	3791909.75	3.665853E-9	2.727878E+8	19.133435	0.827948	0	0
0	0	0	11.828712	6.318349	-11.330468	6.318349	3125844.25	2.883141E-9	3.46844E+8	18.852605	0.826956	0	0
0	0	0	11.371179	6.318412	-11.970271	6.318412	2596604.75	2.777716E-9	3.60008E+8	18.788571	0.824495	0	0
0	0	0	10.931124	6.318168	-12.584505	6.318168	2172310.25	1.433181E-9	6.977487E+8	19.143719	0.824177	0	0
0	0	0	10.50626	6.318245	-13.178692	6.318245	1828574.75	1.371621E-9	7.290645E+8	18.77551	0.821557	0	0
0	0	0	10.099078	6.31837	-13.74835	6.31837	1550304.75	1.498769E-9	6.672143E+8	19.512648	0.820843	0	0
0	0	0	9.711049	6.318182	-14.290051	6.318182	1324627.25	8.934908E-10	1.119206E+9	18.845041	0.818858	0	0
0	0	0	9.33376	6.318496	-14.818647	6.318496	1136740.5	1.545278E-9	6.471328E+8	19.660708	0.817111	0	0
0	0	0	8.970273	6.318384	-15.326328	6.318384	980978.25	9.798129E-10	1.020603E+9	18.927029	0.816436	0	0
0	0	0	8.620998	6.318447	-15.814813	6.318447	851451.25	9.995816E-10	1.000419E+9	19.466234	0.813578	0	0
0	0	0	8.279236	6.318524	-16.292851	6.318524	741281.25	1.107663E-9	9.028018E+8	18.986314	0.813777	0	0
0	0	0	7.95626	6.318412	-16.743899	6.318412	650300.5	6.956593E-10	1.437485E+9	19.093616	0.81072	0	0
0	0	0	7.645371	6.318517	-17.178893	6.318517	573288.75	8.359076E-10	1.196305E+9	19.070602	0.810085	0	0
0	0	0	7.344936	6.318308	-17.59804	6.318308	507543.75	4.287532E-10	2.332344E+9	18.806278	0.808457	0	0
0	0	0	7.051566	6.31851	-18.008934	6.31851	450627.25	6.4153E-10	1.558774E+9	19.036307	0.806234	0	0
0	0	0	6.772611	6.318468	-18.398712	6.318468	402438.75	5.017855E-10	1.992884E+9	18.858063	0.805718	0	0
0	0	0	6.50019	6.318614	-18.780109	6.318614	360356.5	7.946883E-10	1.258355E+9	18.977178	0.803178	0	0
0	0	0	6.239694	6.318705	-19.144618	6.318705	324238.75	1.364165E-9	7.33049E+8	19.153119	0.802741	0	0
0	0	0	5.980218	6.318607	-19.506943	6.318607	291861.5	6.209101E-10	1.610539E+9	18.99267	0.800518	0	0
0	0	0	5.735648	6.318719	-19.849276	6.318719	264309.75	1.292551E-9	7.73664E+8	19.337571	0.799327	0	0
0	0	0	5.497938	6.318593	-20.18106	6.318593	240025.75	4.769511E-10	2.096651E+9	18.894006	0.797779	0	0
0	0	0	5.267906	6.318774	-20.503358	6.318774	218652.5	3.049409E-9	3.279324E+8	19.292826	0.795913	0	0
0	0	0	5.046857	6.318663	-20.811904	6.318663	199909	5.927258E-10	1.687121E+9	18.928209	0.795159	0	0
0	0	0	4.83026	6.318802	-21.115256	6.318802	183102.75	3.447362E-8	2.900769E+7	19.043801	0.792777	0	0
0	0	0	4.622034	6.318698	-21.405904	6.318698	168279.25	6.617851E-10	1.511064E+9	19.183817	0.792182	0	0
0	0	0	4.425488	6.318879	-21.681403	6.318879	155390	-8.765913E-10	-1.140782E+9	18.773692	0.790078	0	0
0	0	0	4.232208	6.318656	-21.950665	6.318656	143678.25	4.060215E-10	2.462924E+9	19.408604	0.788967	0	0
0	0	0	4.040929	6.318586	-22.217762	6.318586	132957	2.557612E-10	3.909897E+9	18.719762	0.787379	0	0
0	0	0	3.851856	6.318754	-22.482762	6.318754	123145.75	1.013569E-9	9.866122E+8	19.489013	0.785672	0	0
0	0	0	3.669847	6.318865	-22.737657	6.318865	114385.75	-7.93958E-10	-1.259512E+9	18.783282	0.784918	0	0
0	0	0	3.495679	6.318781	-22.980777	6.318781	106587	1.934244E-9	5.169978E+8	19.331068	0.782298	0	0
0	0	0	3.323431	6.318942	-23.222236	6.318942	99397.5	-3.042956E-10	-3.286278E+9	18.944836	0.782258	0	0
0	0	0	3.158655	6.318538	-23.450875	6.318538	92974	1.461777E-10	6.840986E+9	19.070184	0.779479	0	0
0	0	0	2.995554	6.319011	-23.680872	6.319011	87024.75	-1.766543E-10	-5.660774E+9	19.171106	0.778844	0	0
0	0	0	2.837965	6.319011	-23.901167	6.319011	81638.5	-1.657206E-10	-6.034254E+9	18.887034	0.777058	0	0
0	0	0	2.682623	6.318754	-24.117228	6.318754	76655.5	6.309246E-10	1.584975E+9	19.180513	0.775351	0	0
0	0	0	2.534018	6.318586	-24.324251	6.318586	72173.5	1.388357E-10	7.202756E+9	18.847236	0.774835	0	0
0	0	0	2.387864	6.318698	-24.529033	6.318698	68021	2.675035E-10	3.738269E+9	19.036636	0.771739	0	0
0	0	0	2.249796	6.318837	-24.722632	6.318837	64318	-8.280032E-10	-1.207725E+9	19.040802	0.771937	0	0
0	0	0	2.113116	6.318774	-24.913429	6.318774	60850.75	8.486476E-10	1.178345E+9	18.79214	0.769476	0	0
0	0	0	1.983133	6.318893	-25.095639	6.318893	57727	-2.742869E-10	-3.645818E+9	19.346875	0.768285	0	0
0	0	0	1.852987	6.318949	-25.277811	6.318949	54760	-1.595358E-10	-6.268185E+9	18.837825	0.767332	0	0
0	0	0	1.730191	6.318928	-25.449378	6.318928	52100.5	-1.775436E-10	-5.632421E+9	19.456045	0.765189	0	0
0	0	0	1.613684	6.318872	-25.612003	6.318872	49696.5	-3.093113E-10	-3.232989E+9	18.905717	0.764395	0	0
0	0	0	1.492236	6.319004	-25.782347	6.319004	47308.75	-9.938197E-11	-1.006219E+10	19.308359	0.762291	0	0
0	0	0	1.385939	6.319025	-25.931032	6.319025	45313.25	-8.61758E-11	-1.160419E+10	18.977578	0.761497	0	0
0	0	0	1.278416	6.318942	-26.080978	6.318942	43380.5	-1.328051E-10	-7.529832E+9	19.013692	0.759671	0	0
0	0	0	1.17853	6.318949	-26.22064	6.318949	41658.75	-1.213671E-10	-8.239465E+9	18.933533	0.758599	0	0
0	0	0	1.078847	6.318844	-26.359532	6.318844	40008.75	-4.243771E-10	-2.356395E+9	18.810457	0.75713	0	0
0	0	0	0.980554	6.318726	-26.496422	6.318726	38445.5	2.046182E-10	4.88715E+9	18.905602	0.755146	0	0
0	0	0	0.887242	6.318642	-26.626498	6.318642	37018.25	9.563847E-11	1.045604E+10	18.808671	0.754391	0	0
0	0	0	0.789929	6.318635	-26.762501	6.318635	35586.25	8.815844E-11	1.134321E+10	18.852621	0.751851	0	0
0	0	0	0.694984	6.318774	-26.895832	6.318774	34242.5	4.775589E-10	2.093982E+9	18.930747	0.75193	0	0
0	0	0	0.601141	6.318851	-27.027349	6.318851	32964	-2.973095E-10	-3.363499E+9	18.882579	0.74935	0	0
0	0	0	0.505869	6.319032	-27.161323	6.319032	31715	-5.846931E-11	-1.710299E+10	19.222631	0.748635	0	0
0	0	0	0.405983	6.318893	-27.300345	6.318893	30456.25	-1.447113E-10	-6.91031E+9	18.866273	0.746849	0	0
0	0	0	0.310875	6.318837	-27.433052	6.318837	29304.25	-3.772507E-10	-2.650757E+9	19.402885	0.744944	0	0
0	0	0	0.215317	6.31876	-27.566295	6.31876	28190.75	2.687415E-10	3.721047E+9	18.887144	0.744785	0	0
0	0	0	0.109346	6.318607	-27.713757	6.318607	27005.25	5.745135E-11	1.740603E+10	19.271549	0.741689	0	0
0	0	0	0.008071	6.318795	-27.856157	6.318795	25918.75	1.183002E-9	8.453074E+8	18.986551	0.742125	0	0
0	0	0	-0.101044	6.318865	-28.008997	6.318865	24797	-1.721174E-10	-5.809989E+9	19.029628	0.739466	0	0
0	0	0	-0.20726	6.31874	-28.156922	6.31874	23752	1.535428E-10	6.512841E+9	19.147766	0.738632	0	0
0	0	0	-0.293344	6.31899	-28.278368	6.31899	22937.25	-5.179654E-11	-1.930631E+10	18.844117	0.737441	0	0
0	0	0	-0.343532	6.318921	-28.348218	6.318921	22475.25	-8.118088E-11	-1.231817E+10	19.149285	0.73498	0	0
0	0	0	-0.374037	6.319116	-28.391726	6.319116	22199	-2.993405E-11	-3.340677E+10	18.800094	0.734901	0	0
0	0	0	-0.385144	6.319046	-28.406945	6.319046	22099.25	-3.839226E-11	-2.604691E+10	18.981714	0.732559	0	0
0	0	0	-0.392372	6.319151	-28.417512	6.319151	22034.5	-2.672187E-11	-3.742253E+10	18.816949	0.731566	0	0
0	0	0	-0.397885	6.31883	-28.423797	6.31883	21985.5	-3.599431E-10	-2.778217E+9	18.968753	0.729939	0	0
0	0	0	-0.405072	6.319158	-28.435297	6.319158	21921.5	-2.606027E-11	-3.837259E+10	18.890883	0.728867	0	0
0	0	0	-0.407564	6.319137	-28.438687	6.319137	21899.25	-2.767185E-11	-3.61378E+10	19.114024	0.727358	0	0
0	0	0	-0.409197	6.319088	-28.440754	6.319088	21884.75	-3.241201E-11	-3.085276E+10	19.076947	0.725651	0	0
0	0	0	-0.412464	6.318956	-28.444733	6.318956	21855.75	-6.073677E-11	-1.646449E+10	19.1817	0.725016	0	0
0	0	0	-0.415772	6.318879	-28.449017	6.318879	21826.5	-1.231284E-10	-8.121605E+9	18.861573	0.722515	0	0
0	0	0	-0.416058	6.319088	-28.450344	6.319088	21824	-3.232203E-11	-3.093865E+10	19.265618	0.722317	0	0
0	0	0	-0.415649	6.318956	-28.449186	6.318956	21827.5	-6.065827E-11	-1.64858E+10	18.627768	0.720173	0	0
0	0	0	-0.41863	6.318893	-28.453075	6.318893	21801.25	-1.035875E-10	-9.653673E+9	19.334059	0.7193	0	0
0	0	0	-0.417242	6.31899	-28.451567	6.31899	21813.5	-4.925891E-11	-2.03009E+10	18.463116	0.718069	0	0
0	0	0	-0.418099	6.318858	-28.452178	6.318858	21806	-1.710646E-10	-5.845746E+9	19.230062	0.716045	0	0
0	0	0	-0.418916	6.318921	-28.453598	6.318921	21798.75	-7.873735E-11	-1.270045E+10	18.501659	0.715846	0	0
0	0	0	-0.418916	6.319109	-28.454433	6.319109	21798.75	-3.006729E-11	-3.325874E+10	19.039159	0.712949	0	0
0	0	0	-0.418875	6.319109	-28.454376	6.319109	21799	-3.006763E-11	-3.325836E+10	18.762038	0.713147	0	0
0	0	0	-0.419039	6.319025	-28.454233	6.319025	21797.75	-4.145451E-11	-2.412283E+10	18.923588	0.710607	0	0
0	0	0	-0.418753	6.319102	-28.454174	6.319102	21800.25	-3.077389E-11	-3.249508E+10	19.009236	0.709971	0	0
0	0	0	-0.418508	6.318788	-28.45244	6.318788	21802.25	5.661853E-10	1.766206E+9	18.968128	0.70882	0	0
0	0	0	-0.416997	6.31897	-28.451132	6.31897	21815.75	-5.550521E-11	-1.801633E+10	19.230841	0.706637	0	0
0	0	0	-0.416711	6.319339	-28.45237	6.319339	21818.25	-1.714285E-11	-5.833335E+10	19.138037	0.706478	0	0
0	0	0	-0.417323	6.318976	-28.451619	6.318976	21812.75	-5.324889E-11	-1.877974E+10	19.150397	0.703739	0	0
0	0	0	-0.414832	6.318956	-28.448044	6.318956	21835	-6.067911E-11	-1.648014E+10	19.18413	0.703461	0	0
0	0	0	-0.41373	6.31883	-28.445947	6.31883	21844.75	-3.576387E-10	-2.796118E+9	18.800035	0.702072	0	0
0	0	0	-0.413812	6.318851	-28.446154	6.318851	21843.75	-1.970135E-10	-5.075794E+9	19.110544	0.700564	0	0
0	0	0	-0.412301	6.319025	-28.444814	6.319025	21857.25	-4.156766E-11	-2.405716E+10	18.604126	0.699611	0	0
0	0	0	-0.411974	6.319046	-28.44445	6.319046	21860.25	-3.797706E-11	-2.633169E+10	18.869905	0.697507	0	0
0	0	0	-0.411892	6.318956	-28.443934	6.318956	21860.75	-6.075067E-11	-1.646072E+10	18.679089	0.696832	0	0
0	0	0	-0.412464	6.319088	-28.445321	6.319088	21855.75	-3.236906E-11	-3.08937E+10	18.576552	0.694808	0	0
0	0	0	-0.412709	6.318921	-28.444921	6.318921	21853.75	-7.893601E-11	-1.266849E+10	19.103087	0.694688	0	0
0	0	0	-0.41177	6.319192	-28.444814	6.319192	21862	-2.365571E-11	-4.22731E+10	18.614099	0.692307	0	0
0	0	0	-0.410708	6.319025	-28.442588	6.319025	21871.5	-4.159476E-11	-2.404149E+10	19.451964	0.691513	0	0
0	0	0	-0.410545	6.318656	-28.440721	6.318656	21872.75	6.181039E-11	1.617851E+10	18.704352	0.690163	0	0
0	0	0	-0.411157	6.318684	-28.441701	6.318684	21867.5	7.606704E-11	1.31463E+10	19.46146	0.688417	0	0
0	0	0	-0.411729	6.318997	-28.443891	6.318997	21862.25	-4.758543E-11	-2.101483E+10	18.740171	0.688139	0	0
0	0	0	-0.411402	6.31899	-28.443404	6.31899	21865.25	-4.937577E-11	-2.025285E+10	19.167662	0.68532	0	0
0	0	0	-0.412913	6.318851	-28.444898	6.318851	21851.75	-1.970857E-10	-5.073936E+9	18.846058	0.685638	0	0
0	0	0	-0.412831	6.318914	-28.445062	6.318914	21852.5	-8.39654E-11	-1.190967E+10	18.768907	0.683256	0	0
0	0	0	-0.411402	6.318886	-28.44294	6.318886	21865.25	-1.127864E-10	-8.866314E+9	18.905285	0.682462	0	0
0	0	0	-0.412627	6.319067	-28.445456	6.319067	21854.25	-3.494381E-11	-2.861737E+10	18.534936	0.681192	0	0
0	0	0	-0.411566	6.318886	-28.443168	6.318886	21863.75	-1.127787E-10	-8.866923E+9	18.861354	0.679167	0	0
0	0	0	-0.414097	6.3189	-28.44677	6.3189	21841.5	-9.619259E-11	-1.039581E+10	18.525676	0.679247	0	0
0	0	0	-0.415077	6.319304	-28.449932	6.319304	21832.75	-1.835083E-11	-5.449345E+10	18.604767	0.676627	0	0
0	0	0	-0.415853	6.318942	-28.44941	6.318942	21825.75	-6.681737E-11	-1.496617E+10	18.743968	0.676547	0	0
0	0	0	-0.417405	6.318747	-28.450713	6.318747	21812	1.579492E-10	6.33115E+9	18.420334	0.674602	0	0
0	0	0	-0.41716	6.318858	-28.450865	6.318858	21814.25	-1.711293E-10	-5.843535E+9	19.18026	0.673292	0	0
0	0	0	-0.418018	6.319039	-28.452868	6.319039	21806.75	-3.900894E-11	-2.563515E+10	18.628135	0.672578	0	0
0	0	0	-0.419488	6.31899	-28.454707	6.31899	21793.75	-4.921431E-11	-2.031929E+10	19.357111	0.670633	0	0
0	0	0	-0.420876	6.319109	-28.457173	6.319109	21781.5	-3.004349E-11	-3.328508E+10	18.818259	0.670196	0	0
0	0	0	-0.421856	6.319067	-28.458358	6.319067	21772.75	-3.48135E-11	-2.872449E+10	19.275313	0.668013	0	0
0	0	0	-0.422142	6.318893	-28.457984	6.318893	21770.25	-1.034402E-10	-9.66742E+9	18.988333	0.667259	0	0
0	0	0	-0.423122	6.318921	-28.459478	6.318921	21761.75	-7.860371E-11	-1.272205E+10	19.092598	0.665472	0	0
0	0	0	-0.422591	6.319172	-28.459849	6.319172	21766.25	-2.489334E-11	-4.017139E+10	18.958531	0.664837	0	0
0	0	0	-0.42398	6.318851	-28.460368	6.318851	21754	-1.96204E-10	-5.096735E+9	18.842167	0.663845	0	0
0	0	0	-0.424266	6.319039	-28.461602	6.319039	21751.5	-3.89101E-11	-2.570027E+10	18.6933	0.661701	0	0
0	0	0	-0.425491	6.319137	-28.463748	6.319137	21740.75	-2.747157E-11	-3.640126E+10	18.784345	0.661582	0	0
0	0	0	-0.424715	6.318893	-28.461581	6.318893	21747.5	-1.033321E-10	-9.677533E+9	18.443595	0.659081	0	0
0	0	0	-0.426308	6.31906	-28.464549	6.31906	21733.5	-3.569814E-11	-2.801266E+10	18.746549	0.659161	0	0
0	0	0	-0.423408	6.318928	-28.459909	6.318928	21759	-7.414843E-11	-1.348646E+10	18.4469	0.656858	0	0
0	0	0	-0.424184	6.319032	-28.461457	6.319032	21752.25	-4.010213E-11	-2.493633E+10	19.005894	0.656025	0	0
0	0	0	-0.423816	6.318907	-28.460387	6.318907	21755.5	-8.928701E-11	-1.119984E+10	18.614407	0.654953	0	0
0	0	0	-0.424511	6.319011	-28.461821	6.319011	21749.25	-4.414949E-11	-2.265032E+10	19.282733	0.653246	0	0
0	0	0	-0.42251	6.318872	-28.458406	6.318872	21767	-1.354779E-10	-7.381277E+9	18.853555	0.652849	0	0
0	0	0	-0.423571	6.319151	-28.461126	6.319151	21757.5	-2.638595E-11	-3.789896E+10	19.156155	0.650269	0	0
0	0	0	-0.423367	6.318809	-28.459326	6.318809	21759.5	-1.927903E-9	-5.186982E+8	19.005315	0.650388	0	0
0	0	0	-0.420876	6.31897	-28.456555	6.31897	21781.5	-5.541806E-11	-1.804466E+10	18.880208	0.648681	0	0
0	0	0	-0.420672	6.319039	-28.456579	6.319039	21783.25	-3.89669E-11	-2.566281E+10	19.068099	0.647569	0	0
0	0	0	-0.421489	6.319199	-28.458431	6.319199	21776	-2.314694E-11	-4.320226E+10	18.567541	0.646696	0	0
0	0	0	-0.419733	6.318809	-28.454245	6.318809	21791.5	-1.930739E-9	-5.179365E+8	18.881627	0.644552	0	0
0	0	0	-0.417977	6.318886	-28.452131	6.318886	21807	-1.12486E-10	-8.889998E+9	18.344367	0.644195	0	0
0	0	0	-0.41765	6.318802	-28.451303	6.318802	21810	4.106303E-9	2.435281E+8	18.809774	0.642329	0	0
0	0	0	-0.41765	6.318963	-28.452014	6.318963	21810	-5.793725E-11	-1.726005E+10	18.522341	0.641496	0	0
0	0	0	-0.417242	6.318886	-28.451103	6.318886	21813.5	-1.125195E-10	-8.887349E+9	18.835358	0.639948	0	0
0	0	0	-0.413852	6.31883	-28.446118	6.31883	21843.5	-3.576183E-10	-2.796278E+9	18.747584	0.638757	0	0
0	0	0	-0.41471	6.319025	-28.448182	6.319025	21836	-4.152725E-11	-2.408057E+10	18.920406	0.637566	0	0
0	0	0	-0.414955	6.318942	-28.448154	6.318942	21833.75	-6.684186E-11	-1.496069E+10	18.80501	0.63574	0	0
0	0	0	-0.415363	6.319025	-28.449096	6.319025	21830.25	-4.151632E-11	-2.408692E+10	19.025863	0.63566	0	0
0	0	0	-0.414424	6.318907	-28.447257	6.318907	21838.5	-8.962765E-11	-1.115727E+10	18.660464	0.633239	0	0
0	0	0	-0.411811	6.318802	-28.44314	6.318802	21861.75	4.116046E-9	2.429516E+8	19.020149	0.63312	0	0
0	0	0	-0.413526	6.319172	-28.447176	6.319172	21846.5	-2.498512E-11	-4.002383E+10	18.350306	0.630937	0	0
0	0	0	-0.412709	6.318942	-28.445014	6.318942	21853.75	-6.690308E-11	-1.494699E+10	18.908489	0.630063	0	0
0	0	0	-0.413689	6.31897	-28.446508	6.31897	21845	-5.557963E-11	-1.79922E+10	18.407295	0.628952	0	0
0	0	0	-0.415118	6.318816	-28.447826	6.318816	21832.25	-7.829508E-10	-1.277219E+9	19.113315	0.626967	0	0
0	0	0	-0.414587	6.31913	-28.448475	6.31913	21837	-2.818431E-11	-3.548073E+10	18.610918	0.627245	0	0
0	0	0	-0.414383	6.31897	-28.447478	6.31897	21838.75	-5.556372E-11	-1.799735E+10	18.943554	0.624506	0	0
0	0	0	-0.413648	6.319102	-28.447038	6.319102	21845.25	-3.083741E-11	-3.242815E+10	18.772244	0.624585	0	0
0	0	0	-0.415527	6.319011	-28.449262	6.319011	21828.75	-4.431087E-11	-2.256783E+10	18.627358	0.62268	0	0
0	0	0	-0.416017	6.319018	-28.449978	6.319018	21824.5	-4.285823E-11	-2.333274E+10	18.839778	0.62141	0	0
0	0	0	-0.416384	6.319011	-28.450461	6.319011	21821.25	-4.429564E-11	-2.257558E+10	18.365216	0.620973	0	0
0	0	0	-0.418508	6.319018	-28.45346	6.319018	21802.25	-4.281453E-11	-2.335655E+10	18.780717	0.618829	0	0
0	0	0	-0.417446	6.318976	-28.451791	6.318976	21811.75	-5.324645E-11	-1.87806E+10	18.321026	0.618472	0	0
0	0	0	-0.420019	6.319137	-28.456098	6.319137	21789	-2.753254E-11	-3.632066E+10	18.856624	0.616606	0	0
0	0	0	-0.420345	6.319137	-28.456555	6.319137	21786	-2.752875E-11	-3.632566E+10	18.58436	0.615932	0	0
0	0	0	-0.421856	6.319039	-28.458234	6.319039	21772.75	-3.894812E-11	-2.567518E+10	18.919028	0.614502	0	0
0	0	0	-0.421407	6.318942	-28.457173	6.318942	21776.75	-6.666736E-11	-1.499984E+10	18.784318	0.613193	0	0
0	0	0	-0.42398	6.319011	-28.461079	6.319011	21754	-4.415913E-11	-2.264537E+10	18.80571	0.612676	0	0
0	0	0	-0.42251	6.31897	-28.458838	6.31897	21767	-5.538117E-11	-1.805668E+10	18.565833	0.610811	0	0
0	0	0	-0.424592	6.319102	-28.462337	6.319102	21748.75	-3.070119E-11	-3.257203E+10	18.83713	0.610334	0	0
0	0	0	-0.425205	6.319339	-28.464244	6.319339	21743.25	-1.708392E-11	-5.853456E+10	18.413095	0.608072	0	0
0	0	0	-0.42545	6.318907	-28.46267	6.318907	21741	-8.92275E-11	-1.120731E+10	18.896375	0.608111	0	0
0	0	0	-0.425736	6.318983	-28.46341	6.318983	21738.5	-5.100113E-11	-1.960741E+10	18.154602	0.606166	0	0
0	0	0	-0.425409	6.318858	-28.462397	6.318858	21741.5	-1.705586E-10	-5.863088E+9	18.951814	0.605333	0	0
0	0	0	-0.426267	6.319053	-28.464461	6.319053	21734	-3.669949E-11	-2.724833E+10	18.09018	0.604539	0	0
0	0	0	-0.426716	6.31897	-28.464718	6.31897	21729.75	-5.52864E-11	-1.808763E+10	18.855942	0.602554	0	0
0	0	0	-0.426838	6.319088	-28.465415	6.319088	21728.75	-3.218097E-11	-3.107427E+10	18.341157	0.602752	0	0
0	0	0	-0.426675	6.31899	-28.464754	6.31899	21730.25	-4.907092E-11	-2.037867E+10	18.912889	0.599974	0	0
0	0	0	-0.426757	6.318851	-28.46425	6.318851	21729.5	-1.959831E-10	-5.102482E+9	18.688083	0.60041	0	0
0	0	0	-0.426634	6.319137	-28.465346	6.319137	21730.75	-2.745894E-11	-3.641801E+10	18.800232	0.598386	0	0
0	0	0	-0.426308	6.319039	-28.464456	6.319039	21733.5	-3.887791E-11	-2.572155E+10	18.969822	0.597393	0	0
0	0	0	-0.424756	6.318837	-28.461391	6.318837	21747.25	-2.79965E-10	-3.571875E+9	18.773896	0.59648	0	0
0	0	0	-0.424919	6.319081	-28.462701	6.319081	21745.75	-3.301779E-11	-3.02867E+10	18.922269	0.594456	0	0
0	0	0	-0.423204	6.319032	-28.460087	6.319032	21760.75	-4.01178E-11	-2.492659E+10	18.647039	0.594456	0	0
0	0	0	-0.422551	6.318976	-28.458926	6.318976	21766.75	-5.313659E-11	-1.881942E+10	18.551109	0.592273	0	0
0	0	0	-0.421734	6.319018	-28.45797	6.319018	21773.75	-4.275857E-11	-2.338713E+10	18.537769	0.592035	0	0
0	0	0	-0.421897	6.319011	-28.458168	6.319011	21772.5	-4.419668E-11	-2.262613E+10	18.244265	0.590486	0	0
0	0	0	-0.421203	6.318921	-28.456795	6.318921	21778.5	-7.866421E-11	-1.271226E+10	18.373954	0.589415	0	0
0	0	0	-0.420672	6.31897	-28.456269	6.31897	21783.25	-5.542252E-11	-1.804321E+10	18.336463	0.588462	0	0
0	0	0	-0.419651	6.318886	-28.454471	6.318886	21792.25	-1.124099E-10	-8.896015E+9	18.332172	0.586715	0	0
0	0	0	-0.418181	6.31897	-28.452787	6.31897	21805.25	-5.547849E-11	-1.8025E+10	18.839893	0.586676	0	0
0	0	0	-0.41814	6.31897	-28.45273	6.31897	21805.5	-5.547913E-11	-1.80248E+10	18.588825	0.584056	0	0
0	0	0	-0.417323	6.318823	-28.450939	6.318823	21812.75	-4.903666E-10	-2.039291E+9	19.20436	0.584492	0	0
0	0	0	-0.417323	6.318921	-28.451372	6.318921	21812.75	-7.878792E-11	-1.26923E+10	18.476073	0.582507	0	0
0	0	0	-0.417446	6.319046	-28.4521	6.319046	21811.75	-3.78928E-11	-2.639024E+10	19.217753	0.581674	0	0
0	0	0	-0.416303	6.318928	-28.449976	6.318928	21821.75	-7.436226E-11	-1.344768E+10	18.244738	0.580602	0	0
0	0	0	-0.416343	6.319186	-28.451177	6.319186	21821.5	-2.40437E-11	-4.159093E+10	18.932211	0.579054	0	0
0	0	0	-0.415445	6.318781	-28.448128	6.318781	21829.5	3.961421E-10	2.524347E+9	18.137995	0.579173	0	0
0	0	0	-0.4152	6.318754	-28.447662	6.318754	21831.5	1.796875E-10	5.565219E+9	18.505715	0.576513	0	0
0	0	0	-0.415731	6.318956	-28.4493	6.318956	21827	-6.065688E-11	-1.648618E+10	18.204459	0.57691	0	0
0	0	0	-0.415568	6.318621	-28.447588	6.318621	21828.25	4.996643E-11	2.001344E+10	18.216303	0.574648	0	0
0	0	0	-0.415037	6.318928	-28.448206	6.318928	21833	-7.44006E-11	-1.344075E+10	18.38941	0.574171	0	0
0	0	0	-0.415445	6.318851	-28.448437	6.318851	21829.5	-1.96885E-10	-5.079108E+9	18.354513	0.573496	0	0
0	0	0	-0.415363	6.319004	-28.449003	6.319004	21830.25	-4.585903E-11	-2.180596E+10	18.595946	0.571472	0	0
0	0	0	-0.415649	6.31897	-28.449248	6.31897	21827.5	-5.55351E-11	-1.800663E+10	18.672328	0.571631	0	0
0	0	0	-0.416752	6.318809	-28.450078	6.318809	21818	-1.933087E-9	-5.173074E+8	18.647967	0.569289	0	0
0	0	0	-0.418589	6.319165	-28.454224	6.319165	21801.75	-2.54164E-11	-3.934467E+10	18.961672	0.569011	0	0
0	0	0	-0.418957	6.318635	-28.452388	6.318635	21798.5	5.400181E-11	1.85179E+10	18.516751	0.567582	0	0
0	0	0	-0.419937	6.318914	-28.454995	6.318914	21789.75	-8.372429E-11	-1.194397E+10	18.9839	0.56655	0	0
0	0	0	-0.421407	6.318872	-28.456864	6.318872	21776.75	-1.355386E-10	-7.377972E+9	18.407406	0.565875	0	0
0	0	0	-0.422632	6.3189	-28.4587	6.3189	21766	-9.586008E-11	-1.043187E+10	18.756186	0.564247	0	0
0	0	0	-0.422918	6.319179	-28.460337	6.319179	21763.5	-2.442651E-11	-4.093912E+10	18.366791	0.56389	0	0
0	0	0	-0.424225	6.318928	-28.46105	6.318928	21752	-7.412457E-11	-1.34908E+10	18.276521	0.561826	0	0
0	0	0	-0.425777	6.319039	-28.463714	6.319039	21738.25	-3.88864E-11	-2.571593E+10	18.582899	0.561707	0	0
0	0	0	-0.42447	6.319165	-28.462444	6.319165	21749.75	-2.535578E-11	-3.943873E+10	17.97289	0.559881	0	0
0	0	0	-0.425327	6.319116	-28.463426	6.319116	21742.25	-2.931815E-11	-3.410856E+10	18.799043	0.559166	0	0
0	0	0	-0.426063	6.31906	-28.464207	6.31906	21735.75	-3.570184E-11	-2.800976E+10	18.052724	0.558491	0	0
0	0	0	-0.427328	6.318928	-28.465389	6.318928	21724.5	-7.403086E-11	-1.350788E+10	18.954793	0.556626	0	0
0	0	0	-0.427165	6.318942	-28.465222	6.318942	21726	-6.651199E-11	-1.503488E+10	18.332564	0.556467	0	0
0	0	0	-0.4279	6.319053	-28.466745	6.319053	21719.5	-3.667501E-11	-2.726652E+10	18.756542	0.554165	0	0
0	0	0	-0.428839	6.318956	-28.467625	6.318956	21711.25	-6.033521E-11	-1.657407E+10	18.454849	0.554601	0	0
0	0	0	-0.428309	6.318949	-28.466852	6.318949	21716	-6.326661E-11	-1.580613E+10	18.406947	0.552616	0	0
0	0	0	-0.427002	6.319004	-28.465272	6.319004	21727.5	-4.564318E-11	-2.190908E+10	18.540578	0.552061	0	0
0	0	0	-0.42888	6.319011	-28.467929	6.319011	21711	-4.407184E-11	-2.269022E+10	18.197692	0.551108	0	0
0	0	0	-0.428145	6.319053	-28.467087	6.319053	21717.25	-3.667121E-11	-2.726935E+10	18.413924	0.549202	0	0
0	0	0	-0.426471	6.318983	-28.464437	6.318983	21732	-5.098588E-11	-1.961327E+10	18.314455	0.549361	0	0
0	0	0	-0.426961	6.319046	-28.465401	6.319046	21727.75	-3.774687E-11	-2.649226E+10	18.230232	0.547099	0	0
0	0	0	-0.426308	6.318963	-28.464116	6.318963	21733.5	-5.773403E-11	-1.732081E+10	18.561023	0.5469	0	0
0	0	0	-0.427165	6.319206	-28.466397	6.319206	21726	-2.269341E-11	-4.406565E+10	18.089938	0.545749	0	0
0	0	0	-0.426634	6.319039	-28.464913	6.319039	21730.75	-3.887299E-11	-2.572481E+10	18.666126	0.544757	0	0
0	0	0	-0.423531	6.319186	-28.461224	6.319186	21758	-2.397374E-11	-4.171231E+10	18.081985	0.544042	0	0
0	0	0	-0.423857	6.319095	-28.461279	6.319095	21755.25	-3.144717E-11	-3.179936E+10	18.597648	0.542414	0	0
0	0	0	-0.422591	6.318886	-28.458582	6.318886	21766.25	-1.122758E-10	-8.906641E+9	18.196327	0.542057	0	0
0	0	0	-0.422918	6.3189	-28.4591	6.3189	21763.5	-9.584907E-11	-1.043307E+10	18.42057	0.540231	0	0
0	0	0	-0.422346	6.319276	-28.45997	6.319276	21768.5	-1.93782E-11	-5.160438E+10	18.446949	0.540191	0	0
0	0	0	-0.42104	6.318788	-28.455979	6.318788	21780	5.656075E-10	1.768011E+9	18.058701	0.538405	0	0
0	0	0	-0.419896	6.318976	-28.455216	6.318976	21790	-5.319335E-11	-1.879934E+10	18.712955	0.538008	0	0
0	0	0	-0.419161	6.319025	-28.454405	6.319025	21796.5	-4.145213E-11	-2.412421E+10	18.051314	0.536778	0	0
0	0	0	-0.419406	6.318851	-28.453974	6.318851	21794.5	-1.965693E-10	-5.087264E+9	18.828367	0.53519	0	0
0	0	0	-0.417773	6.318851	-28.451691	6.318851	21808.75	-1.966978E-10	-5.08394E+9	18.177283	0.535388	0	0
0	0	0	-0.417242	6.318844	-28.450918	6.318844	21813.5	-2.313781E-10	-4.32193E+9	0	0	0	0
0	0	0	-0.417242	6.318893	-28.451134	6.318893	21813.5	-1.036457E-10	-9.648252E+9	0	0	0	0
0	0	0	-0.416833	6.318942	-28.45078	6.318942	21817	-6.679058E-11	-1.497217E+10	0	0	0	0
0	0	0	-0.416017	6.318921	-28.449545	6.318921	21824.5	-7.883036E-11	-1.268547E+10	0	0	0	0
0	0	0	-0.415813	6.319053	-28.449847	6.319053	21826.25	-3.685527E-11	-2.713316E+10	0	0	0	0
0	0	0	-0.416262	6.318949	-28.450011	6.318949	21822.25	-6.357616E-11	-1.572917E+10	0	0	0	0
0	0	0	-0.416548	6.318886	-28.450133	6.318886	21819.75	-1.125517E-10	-8.884803E+9	0	0	0	0
0	0	0	-0.416221	6.318851	-28.449522	6.318851	21822.5	-1.968218E-10	-5.080737E+9	0	0	0	0
0	0	0	-0.416303	6.318781	-28.449327	6.318781	21821.75	3.960014E-10	2.525243E+9	0	0	0	0
0	0	0	-0.417814	6.318886	-28.451902	6.318886	21808.5	-1.124937E-10	-8.889386E+9	0	0	0	0
0	0	0	-0.417078	6.318928	-28.45106	6.318928	21815	-7.433926E-11	-1.345184E+10	0	0	0	0
0	0	0	-0.417609	6.318858	-28.451493	6.318858	21810.25	-1.710979E-10	-5.844607E+9	0	0	0	0
0	0	0	-0.418426	6.318942	-28.453006	6.318942	21803	-6.674772E-11	-1.498179E+10	0	0	0	0
0	0	0	-0.420141	6.318754	-28.454569	6.318754	21788	1.793294E-10	5.57633E+9	0	0	0	0
0	0	0	-0.419651	6.318949	-28.45475	6.318949	21792.25	-6.348875E-11	-1.575082E+10	0	0	0	0
0	0	0	-0.420631	6.31897	-28.456212	6.31897	21783.5	-5.542315E-11	-1.8043E+10	0	0	0	0
0	0	0	-0.423041	6.318997	-28.459704	6.318997	21762.25	-4.736777E-11	-2.11114E+10	0	0	0	0
0	0	0	-0.422755	6.319067	-28.459614	6.319067	21765	-3.480111E-11	-2.873472E+10	0	0	0	0
0	0	0	-0.423776	6.319095	-28.461164	6.319095	21755.75	-3.14479E-11	-3.179863E+10	0	0	0	0
0	0	0	-0.426879	6.318963	-28.464916	6.318963	21728.5	-5.772075E-11	-1.732479E+10	0	0	0	0
0	0	0	-0.426553	6.319011	-28.464675	6.319011	21731.25	-4.411295E-11	-2.266908E+10	0	0	0	0
0	0	0	-0.426716	6.318983	-28.46478	6.318983	21729.75	-5.09806E-11	-1.96153E+10	0	0	0	0
0	0	0	-0.426716	6.318949	-28.464625	6.318949	21729.75	-6.330667E-11	-1.579612E+10	0	0	0	0
0	0	0	-0.427083	6.318872	-28.464799	6.318872	21726.75	-1.352274E-10	-7.394951E+9	0	0	0	0
0	0	0	-0.428472	6.319004	-28.467327	6.319004	21714.5	-4.561587E-11	-2.19222E+10	0	0	0	0
0	0	0	-0.427778	6.318872	-28.46577	6.318872	21720.5	-1.351885E-10	-7.397079E+9	0	0	0	0
0	0	0	-0.427859	6.318907	-28.466038	6.318907	21719.75	-8.914029E-11	-1.121827E+10	0	0	0	0
0	0	0	-0.428186	6.319004	-28.466928	6.319004	21717	-4.562112E-11	-2.191967E+10	0	0	0	0
0	0	0	-0.429615	6.318928	-28.468586	6.318928	21704.5	-7.396271E-11	-1.352033E+10	0	0	0	0
0	0	0	-0.427818	6.31899	-28.466352	6.31899	21720.25	-4.904833E-11	-2.038805E+10	0	0	0	0
0	0	0	-0.427451	6.318983	-28.465808	6.318983	21723.5	-5.096594E-11	-1.962095E+10	0	0	0	0
0	0	0	-0.427002	6.319025	-28.465365	6.319025	21727.5	-4.132091E-11	-2.420082E+10	0	0	0	0
0	0	0	-0.42839	6.318921	-28.466842	6.318921	21715.25	-7.843575E-11	-1.274929E+10	0	0	0	0
0	0	0	-0.427451	6.319081	-28.46624	6.319081	21723.5	-3.298401E-11	-3.031772E+10	0	0	0	0
0	0	0	-0.426634	6.318997	-28.464728	6.318997	21730.75	-4.729921E-11	-2.1142E+10	0	0	0	0
0	0	0	-0.426308	6.319095	-28.464704	6.319095	21733.5	-3.141574E-11	-3.183118E+10	0	0	0	0
0	0	0	-0.425532	6.3189	-28.462754	6.3189	21740.5	-9.574778E-11	-1.044411E+10	0	0	0	0
0	0	0	-0.424511	6.318983	-28.461697	6.318983	21749.25	-5.102635E-11	-1.959772E+10	0	0	0	0
0	0	0	-0.424633	6.318851	-28.461281	6.318851	21748.25	-1.961522E-10	-5.098083E+9	0	0	0	0
0	0	0	-0.424552	6.318983	-28.461754	6.318983	21749	-5.102577E-11	-1.959794E+10	0	0	0	0
0	0	0	-0.422469	6.318983	-28.458843	6.318983	21767.25	-5.106858E-11	-1.958151E+10	0	0	0	0
0	0	0	-0.422959	6.319081	-28.459961	6.319081	21763	-3.304398E-11	-3.02627E+10	0	0	0	0
0	0	0	-0.419978	6.318893	-28.454959	6.318893	21789.25	-1.035305E-10	-9.65899E+9	0	0	0	0
0	0	0	-0.420876	6.318949	-28.456462	6.318949	21781.5	-6.345744E-11	-1.575859E+10	0	0	0	0
0	0	0	-0.418753	6.31899	-28.453679	6.31899	21800.25	-4.922899E-11	-2.031323E+10	0	0	0	0
0	0	0	-0.419039	6.319039	-28.454295	6.319039	21797.75	-3.899284E-11	-2.564573E+10	0	0	0	0
0	0	0	-0.419039	6.319025	-28.454233	6.319025	21797.75	-4.145451E-11	-2.412283E+10	0	0	0	0
0	0	0	-0.416956	6.319004	-28.451229	6.319004	21816	-4.582909E-11	-2.18202E+10	0	0	0	0
0	0	0	-0.417609	6.318886	-28.451617	6.318886	21810.25	-1.125027E-10	-8.888673E+9	0	0	0	0
0	0	0	-0.41814	6.318976	-28.452761	6.318976	21805.5	-5.323119E-11	-1.878598E+10	0	0	0	0
0	0	0	-0.416711	6.318781	-28.449898	6.318781	21818.25	3.959379E-10	2.525648E+9	0	0	0	0
0	0	0	-0.418998	6.319095	-28.454485	6.319095	21798	-3.150897E-11	-3.173699E+10	0	0	0	0
0	0	0	-0.417283	6.319102	-28.452119	6.319102	21813.25	-3.079224E-11	-3.247572E+10	0	0	0	0
0	0	0	-0.417201	6.319109	-28.452035	6.319109	21813.75	-3.008798E-11	-3.323587E+10	0	0	0	0
0	0	0	-0.416017	6.31913	-28.450473	6.31913	21824.5	-2.816818E-11	-3.550106E+10	0	0	0	0
0	0	0	-0.41667	6.319123	-28.451355	6.319123	21818.5	-2.87769E-11	-3.475009E+10	0	0	0	0
0	0	0	-0.417283	6.318872	-28.451099	6.318872	21813.25	-1.357658E-10	-7.365627E+9	0	0	0	0
0	0	0	-0.419161	6.318997	-28.454281	6.318997	21796.5	-4.744232E-11	-2.107823E+10	0	0	0	0
0	0	0	-0.420427	6.318837	-28.45534	6.318837	21785.5	-2.804574E-10	-3.565604E+9	0	0	0	0
0	0	0	-0.420631	6.318997	-28.456336	6.318997	21783.5	-4.741403E-11	-2.109081E+10	0	0	0	0
0	0	0	-0.42059	6.319004	-28.45631	6.319004	21784	-4.576187E-11	-2.185225E+10	0	0	0	0
0	0	0	-0.422877	6.318781	-28.458517	6.318781	21763.75	3.949489E-10	2.531973E+9	0	0	0	0
0	0	0	-0.423449	6.318844	-28.459595	6.318844	21758.75	-2.307974E-10	-4.332805E+9	0	0	0	0
0	0	0	-0.423122	6.319053	-28.460066	6.319053	21761.75	-3.674635E-11	-2.721359E+10	0	0	0	0
0	0	0	-0.424674	6.319158	-28.462699	6.319158	21747.75	-2.585372E-11	-3.867916E+10	0	0	0	0
0	0	0	-0.426308	6.318997	-28.464271	6.318997	21733.5	-4.73052E-11	-2.113933E+10	0	0	0	0
0	0	0	-0.426757	6.319304	-28.466259	6.319304	21729.5	-1.826405E-11	-5.475238E+10	0	0	0	0
0	0	0	-0.425246	6.318886	-28.462292	6.318886	21742.75	-1.121545E-10	-8.916268E+9	0	0	0	0
0	0	0	-0.427941	6.319011	-28.466616	6.319011	21719.25	-4.408859E-11	-2.268161E+10	0	0	0	0
0	0	0	-0.426471	6.318983	-28.464437	6.318983	21732	-5.098588E-11	-1.961327E+10	0	0	0	0
0	0	0	-0.428268	6.319004	-28.467042	6.319004	21716.25	-4.561955E-11	-2.192043E+10	0	0	0	0
0	0	0	-0.428799	6.318921	-28.467413	6.318921	21711.5	-7.842221E-11	-1.275149E+10	0	0	0	0
0	0	0	-0.428472	0	-0.428472	0	21714.5	0	0	0	0	0	0
0	0	0	-0.428921	0	-0.428921	0	21710.5	0	0	0	0	0	0
